Channel              :		CH1
Frequency            :		1.047kHz
Period               :		0.955ms
PK-PK                :		277.3mV
Probe attenuation    :		1X
Voltage per ADC value:		0.122070mV
Time interval        :		2.00000us

index		CH1_Voltage(mV)
1		-31.250000
2		-31.250000
3		-39.062500
4		-33.203125
5		-42.968750
6		-37.109375
7		-46.875000
8		-41.015625
9		-50.781250
10		-42.968750
11		-52.734375
12		-46.875000
13		-56.640625
14		-52.734375
15		-60.546875
16		-54.687500
17		-62.500000
18		-58.593750
19		-66.406250
20		-62.500000
21		-70.312500
22		-64.453125
23		-74.218750
24		-68.359375
25		-76.171875
26		-70.312500
27		-80.078125
28		-74.218750
29		-82.031250
30		-78.125000
31		-87.890625
32		-82.031250
33		-89.843750
34		-83.984375
35		-91.796875
36		-87.890625
37		-95.703125
38		-89.843750
39		-97.656250
40		-93.750000
41		-101.562500
42		-95.703125
43		-103.515625
44		-99.609375
45		-107.421875
46		-101.562500
47		-109.375000
48		-103.515625
49		-113.281250
50		-105.468750
51		-115.234375
52		-109.375000
53		-117.187500
54		-111.328125
55		-119.140625
56		-115.234375
57		-123.046875
58		-117.187500
59		-125.000000
60		-119.140625
61		-125.000000
62		-121.093750
63		-128.906250
64		-125.000000
65		-130.859375
66		-125.000000
67		-132.812500
68		-128.906250
69		-134.765625
70		-128.906250
71		-134.765625
72		-130.859375
73		-136.718750
74		-132.812500
75		-138.671875
76		-134.765625
77		-140.625000
78		-136.718750
79		-142.578125
80		-138.671875
81		-142.578125
82		-140.625000
83		-144.531250
84		-138.671875
85		-144.531250
86		-142.578125
87		-146.484375
88		-142.578125
89		-146.484375
90		-144.531250
91		-146.484375
92		-144.531250
93		-148.437500
94		-144.531250
95		-148.437500
96		-146.484375
97		-148.437500
98		-146.484375
99		-150.390625
100		-146.484375
101		-150.390625
102		-146.484375
103		-150.390625
104		-146.484375
105		-150.390625
106		-146.484375
107		-150.390625
108		-146.484375
109		-150.390625
110		-146.484375
111		-150.390625
112		-146.484375
113		-148.437500
114		-146.484375
115		-150.390625
116		-144.531250
117		-148.437500
118		-144.531250
119		-148.437500
120		-144.531250
121		-146.484375
122		-142.578125
123		-146.484375
124		-142.578125
125		-144.531250
126		-140.625000
127		-144.531250
128		-140.625000
129		-142.578125
130		-138.671875
131		-140.625000
132		-138.671875
133		-140.625000
134		-134.765625
135		-138.671875
136		-134.765625
137		-138.671875
138		-132.812500
139		-134.765625
140		-130.859375
141		-132.812500
142		-128.906250
143		-130.859375
144		-126.953125
145		-130.859375
146		-125.000000
147		-126.953125
148		-123.046875
149		-125.000000
150		-121.093750
151		-123.046875
152		-119.140625
153		-121.093750
154		-115.234375
155		-117.187500
156		-113.281250
157		-117.187500
158		-111.328125
159		-113.281250
160		-109.375000
161		-111.328125
162		-105.468750
163		-107.421875
164		-103.515625
165		-105.468750
166		-99.609375
167		-103.515625
168		-97.656250
169		-99.609375
170		-93.750000
171		-95.703125
172		-91.796875
173		-93.750000
174		-87.890625
175		-89.843750
176		-85.937500
177		-87.890625
178		-82.031250
179		-83.984375
180		-80.078125
181		-80.078125
182		-76.171875
183		-78.125000
184		-72.265625
185		-74.218750
186		-68.359375
187		-70.312500
188		-66.406250
189		-68.359375
190		-62.500000
191		-64.453125
192		-58.593750
193		-60.546875
194		-54.687500
195		-56.640625
196		-52.734375
197		-52.734375
198		-48.828125
199		-50.781250
200		-42.968750
201		-46.875000
202		-41.015625
203		-42.968750
204		-37.109375
205		-39.062500
206		-33.203125
207		-35.156250
208		-31.250000
209		-33.203125
210		-27.343750
211		-27.343750
212		-21.484375
213		-25.390625
214		-19.531250
215		-21.484375
216		-15.625000
217		-17.578125
218		-11.718750
219		-13.671875
220		-9.765625
221		-11.718750
222		-5.859375
223		-5.859375
224		-1.953125
225		-3.906250
226		1.953125
227		0.000000
228		5.859375
229		1.953125
230		7.812500
231		7.812500
232		11.718750
233		9.765625
234		15.625000
235		13.671875
236		17.578125
237		17.578125
238		21.484375
239		19.531250
240		25.390625
241		23.437500
242		27.343750
243		27.343750
244		31.250000
245		29.296875
246		35.156250
247		33.203125
248		37.109375
249		35.156250
250		41.015625
251		37.109375
252		42.968750
253		41.015625
254		46.875000
255		44.921875
256		50.781250
257		46.875000
258		52.734375
259		50.781250
260		54.687500
261		52.734375
262		58.593750
263		54.687500
264		60.546875
265		58.593750
266		62.500000
267		60.546875
268		66.406250
269		62.500000
270		68.359375
271		66.406250
272		70.312500
273		70.312500
274		74.218750
275		72.265625
276		76.171875
277		74.218750
278		78.125000
279		76.171875
280		80.078125
281		78.125000
282		82.031250
283		80.078125
284		85.937500
285		82.031250
286		87.890625
287		83.984375
288		87.890625
289		85.937500
290		89.843750
291		87.890625
292		91.796875
293		89.843750
294		93.750000
295		91.796875
296		97.656250
297		93.750000
298		97.656250
299		95.703125
300		99.609375
301		97.656250
302		101.562500
303		97.656250
304		101.562500
305		99.609375
306		103.515625
307		101.562500
308		105.468750
309		101.562500
310		105.468750
311		103.515625
312		107.421875
313		103.515625
314		109.375000
315		105.468750
316		109.375000
317		105.468750
318		109.375000
319		107.421875
320		111.328125
321		107.421875
322		111.328125
323		109.375000
324		113.281250
325		109.375000
326		113.281250
327		111.328125
328		113.281250
329		111.328125
330		115.234375
331		111.328125
332		113.281250
333		113.281250
334		115.234375
335		111.328125
336		115.234375
337		111.328125
338		117.187500
339		113.281250
340		117.187500
341		113.281250
342		115.234375
343		113.281250
344		115.234375
345		113.281250
346		115.234375
347		111.328125
348		115.234375
349		113.281250
350		115.234375
351		111.328125
352		117.187500
353		111.328125
354		115.234375
355		111.328125
356		115.234375
357		111.328125
358		113.281250
359		111.328125
360		113.281250
361		109.375000
362		113.281250
363		107.421875
364		113.281250
365		109.375000
366		111.328125
367		105.468750
368		111.328125
369		107.421875
370		109.375000
371		105.468750
372		109.375000
373		103.515625
374		107.421875
375		103.515625
376		107.421875
377		101.562500
378		105.468750
379		99.609375
380		103.515625
381		99.609375
382		103.515625
383		97.656250
384		101.562500
385		95.703125
386		99.609375
387		93.750000
388		99.609375
389		93.750000
390		97.656250
391		91.796875
392		95.703125
393		89.843750
394		93.750000
395		87.890625
396		91.796875
397		85.937500
398		89.843750
399		83.984375
400		87.890625
401		82.031250
402		85.937500
403		80.078125
404		83.984375
405		78.125000
406		82.031250
407		76.171875
408		80.078125
409		72.265625
410		78.125000
411		70.312500
412		74.218750
413		66.406250
414		74.218750
415		66.406250
416		70.312500
417		62.500000
418		68.359375
419		60.546875
420		66.406250
421		58.593750
422		62.500000
423		54.687500
424		60.546875
425		52.734375
426		56.640625
427		48.828125
428		54.687500
429		46.875000
430		50.781250
431		42.968750
432		48.828125
433		41.015625
434		44.921875
435		37.109375
436		42.968750
437		35.156250
438		39.062500
439		31.250000
440		37.109375
441		27.343750
442		33.203125
443		25.390625
444		29.296875
445		21.484375
446		27.343750
447		17.578125
448		23.437500
449		13.671875
450		19.531250
451		11.718750
452		15.625000
453		7.812500
454		13.671875
455		3.906250
456		9.765625
457		1.953125
458		7.812500
459		-1.953125
460		1.953125
461		-5.859375
462		-1.953125
463		-9.765625
464		-3.906250
465		-13.671875
466		-7.812500
467		-15.625000
468		-11.718750
469		-19.531250
470		-13.671875
471		-23.437500
472		-19.531250
473		-27.343750
474		-21.484375
475		-31.250000
476		-25.390625
477		-35.156250
478		-29.296875
479		-37.109375
480		-33.203125
481		-41.015625
482		-35.156250
483		-44.921875
484		-39.062500
485		-50.781250
486		-42.968750
487		-52.734375
488		-44.921875
489		-54.687500
490		-48.828125
491		-58.593750
492		-52.734375
493		-62.500000
494		-56.640625
495		-64.453125
496		-60.546875
497		-70.312500
498		-62.500000
499		-72.265625
500		-66.406250
501		-76.171875
502		-70.312500
503		-80.078125
504		-72.265625
505		-82.031250
506		-76.171875
507		-83.984375
508		-80.078125
509		-87.890625
510		-83.984375
511		-91.796875
512		-85.937500
513		-95.703125
514		-89.843750
515		-97.656250
516		-91.796875
517		-99.609375
518		-95.703125
519		-103.515625
520		-97.656250
521		-105.468750
522		-101.562500
523		-109.375000
524		-103.515625
525		-111.328125
526		-107.421875
527		-113.281250
528		-109.375000
529		-117.187500
530		-111.328125
531		-119.140625
532		-113.281250
533		-121.093750
534		-117.187500
535		-123.046875
536		-119.140625
537		-125.000000
538		-119.140625
539		-126.953125
540		-123.046875
541		-130.859375
542		-125.000000
543		-132.812500
544		-126.953125
545		-134.765625
546		-128.906250
547		-136.718750
548		-130.859375
549		-136.718750
550		-132.812500
551		-138.671875
552		-134.765625
553		-142.578125
554		-134.765625
555		-142.578125
556		-134.765625
557		-144.531250
558		-136.718750
559		-144.531250
560		-140.625000
561		-144.531250
562		-142.578125
563		-146.484375
564		-142.578125
565		-148.437500
566		-142.578125
567		-148.437500
568		-144.531250
569		-150.390625
570		-142.578125
571		-150.390625
572		-144.531250
573		-152.343750
574		-144.531250
575		-150.390625
576		-146.484375
577		-150.390625
578		-146.484375
579		-150.390625
580		-148.437500
581		-152.343750
582		-146.484375
583		-150.390625
584		-148.437500
585		-150.390625
586		-148.437500
587		-152.343750
588		-144.531250
589		-152.343750
590		-144.531250
591		-152.343750
592		-144.531250
593		-150.390625
594		-144.531250
595		-148.437500
596		-144.531250
597		-148.437500
598		-144.531250
599		-148.437500
600		-144.531250
601		-146.484375
602		-142.578125
603		-146.484375
604		-140.625000
605		-146.484375
606		-138.671875
607		-144.531250
608		-136.718750
609		-142.578125
610		-136.718750
611		-140.625000
612		-134.765625
613		-138.671875
614		-134.765625
615		-136.718750
616		-132.812500
617		-134.765625
618		-130.859375
619		-132.812500
620		-128.906250
621		-134.765625
622		-125.000000
623		-130.859375
624		-123.046875
625		-128.906250
626		-121.093750
627		-126.953125
628		-119.140625
629		-123.046875
630		-115.234375
631		-121.093750
632		-115.234375
633		-119.140625
634		-113.281250
635		-115.234375
636		-111.328125
637		-115.234375
638		-105.468750
639		-111.328125
640		-103.515625
641		-109.375000
642		-99.609375
643		-107.421875
644		-99.609375
645		-103.515625
646		-95.703125
647		-101.562500
648		-91.796875
649		-97.656250
650		-91.796875
651		-91.796875
652		-87.890625
653		-89.843750
654		-82.031250
655		-89.843750
656		-80.078125
657		-85.937500
658		-76.171875
659		-82.031250
660		-72.265625
661		-78.125000
662		-70.312500
663		-76.171875
664		-66.406250
665		-72.265625
666		-64.453125
667		-66.406250
668		-62.500000
669		-62.500000
670		-58.593750
671		-60.546875
672		-52.734375
673		-58.593750
674		-48.828125
675		-54.687500
676		-44.921875
677		-50.781250
678		-42.968750
679		-48.828125
680		-39.062500
681		-44.921875
682		-33.203125
683		-39.062500
684		-33.203125
685		-35.156250
686		-29.296875
687		-31.250000
688		-25.390625
689		-29.296875
690		-19.531250
691		-25.390625
692		-17.578125
693		-23.437500
694		-13.671875
695		-19.531250
696		-9.765625
697		-15.625000
698		-5.859375
699		-11.718750
700		-3.906250
701		-5.859375
702		-1.953125
703		-1.953125
704		1.953125
705		-1.953125
706		7.812500
707		1.953125
708		11.718750
709		3.906250
710		13.671875
711		7.812500
712		17.578125
713		11.718750
714		21.484375
715		15.625000
716		23.437500
717		19.531250
718		25.390625
719		23.437500
720		29.296875
721		27.343750
722		33.203125
723		27.343750
724		37.109375
725		31.250000
726		41.015625
727		35.156250
728		42.968750
729		37.109375
730		46.875000
731		39.062500
732		48.828125
733		42.968750
734		50.781250
735		48.828125
736		52.734375
737		50.781250
738		58.593750
739		50.781250
740		60.546875
741		54.687500
742		62.500000
743		56.640625
744		66.406250
745		60.546875
746		68.359375
747		62.500000
748		70.312500
749		64.453125
750		72.265625
751		70.312500
752		74.218750
753		72.265625
754		76.171875
755		72.265625
756		80.078125
757		74.218750
758		82.031250
759		76.171875
760		83.984375
761		78.125000
762		85.937500
763		80.078125
764		89.843750
765		83.984375
766		91.796875
767		85.937500
768		89.843750
769		87.890625
770		91.796875
771		89.843750
772		95.703125
773		89.843750
774		99.609375
775		91.796875
776		99.609375
777		91.796875
778		101.562500
779		93.750000
780		103.515625
781		95.703125
782		103.515625
783		97.656250
784		105.468750
785		101.562500
786		103.515625
787		103.515625
788		105.468750
789		101.562500
790		109.375000
791		103.515625
792		109.375000
793		103.515625
794		111.328125
795		103.515625
796		111.328125
797		105.468750
798		113.281250
799		105.468750
800		113.281250
801		107.421875
802		113.281250
803		109.375000
804		113.281250
805		107.421875
806		115.234375
807		109.375000
808		117.187500
809		109.375000
810		117.187500
811		109.375000
812		117.187500
813		109.375000
814		117.187500
815		109.375000
816		117.187500
817		109.375000
818		119.140625
819		113.281250
820		115.234375
821		111.328125
822		117.187500
823		109.375000
824		117.187500
825		109.375000
826		117.187500
827		109.375000
828		117.187500
829		109.375000
830		117.187500
831		109.375000
832		117.187500
833		109.375000
834		117.187500
835		111.328125
836		113.281250
837		109.375000
838		113.281250
839		107.421875
840		115.234375
841		105.468750
842		113.281250
843		105.468750
844		113.281250
845		103.515625
846		113.281250
847		103.515625
848		111.328125
849		103.515625
850		111.328125
851		101.562500
852		109.375000
853		103.515625
854		105.468750
855		99.609375
856		105.468750
857		97.656250
858		105.468750
859		97.656250
860		105.468750
861		95.703125
862		103.515625
863		93.750000
864		101.562500
865		91.796875
866		99.609375
867		89.843750
868		99.609375
869		91.796875
870		93.750000
871		89.843750
872		91.796875
873		83.984375
874		93.750000
875		82.031250
876		91.796875
877		80.078125
878		89.843750
879		78.125000
880		87.890625
881		78.125000
882		83.984375
883		74.218750
884		82.031250
885		74.218750
886		80.078125
887		72.265625
888		76.171875
889		66.406250
890		74.218750
891		64.453125
892		72.265625
893		62.500000
894		70.312500
895		58.593750
896		68.359375
897		56.640625
898		66.406250
899		54.687500
900		62.500000
901		52.734375
902		60.546875
903		50.781250
904		54.687500
905		46.875000
906		52.734375
907		42.968750
908		52.734375
909		39.062500
910		48.828125
911		37.109375
912		44.921875
913		33.203125
914		42.968750
915		29.296875
916		41.015625
917		27.343750
918		37.109375
919		27.343750
920		31.250000
921		23.437500
922		27.343750
923		17.578125
924		25.390625
925		13.671875
926		21.484375
927		11.718750
928		19.531250
929		7.812500
930		15.625000
931		3.906250
932		13.671875
933		1.953125
934		7.812500
935		0.000000
936		5.859375
937		-3.906250
938		1.953125
939		-9.765625
940		-1.953125
941		-13.671875
942		-3.906250
943		-15.625000
944		-7.812500
945		-19.531250
946		-9.765625
947		-23.437500
948		-15.625000
949		-25.390625
950		-17.578125
951		-29.296875
952		-21.484375
953		-31.250000
954		-27.343750
955		-35.156250
956		-31.250000
957		-41.015625
958		-31.250000
959		-44.921875
960		-35.156250
961		-48.828125
962		-39.062500
963		-52.734375
964		-42.968750
965		-54.687500
966		-46.875000
967		-58.593750
968		-50.781250
969		-60.546875
970		-54.687500
971		-64.453125
972		-58.593750
973		-70.312500
974		-60.546875
975		-72.265625
976		-62.500000
977		-76.171875
978		-66.406250
979		-80.078125
980		-70.312500
981		-83.984375
982		-72.265625
983		-85.937500
984		-76.171875
985		-87.890625
986		-80.078125
987		-89.843750
988		-85.937500
989		-93.750000
990		-87.890625
991		-97.656250
992		-87.890625
993		-101.562500
994		-91.796875
995		-103.515625
996		-95.703125
997		-105.468750
998		-97.656250
999		-109.375000
1000		-99.609375
1001		-111.328125
1002		-103.515625
1003		-111.328125
1004		-107.421875
1005		-115.234375
1006		-111.328125
1007		-119.140625
1008		-111.328125
1009		-123.046875
1010		-113.281250
1011		-125.000000
1012		-115.234375
1013		-126.953125
1014		-117.187500
1015		-128.906250
1016		-121.093750
1017		-130.859375
1018		-123.046875
1019		-130.859375
1020		-125.000000
1021		-132.812500
1022		-128.906250
1023		-136.718750
1024		-128.906250
1025		-138.671875
1026		-130.859375
1027		-140.625000
1028		-132.812500
1029		-142.578125
1030		-132.812500
1031		-142.578125
1032		-134.765625
1033		-144.531250
1034		-136.718750
1035		-144.531250
1036		-138.671875
1037		-144.531250
1038		-142.578125
1039		-146.484375
1040		-142.578125
1041		-148.437500
1042		-140.625000
1043		-150.390625
1044		-140.625000
1045		-150.390625
1046		-142.578125
1047		-150.390625
1048		-144.531250
1049		-152.343750
1050		-144.531250
1051		-152.343750
1052		-144.531250
1053		-152.343750
1054		-146.484375
1055		-150.390625
1056		-148.437500
1057		-152.343750
1058		-146.484375
1059		-154.296875
1060		-146.484375
1061		-154.296875
1062		-146.484375
1063		-154.296875
1064		-146.484375
1065		-154.296875
1066		-144.531250
1067		-152.343750
1068		-144.531250
1069		-152.343750
1070		-144.531250
1071		-148.437500
1072		-146.484375
1073		-148.437500
1074		-146.484375
1075		-150.390625
1076		-142.578125
1077		-150.390625
1078		-140.625000
1079		-148.437500
1080		-140.625000
1081		-148.437500
1082		-138.671875
1083		-146.484375
1084		-138.671875
1085		-144.531250
1086		-136.718750
1087		-140.625000
1088		-136.718750
1089		-140.625000
1090		-136.718750
1091		-140.625000
1092		-132.812500
1093		-138.671875
1094		-128.906250
1095		-138.671875
1096		-128.906250
1097		-134.765625
1098		-126.953125
1099		-132.812500
1100		-125.000000
1101		-132.812500
1102		-123.046875
1103		-128.906250
1104		-123.046875
1105		-125.000000
1106		-121.093750
1107		-123.046875
1108		-115.234375
1109		-123.046875
1110		-113.281250
1111		-119.140625
1112		-111.328125
1113		-117.187500
1114		-109.375000
1115		-115.234375
1116		-105.468750
1117		-113.281250
1118		-103.515625
1119		-109.375000
1120		-101.562500
1121		-103.515625
1122		-99.609375
1123		-101.562500
1124		-97.656250
1125		-99.609375
1126		-91.796875
1127		-97.656250
1128		-89.843750
1129		-95.703125
1130		-83.984375
1131		-89.843750
1132		-82.031250
1133		-87.890625
1134		-80.078125
1135		-85.937500
1136		-76.171875
1137		-80.078125
1138		-74.218750
1139		-76.171875
1140		-72.265625
1141		-72.265625
1142		-66.406250
1143		-70.312500
1144		-62.500000
1145		-68.359375
1146		-58.593750
1147		-64.453125
1148		-54.687500
1149		-60.546875
1150		-50.781250
1151		-58.593750
1152		-48.828125
1153		-52.734375
1154		-46.875000
1155		-48.828125
1156		-42.968750
1157		-44.921875
1158		-39.062500
1159		-42.968750
1160		-33.203125
1161		-39.062500
1162		-29.296875
1163		-37.109375
1164		-27.343750
1165		-33.203125
1166		-23.437500
1167		-29.296875
1168		-19.531250
1169		-25.390625
1170		-17.578125
1171		-19.531250
1172		-13.671875
1173		-15.625000
1174		-9.765625
1175		-13.671875
1176		-3.906250
1177		-9.765625
1178		-1.953125
1179		-5.859375
1180		1.953125
1181		-5.859375
1182		5.859375
1183		0.000000
1184		9.765625
1185		3.906250
1186		11.718750
1187		5.859375
1188		13.671875
1189		11.718750
1190		17.578125
1191		15.625000
1192		23.437500
1193		15.625000
1194		23.437500
1195		19.531250
1196		29.296875
1197		23.437500
1198		33.203125
1199		27.343750
1200		35.156250
1201		29.296875
1202		37.109375
1203		33.203125
1204		41.015625
1205		37.109375
1206		42.968750
1207		41.015625
1208		44.921875
1209		41.015625
1210		50.781250
1211		42.968750
1212		52.734375
1213		46.875000
1214		56.640625
1215		50.781250
1216		58.593750
1217		52.734375
1218		60.546875
1219		54.687500
1220		64.453125
1221		58.593750
1222		64.453125
1223		62.500000
1224		66.406250
1225		64.453125
1226		72.265625
1227		66.406250
1228		74.218750
1229		68.359375
1230		76.171875
1231		70.312500
1232		78.125000
1233		74.218750
1234		82.031250
1235		74.218750
1236		83.984375
1237		76.171875
1238		83.984375
1239		82.031250
1240		85.937500
1241		83.984375
1242		87.890625
1243		83.984375
1244		91.796875
1245		83.984375
1246		93.750000
1247		85.937500
1248		95.703125
1249		87.890625
1250		97.656250
1251		89.843750
1252		99.609375
1253		91.796875
1254		99.609375
1255		93.750000
1256		99.609375
1257		97.656250
1258		101.562500
1259		97.656250
1260		105.468750
1261		97.656250
1262		105.468750
1263		97.656250
1264		107.421875
1265		99.609375
1266		109.375000
1267		101.562500
1268		109.375000
1269		101.562500
1270		111.328125
1271		103.515625
1272		111.328125
1273		107.421875
1274		109.375000
1275		105.468750
1276		113.281250
1277		105.468750
1278		113.281250
1279		107.421875
1280		115.234375
1281		107.421875
1282		115.234375
1283		107.421875
1284		115.234375
1285		107.421875
1286		117.187500
1287		109.375000
1288		117.187500
1289		111.328125
1290		115.234375
1291		111.328125
1292		115.234375
1293		109.375000
1294		117.187500
1295		109.375000
1296		117.187500
1297		109.375000
1298		117.187500
1299		109.375000
1300		117.187500
1301		109.375000
1302		117.187500
1303		109.375000
1304		117.187500
1305		109.375000
1306		115.234375
1307		111.328125
1308		113.281250
1309		109.375000
1310		117.187500
1311		107.421875
1312		115.234375
1313		107.421875
1314		117.187500
1315		107.421875
1316		115.234375
1317		107.421875
1318		115.234375
1319		105.468750
1320		113.281250
1321		105.468750
1322		113.281250
1323		107.421875
1324		109.375000
1325		105.468750
1326		109.375000
1327		101.562500
1328		109.375000
1329		99.609375
1330		109.375000
1331		99.609375
1332		107.421875
1333		97.656250
1334		105.468750
1335		95.703125
1336		105.468750
1337		95.703125
1338		105.468750
1339		95.703125
1340		99.609375
1341		95.703125
1342		97.656250
1343		89.843750
1344		99.609375
1345		89.843750
1346		97.656250
1347		87.890625
1348		95.703125
1349		85.937500
1350		93.750000
1351		83.984375
1352		91.796875
1353		82.031250
1354		89.843750
1355		82.031250
1356		87.890625
1357		80.078125
1358		83.984375
1359		76.171875
1360		82.031250
1361		74.218750
1362		82.031250
1363		70.312500
1364		80.078125
1365		68.359375
1366		76.171875
1367		66.406250
1368		76.171875
1369		64.453125
1370		74.218750
1371		62.500000
1372		70.312500
1373		60.546875
1374		64.453125
1375		58.593750
1376		62.500000
1377		52.734375
1378		62.500000
1379		50.781250
1380		60.546875
1381		48.828125
1382		56.640625
1383		44.921875
1384		52.734375
1385		41.015625
1386		50.781250
1387		39.062500
1388		46.875000
1389		37.109375
1390		42.968750
1391		35.156250
1392		39.062500
1393		29.296875
1394		37.109375
1395		25.390625
1396		35.156250
1397		23.437500
1398		31.250000
1399		19.531250
1400		27.343750
1401		15.625000
1402		25.390625
1403		11.718750
1404		21.484375
1405		9.765625
1406		19.531250
1407		7.812500
1408		13.671875
1409		3.906250
1410		9.765625
1411		0.000000
1412		7.812500
1413		-3.906250
1414		5.859375
1415		-7.812500
1416		1.953125
1417		-11.718750
1418		-1.953125
1419		-15.625000
1420		-5.859375
1421		-17.578125
1422		-7.812500
1423		-19.531250
1424		-13.671875
1425		-23.437500
1426		-17.578125
1427		-29.296875
1428		-21.484375
1429		-31.250000
1430		-23.437500
1431		-37.109375
1432		-27.343750
1433		-41.015625
1434		-29.296875
1435		-42.968750
1436		-35.156250
1437		-46.875000
1438		-37.109375
1439		-48.828125
1440		-41.015625
1441		-50.781250
1442		-46.875000
1443		-56.640625
1444		-50.781250
1445		-60.546875
1446		-50.781250
1447		-64.453125
1448		-54.687500
1449		-68.359375
1450		-58.593750
1451		-70.312500
1452		-60.546875
1453		-74.218750
1454		-64.453125
1455		-78.125000
1456		-68.359375
1457		-78.125000
1458		-74.218750
1459		-82.031250
1460		-76.171875
1461		-87.890625
1462		-78.125000
1463		-89.843750
1464		-80.078125
1465		-93.750000
1466		-83.984375
1467		-97.656250
1468		-85.937500
1469		-99.609375
1470		-89.843750
1471		-103.515625
1472		-93.750000
1473		-103.515625
1474		-95.703125
1475		-105.468750
1476		-101.562500
1477		-111.328125
1478		-103.515625
1479		-113.281250
1480		-103.515625
1481		-115.234375
1482		-105.468750
1483		-119.140625
1484		-109.375000
1485		-121.093750
1486		-111.328125
1487		-123.046875
1488		-115.234375
1489		-125.000000
1490		-115.234375
1491		-125.000000
1492		-121.093750
1493		-126.953125
1494		-123.046875
1495		-132.812500
1496		-123.046875
1497		-132.812500
1498		-125.000000
1499		-136.718750
1500		-126.953125
1501		-138.671875
1502		-128.906250
1503		-138.671875
1504		-130.859375
1505		-140.625000
1506		-132.812500
1507		-140.625000
1508		-134.765625
1509		-140.625000
1510		-138.671875
1511		-144.531250
1512		-136.718750
1513		-146.484375
1514		-138.671875
1515		-148.437500
1516		-138.671875
1517		-148.437500
1518		-140.625000
1519		-150.390625
1520		-142.578125
1521		-150.390625
1522		-142.578125
1523		-150.390625
1524		-144.531250
1525		-148.437500
1526		-146.484375
1527		-152.343750
1528		-144.531250
1529		-152.343750
1530		-144.531250
1531		-152.343750
1532		-144.531250
1533		-154.296875
1534		-144.531250
1535		-154.296875
1536		-144.531250
1537		-154.296875
1538		-144.531250
1539		-154.296875
1540		-144.531250
1541		-150.390625
1542		-148.437500
1543		-150.390625
1544		-148.437500
1545		-152.343750
1546		-144.531250
1547		-152.343750
1548		-144.531250
1549		-152.343750
1550		-144.531250
1551		-150.390625
1552		-142.578125
1553		-150.390625
1554		-142.578125
1555		-148.437500
1556		-140.625000
1557		-148.437500
1558		-140.625000
1559		-144.531250
1560		-142.578125
1561		-146.484375
1562		-138.671875
1563		-144.531250
1564		-136.718750
1565		-142.578125
1566		-134.765625
1567		-142.578125
1568		-132.812500
1569		-140.625000
1570		-130.859375
1571		-138.671875
1572		-130.859375
1573		-136.718750
1574		-128.906250
1575		-132.812500
1576		-128.906250
1577		-130.859375
1578		-126.953125
1579		-130.859375
1580		-123.046875
1581		-128.906250
1582		-121.093750
1583		-126.953125
1584		-117.187500
1585		-123.046875
1586		-115.234375
1587		-121.093750
1588		-113.281250
1589		-119.140625
1590		-109.375000
1591		-115.234375
1592		-109.375000
1593		-111.328125
1594		-107.421875
1595		-109.375000
1596		-101.562500
1597		-109.375000
1598		-99.609375
1599		-105.468750
1600		-95.703125
1601		-103.515625
1602		-93.750000
1603		-99.609375
1604		-89.843750
1605		-97.656250
1606		-87.890625
1607		-91.796875
1608		-85.937500
1609		-87.890625
1610		-82.031250
1611		-83.984375
1612		-78.125000
1613		-83.984375
1614		-74.218750
1615		-80.078125
1616		-70.312500
1617		-78.125000
1618		-66.406250
1619		-74.218750
1620		-64.453125
1621		-72.265625
1622		-60.546875
1623		-66.406250
1624		-58.593750
1625		-60.546875
1626		-56.640625
1627		-56.640625
1628		-52.734375
1629		-54.687500
1630		-46.875000
1631		-52.734375
1632		-44.921875
1633		-50.781250
1634		-39.062500
1635		-46.875000
1636		-35.156250
1637		-41.015625
1638		-33.203125
1639		-39.062500
1640		-29.296875
1641		-35.156250
1642		-27.343750
1643		-29.296875
1644		-23.437500
1645		-25.390625
1646		-17.578125
1647		-23.437500
1648		-13.671875
1649		-21.484375
1650		-11.718750
1651		-17.578125
1652		-7.812500
1653		-13.671875
1654		-3.906250
1655		-9.765625
1656		0.000000
1657		-7.812500
1658		1.953125
1659		0.000000
1660		3.906250
1661		3.906250
1662		7.812500
1663		5.859375
1664		13.671875
1665		7.812500
1666		15.625000
1667		11.718750
1668		21.484375
1669		13.671875
1670		23.437500
1671		17.578125
1672		25.390625
1673		19.531250
1674		29.296875
1675		25.390625
1676		31.250000
1677		29.296875
1678		33.203125
1679		33.203125
1680		39.062500
1681		33.203125
1682		42.968750
1683		35.156250
1684		44.921875
1685		39.062500
1686		48.828125
1687		42.968750
1688		50.781250
1689		44.921875
1690		54.687500
1691		48.828125
1692		56.640625
1693		52.734375
1694		56.640625
1695		56.640625
1696		60.546875
1697		56.640625
1698		64.453125
1699		58.593750
1700		68.359375
1701		62.500000
1702		70.312500
1703		64.453125
1704		72.265625
1705		66.406250
1706		76.171875
1707		68.359375
1708		76.171875
1709		74.218750
1710		78.125000
1711		76.171875
1712		80.078125
1713		76.171875
1714		83.984375
1715		78.125000
1716		85.937500
1717		80.078125
1718		87.890625
1719		82.031250
1720		89.843750
1721		83.984375
1722		91.796875
1723		85.937500
1724		93.750000
1725		87.890625
1726		93.750000
1727		91.796875
1728		95.703125
1729		91.796875
1730		99.609375
1731		91.796875
1732		99.609375
1733		93.750000
1734		101.562500
1735		95.703125
1736		103.515625
1737		97.656250
1738		105.468750
1739		97.656250
1740		107.421875
1741		99.609375
1742		107.421875
1743		103.515625
1744		105.468750
1745		103.515625
1746		107.421875
1747		103.515625
1748		111.328125
1749		103.515625
1750		111.328125
1751		105.468750
1752		113.281250
1753		105.468750
1754		113.281250
1755		105.468750
1756		113.281250
1757		107.421875
1758		115.234375
1759		109.375000
1760		113.281250
1761		111.328125
1762		113.281250
1763		109.375000
1764		115.234375
1765		109.375000
1766		115.234375
1767		111.328125
1768		117.187500
1769		111.328125
1770		115.234375
1771		111.328125
1772		117.187500
1773		111.328125
1774		117.187500
1775		111.328125
1776		117.187500
1777		113.281250
1778		115.234375
1779		111.328125
1780		115.234375
1781		109.375000
1782		117.187500
1783		109.375000
1784		117.187500
1785		109.375000
1786		117.187500
1787		107.421875
1788		117.187500
1789		107.421875
1790		115.234375
1791		107.421875
1792		115.234375
1793		109.375000
1794		113.281250
1795		109.375000
1796		111.328125
1797		105.468750
1798		113.281250
1799		105.468750
1800		113.281250
1801		103.515625
1802		111.328125
1803		101.562500
1804		111.328125
1805		101.562500
1806		109.375000
1807		99.609375
1808		107.421875
1809		99.609375
1810		107.421875
1811		99.609375
1812		103.515625
1813		95.703125
1814		103.515625
1815		95.703125
1816		103.515625
1817		93.750000
1818		101.562500
1819		91.796875
1820		99.609375
1821		89.843750
1822		99.609375
1823		87.890625
1824		97.656250
1825		87.890625
1826		95.703125
1827		87.890625
1828		91.796875
1829		85.937500
1830		87.890625
1831		80.078125
1832		89.843750
1833		78.125000
1834		87.890625
1835		76.171875
1836		83.984375
1837		74.218750
1838		83.984375
1839		72.265625
1840		82.031250
1841		70.312500
1842		78.125000
1843		70.312500
1844		76.171875
1845		68.359375
1846		72.265625
1847		62.500000
1848		70.312500
1849		60.546875
1850		68.359375
1851		56.640625
1852		66.406250
1853		54.687500
1854		64.453125
1855		50.781250
1856		60.546875
1857		48.828125
1858		58.593750
1859		46.875000
1860		54.687500
1861		44.921875
1862		48.828125
1863		42.968750
1864		46.875000
1865		37.109375
1866		46.875000
1867		35.156250
1868		42.968750
1869		29.296875
1870		41.015625
1871		27.343750
1872		35.156250
1873		25.390625
1874		33.203125
1875		21.484375
1876		31.250000
1877		19.531250
1878		25.390625
1879		17.578125
1880		21.484375
1881		11.718750
1882		19.531250
1883		7.812500
1884		17.578125
1885		3.906250
1886		13.671875
1887		0.000000
1888		11.718750
1889		-3.906250
1890		5.859375
1891		-5.859375
1892		1.953125
1893		-7.812500
1894		0.000000
1895		-9.765625
1896		-5.859375
1897		-15.625000
1898		-9.765625
1899		-19.531250
1900		-9.765625
1901		-23.437500
1902		-13.671875
1903		-27.343750
1904		-17.578125
1905		-31.250000
1906		-21.484375
1907		-33.203125
1908		-25.390625
1909		-37.109375
1910		-27.343750
1911		-39.062500
1912		-33.203125
1913		-42.968750
1914		-37.109375
1915		-48.828125
1916		-39.062500
1917		-52.734375
1918		-41.015625
1919		-54.687500
1920		-46.875000
1921		-58.593750
1922		-50.781250
1923		-62.500000
1924		-52.734375
1925		-66.406250
1926		-56.640625
1927		-66.406250
1928		-60.546875
1929		-70.312500
1930		-64.453125
1931		-76.171875
1932		-68.359375
1933		-80.078125
1934		-68.359375
1935		-82.031250
1936		-74.218750
1937		-83.984375
1938		-76.171875
1939		-89.843750
1940		-78.125000
1941		-91.796875
1942		-82.031250
1943		-93.750000
1944		-85.937500
1945		-95.703125
1946		-89.843750
1947		-97.656250
1948		-93.750000
1949		-103.515625
1950		-95.703125
1951		-105.468750
1952		-97.656250
1953		-109.375000
1954		-99.609375
1955		-111.328125
1956		-103.515625
1957		-113.281250
1958		-105.468750
1959		-117.187500
1960		-109.375000
1961		-117.187500
1962		-113.281250
1963		-119.140625
1964		-115.234375
1965		-125.000000
1966		-115.234375
1967		-125.000000
1968		-117.187500
1969		-128.906250
1970		-119.140625
1971		-130.859375
1972		-123.046875
1973		-132.812500
1974		-123.046875
1975		-134.765625
1976		-126.953125
1977		-134.765625
1978		-128.906250
1979		-136.718750
1980		-132.812500
1981		-140.625000
1982		-132.812500
1983		-142.578125
1984		-132.812500
1985		-144.531250
1986		-134.765625
1987		-144.531250
1988		-136.718750
1989		-146.484375
1990		-136.718750
1991		-148.437500
1992		-138.671875
1993		-148.437500
1994		-140.625000
1995		-146.484375
1996		-144.531250
1997		-148.437500
1998		-144.531250
1999		-152.343750
2000		-142.578125
2001		-152.343750
2002		-144.531250
2003		-152.343750
2004		-144.531250
2005		-152.343750
2006		-144.531250
2007		-152.343750
2008		-146.484375
2009		-154.296875
2010		-146.484375
2011		-154.296875
2012		-146.484375
2013		-152.343750
2014		-148.437500
2015		-154.296875
2016		-146.484375
2017		-154.296875
2018		-146.484375
2019		-154.296875
2020		-146.484375
2021		-154.296875
2022		-146.484375
2023		-152.343750
2024		-144.531250
2025		-152.343750
2026		-144.531250
2027		-152.343750
2028		-144.531250
2029		-148.437500
2030		-146.484375
2031		-148.437500
2032		-144.531250
2033		-148.437500
2034		-142.578125
2035		-148.437500
2036		-140.625000
2037		-146.484375
2038		-138.671875
2039		-146.484375
2040		-138.671875
2041		-144.531250
2042		-136.718750
2043		-144.531250
2044		-134.765625
2045		-140.625000
2046		-136.718750
2047		-136.718750
2048		-134.765625
2049		-138.671875
2050		-128.906250
2051		-136.718750
2052		-128.906250
2053		-134.765625
2054		-125.000000
2055		-132.812500
2056		-123.046875
2057		-130.859375
2058		-123.046875
2059		-128.906250
2060		-119.140625
2061		-126.953125
2062		-119.140625
2063		-121.093750
2064		-117.187500
2065		-119.140625
2066		-111.328125
2067		-119.140625
2068		-109.375000
2069		-115.234375
2070		-107.421875
2071		-113.281250
2072		-103.515625
2073		-111.328125
2074		-101.562500
2075		-107.421875
2076		-99.609375
2077		-103.515625
2078		-95.703125
2079		-99.609375
2080		-95.703125
2081		-95.703125
2082		-91.796875
2083		-95.703125
2084		-85.937500
2085		-93.750000
2086		-83.984375
2087		-89.843750
2088		-80.078125
2089		-85.937500
2090		-76.171875
2091		-83.984375
2092		-74.218750
2093		-80.078125
2094		-70.312500
2095		-76.171875
2096		-68.359375
2097		-70.312500
2098		-66.406250
2099		-68.359375
2100		-58.593750
2101		-64.453125
2102		-56.640625
2103		-62.500000
2104		-50.781250
2105		-58.593750
2106		-48.828125
2107		-54.687500
2108		-46.875000
2109		-50.781250
2110		-41.015625
2111		-48.828125
2112		-39.062500
2113		-42.968750
2114		-37.109375
2115		-39.062500
2116		-33.203125
2117		-37.109375
2118		-27.343750
2119		-33.203125
2120		-25.390625
2121		-31.250000
2122		-21.484375
2123		-25.390625
2124		-17.578125
2125		-23.437500
2126		-13.671875
2127		-21.484375
2128		-9.765625
2129		-15.625000
2130		-9.765625
2131		-9.765625
2132		-5.859375
2133		-7.812500
2134		0.000000
2135		-5.859375
2136		3.906250
2137		-1.953125
2138		7.812500
2139		1.953125
2140		9.765625
2141		3.906250
2142		13.671875
2143		9.765625
2144		17.578125
2145		11.718750
2146		19.531250
2147		17.578125
2148		21.484375
2149		19.531250
2150		27.343750
2151		19.531250
2152		29.296875
2153		25.390625
2154		35.156250
2155		27.343750
2156		37.109375
2157		31.250000
2158		39.062500
2159		33.203125
2160		42.968750
2161		37.109375
2162		44.921875
2163		41.015625
2164		46.875000
2165		44.921875
2166		50.781250
2167		46.875000
2168		54.687500
2169		48.828125
2170		56.640625
2171		50.781250
2172		60.546875
2173		54.687500
2174		62.500000
2175		56.640625
2176		66.406250
2177		58.593750
2178		68.359375
2179		62.500000
2180		68.359375
2181		66.406250
2182		72.265625
2183		68.359375
2184		76.171875
2185		68.359375
2186		78.125000
2187		72.265625
2188		80.078125
2189		74.218750
2190		83.984375
2191		76.171875
2192		83.984375
2193		78.125000
2194		85.937500
2195		80.078125
2196		87.890625
2197		83.984375
2198		87.890625
2199		85.937500
2200		89.843750
2201		85.937500
2202		93.750000
2203		87.890625
2204		95.703125
2205		89.843750
2206		97.656250
2207		91.796875
2208		99.609375
2209		91.796875
2210		101.562500
2211		93.750000
2212		103.515625
2213		97.656250
2214		101.562500
2215		99.609375
2216		103.515625
2217		99.609375
2218		107.421875
2219		99.609375
2220		107.421875
2221		101.562500
2222		109.375000
2223		101.562500
2224		109.375000
2225		103.515625
2226		111.328125
2227		103.515625
2228		111.328125
2229		103.515625
2230		113.281250
2231		107.421875
2232		111.328125
2233		107.421875
2234		113.281250
2235		107.421875
2236		115.234375
2237		107.421875
2238		115.234375
2239		107.421875
2240		115.234375
2241		107.421875
2242		115.234375
2243		109.375000
2244		117.187500
2245		109.375000
2246		117.187500
2247		111.328125
2248		115.234375
2249		111.328125
2250		115.234375
2251		109.375000
2252		117.187500
2253		109.375000
2254		117.187500
2255		109.375000
2256		117.187500
2257		109.375000
2258		117.187500
2259		109.375000
2260		117.187500
2261		109.375000
2262		117.187500
2263		109.375000
2264		115.234375
2265		111.328125
2266		113.281250
2267		107.421875
2268		115.234375
2269		107.421875
2270		115.234375
2271		107.421875
2272		115.234375
2273		105.468750
2274		115.234375
2275		103.515625
2276		113.281250
2277		103.515625
2278		113.281250
2279		101.562500
2280		111.328125
2281		105.468750
2282		107.421875
2283		103.515625
2284		105.468750
2285		99.609375
2286		107.421875
2287		99.609375
2288		107.421875
2289		97.656250
2290		105.468750
2291		95.703125
2292		103.515625
2293		95.703125
2294		101.562500
2295		91.796875
2296		101.562500
2297		93.750000
2298		99.609375
2299		91.796875
2300		95.703125
2301		87.890625
2302		95.703125
2303		85.937500
2304		93.750000
2305		83.984375
2306		93.750000
2307		82.031250
2308		89.843750
2309		80.078125
2310		87.890625
2311		78.125000
2312		87.890625
2313		78.125000
2314		83.984375
2315		76.171875
2316		80.078125
2317		74.218750
2318		78.125000
2319		70.312500
2320		78.125000
2321		66.406250
2322		74.218750
2323		64.453125
2324		72.265625
2325		60.546875
2326		70.312500
2327		60.546875
2328		66.406250
2329		56.640625
2330		66.406250
2331		56.640625
2332		60.546875
2333		52.734375
2334		58.593750
2335		46.875000
2336		54.687500
2337		44.921875
2338		52.734375
2339		42.968750
2340		52.734375
2341		37.109375
2342		48.828125
2343		37.109375
2344		44.921875
2345		33.203125
2346		42.968750
2347		31.250000
2348		39.062500
2349		29.296875
2350		33.203125
2351		23.437500
2352		31.250000
2353		19.531250
2354		29.296875
2355		17.578125
2356		27.343750
2357		13.671875
2358		21.484375
2359		9.765625
2360		19.531250
2361		5.859375
2362		17.578125
2363		3.906250
2364		11.718750
2365		1.953125
2366		7.812500
2367		-1.953125
2368		3.906250
2369		-7.812500
2370		1.953125
2371		-11.718750
2372		-1.953125
2373		-13.671875
2374		-3.906250
2375		-17.578125
2376		-7.812500
2377		-21.484375
2378		-11.718750
2379		-25.390625
2380		-13.671875
2381		-25.390625
2382		-19.531250
2383		-29.296875
2384		-23.437500
2385		-35.156250
2386		-27.343750
2387		-39.062500
2388		-29.296875
2389		-42.968750
2390		-33.203125
2391		-46.875000
2392		-35.156250
2393		-48.828125
2394		-39.062500
2395		-52.734375
2396		-42.968750
2397		-54.687500
2398		-44.921875
2399		-56.640625
2400		-52.734375
2401		-60.546875
2402		-56.640625
2403		-66.406250
2404		-56.640625
2405		-70.312500
2406		-60.546875
2407		-74.218750
2408		-64.453125
2409		-76.171875
2410		-66.406250
2411		-80.078125
2412		-70.312500
2413		-83.984375
2414		-74.218750
2415		-83.984375
2416		-78.125000
2417		-87.890625
2418		-82.031250
2419		-93.750000
2420		-83.984375
2421		-95.703125
2422		-87.890625
2423		-97.656250
2424		-89.843750
2425		-101.562500
2426		-91.796875
2427		-103.515625
2428		-95.703125
2429		-107.421875
2430		-97.656250
2431		-109.375000
2432		-101.562500
2433		-111.328125
2434		-105.468750
2435		-117.187500
2436		-109.375000
2437		-117.187500
2438		-109.375000
2439		-119.140625
2440		-111.328125
2441		-123.046875
2442		-115.234375
2443		-125.000000
2444		-115.234375
2445		-126.953125
2446		-119.140625
2447		-128.906250
2448		-121.093750
2449		-128.906250
2450		-125.000000
2451		-130.859375
2452		-126.953125
2453		-134.765625
2454		-126.953125
2455		-136.718750
2456		-128.906250
2457		-138.671875
2458		-130.859375
2459		-140.625000
2460		-132.812500
2461		-142.578125
2462		-134.765625
2463		-144.531250
2464		-134.765625
2465		-142.578125
2466		-136.718750
2467		-144.531250
2468		-140.625000
2469		-148.437500
2470		-140.625000
2471		-148.437500
2472		-140.625000
2473		-150.390625
2474		-142.578125
2475		-150.390625
2476		-142.578125
2477		-152.343750
2478		-142.578125
2479		-152.343750
2480		-144.531250
2481		-152.343750
2482		-144.531250
2483		-150.390625
2484		-148.437500
2485		-150.390625
2486		-148.437500
2487		-154.296875
2488		-146.484375
2489		-154.296875
2490		-146.484375
2491		-154.296875
2492		-146.484375
2493		-154.296875
2494		-146.484375
2495		-154.296875
2496		-144.531250
2497		-154.296875
2498		-146.484375
2499		-152.343750
2500		-146.484375
2501		-150.390625
2502		-148.437500
2503		-152.343750
2504		-144.531250
2505		-150.390625
2506		-144.531250
2507		-150.390625
2508		-142.578125
2509		-150.390625
2510		-142.578125
2511		-148.437500
2512		-140.625000
2513		-148.437500
2514		-140.625000
2515		-146.484375
2516		-138.671875
2517		-142.578125
2518		-138.671875
2519		-142.578125
2520		-134.765625
2521		-142.578125
2522		-134.765625
2523		-140.625000
2524		-132.812500
2525		-138.671875
2526		-130.859375
2527		-138.671875
2528		-128.906250
2529		-134.765625
2530		-126.953125
2531		-132.812500
2532		-125.000000
2533		-128.906250
2534		-125.000000
2535		-126.953125
2536		-123.046875
2537		-125.000000
2538		-119.140625
2539		-125.000000
2540		-115.234375
2541		-123.046875
2542		-113.281250
2543		-119.140625
2544		-111.328125
2545		-117.187500
2546		-107.421875
2547		-115.234375
2548		-105.468750
2549		-113.281250
2550		-105.468750
2551		-107.421875
2552		-101.562500
2553		-105.468750
2554		-97.656250
2555		-103.515625
2556		-93.750000
2557		-101.562500
2558		-89.843750
2559		-95.703125
2560		-87.890625
2561		-95.703125
2562		-85.937500
2563		-89.843750
2564		-82.031250
2565		-87.890625
2566		-80.078125
2567		-82.031250
2568		-78.125000
2569		-78.125000
2570		-74.218750
2571		-78.125000
2572		-68.359375
2573		-76.171875
2574		-64.453125
2575		-70.312500
2576		-60.546875
2577		-68.359375
2578		-58.593750
2579		-64.453125
2580		-54.687500
2581		-60.546875
2582		-50.781250
2583		-54.687500
2584		-50.781250
2585		-50.781250
2586		-46.875000
2587		-48.828125
2588		-41.015625
2589		-46.875000
2590		-37.109375
2591		-42.968750
2592		-33.203125
2593		-39.062500
2594		-29.296875
2595		-37.109375
2596		-25.390625
2597		-31.250000
2598		-21.484375
2599		-29.296875
2600		-21.484375
2601		-23.437500
2602		-17.578125
2603		-19.531250
2604		-11.718750
2605		-17.578125
2606		-7.812500
2607		-13.671875
2608		-5.859375
2609		-11.718750
2610		-1.953125
2611		-7.812500
2612		1.953125
2613		-3.906250
2614		5.859375
2615		0.000000
2616		7.812500
2617		3.906250
2618		9.765625
2619		9.765625
2620		13.671875
2621		11.718750
2622		19.531250
2623		13.671875
2624		23.437500
2625		15.625000
2626		25.390625
2627		19.531250
2628		29.296875
2629		23.437500
2630		31.250000
2631		25.390625
2632		35.156250
2633		27.343750
2634		37.109375
2635		35.156250
2636		39.062500
2637		37.109375
2638		44.921875
2639		37.109375
2640		48.828125
2641		41.015625
2642		50.781250
2643		42.968750
2644		52.734375
2645		46.875000
2646		56.640625
2647		50.781250
2648		58.593750
2649		52.734375
2650		60.546875
2651		58.593750
2652		62.500000
2653		60.546875
2654		64.453125
2655		60.546875
2656		70.312500
2657		62.500000
2658		72.265625
2659		66.406250
2660		74.218750
2661		68.359375
2662		76.171875
2663		70.312500
2664		80.078125
2665		72.265625
2666		82.031250
2667		76.171875
2668		82.031250
2669		80.078125
2670		83.984375
2671		80.078125
2672		87.890625
2673		80.078125
2674		89.843750
2675		82.031250
2676		91.796875
2677		85.937500
2678		93.750000
2679		87.890625
2680		95.703125
2681		89.843750
2682		97.656250
2683		91.796875
2684		97.656250
2685		93.750000
2686		97.656250
2687		95.703125
2688		101.562500
2689		95.703125
2690		103.515625
2691		97.656250
2692		105.468750
2693		97.656250
2694		105.468750
2695		99.609375
2696		107.421875
2697		99.609375
2698		107.421875
2699		101.562500
2700		109.375000
2701		105.468750
2702		107.421875
2703		105.468750
2704		109.375000
2705		105.468750
2706		113.281250
2707		105.468750
2708		113.281250
2709		105.468750
2710		113.281250
2711		107.421875
2712		115.234375
2713		107.421875
2714		115.234375
2715		107.421875
2716		115.234375
2717		107.421875
2718		117.187500
2719		111.328125
2720		115.234375
2721		109.375000
2722		117.187500
2723		109.375000
2724		117.187500
2725		109.375000
2726		117.187500
2727		109.375000
2728		117.187500
2729		109.375000
2730		117.187500
2731		109.375000
2732		117.187500
2733		109.375000
2734		117.187500
2735		111.328125
2736		115.234375
2737		111.328125
2738		115.234375
2739		109.375000
2740		117.187500
2741		109.375000
2742		117.187500
2743		107.421875
2744		117.187500
2745		107.421875
2746		115.234375
2747		107.421875
2748		115.234375
2749		107.421875
2750		115.234375
2751		107.421875
2752		113.281250
2753		107.421875
2754		109.375000
2755		103.515625
2756		111.328125
2757		103.515625
2758		111.328125
2759		101.562500
2760		111.328125
2761		101.562500
2762		109.375000
2763		99.609375
2764		107.421875
2765		97.656250
2766		107.421875
2767		97.656250
2768		103.515625
2769		97.656250
2770		101.562500
2771		95.703125
2772		99.609375
2773		93.750000
2774		101.562500
2775		89.843750
2776		99.609375
2777		89.843750
2778		97.656250
2779		87.890625
2780		95.703125
2781		85.937500
2782		93.750000
2783		83.984375
2784		93.750000
2785		83.984375
2786		87.890625
2787		82.031250
2788		85.937500
2789		78.125000
2790		85.937500
2791		76.171875
2792		83.984375
2793		72.265625
2794		82.031250
2795		70.312500
2796		80.078125
2797		68.359375
2798		78.125000
2799		66.406250
2800		74.218750
2801		66.406250
2802		72.265625
2803		62.500000
2804		68.359375
2805		58.593750
2806		66.406250
2807		56.640625
2808		64.453125
2809		52.734375
2810		62.500000
2811		50.781250
2812		58.593750
2813		46.875000
2814		56.640625
2815		44.921875
2816		52.734375
2817		42.968750
2818		50.781250
2819		41.015625
2820		44.921875
2821		37.109375
2822		42.968750
2823		31.250000
2824		41.015625
2825		29.296875
2826		39.062500
2827		25.390625
2828		35.156250
2829		21.484375
2830		31.250000
2831		19.531250
2832		29.296875
2833		15.625000
2834		25.390625
2835		15.625000
2836		21.484375
2837		11.718750
2838		15.625000
2839		5.859375
2840		13.671875
2841		1.953125
2842		11.718750
2843		0.000000
2844		7.812500
2845		-5.859375
2846		3.906250
2847		-7.812500
2848		1.953125
2849		-11.718750
2850		-1.953125
2851		-13.671875
2852		-5.859375
2853		-15.625000
2854		-9.765625
2855		-21.484375
2856		-15.625000
2857		-25.390625
2858		-15.625000
2859		-29.296875
2860		-19.531250
2861		-33.203125
2862		-23.437500
2863		-37.109375
2864		-27.343750
2865		-39.062500
2866		-29.296875
2867		-42.968750
2868		-33.203125
2869		-44.921875
2870		-39.062500
2871		-46.875000
2872		-42.968750
2873		-54.687500
2874		-44.921875
2875		-58.593750
2876		-48.828125
2877		-60.546875
2878		-50.781250
2879		-64.453125
2880		-54.687500
2881		-68.359375
2882		-58.593750
2883		-72.265625
2884		-60.546875
2885		-72.265625
2886		-66.406250
2887		-74.218750
2888		-70.312500
2889		-80.078125
2890		-74.218750
2891		-83.984375
2892		-74.218750
2893		-87.890625
2894		-78.125000
2895		-91.796875
2896		-80.078125
2897		-91.796875
2898		-83.984375
2899		-97.656250
2900		-87.890625
2901		-97.656250
2902		-89.843750
2903		-99.609375
2904		-95.703125
2905		-101.562500
2906		-97.656250
2907		-107.421875
2908		-99.609375
2909		-111.328125
2910		-101.562500
2911		-113.281250
2912		-105.468750
2913		-117.187500
2914		-105.468750
2915		-117.187500
2916		-109.375000
2917		-121.093750
2918		-111.328125
2919		-121.093750
2920		-115.234375
2921		-123.046875
2922		-119.140625
2923		-128.906250
2924		-119.140625
2925		-130.859375
2926		-121.093750
2927		-130.859375
2928		-123.046875
2929		-132.812500
2930		-125.000000
2931		-134.765625
2932		-126.953125
2933		-136.718750
2934		-128.906250
2935		-138.671875
2936		-130.859375
2937		-138.671875
2938		-134.765625
2939		-140.625000
2940		-136.718750
2941		-142.578125
2942		-134.765625
2943		-144.531250
2944		-136.718750
2945		-146.484375
2946		-138.671875
2947		-148.437500
2948		-138.671875
2949		-148.437500
2950		-140.625000
2951		-148.437500
2952		-140.625000
2953		-146.484375
2954		-144.531250
2955		-148.437500
2956		-144.531250
2957		-150.390625
2958		-142.578125
2959		-152.343750
2960		-144.531250
2961		-152.343750
2962		-144.531250
2963		-152.343750
2964		-144.531250
2965		-152.343750
2966		-144.531250
2967		-152.343750
2968		-144.531250
2969		-152.343750
2970		-146.484375
2971		-150.390625
2972		-146.484375
2973		-152.343750
2974		-144.531250
2975		-152.343750
2976		-144.531250
2977		-150.390625
2978		-144.531250
2979		-150.390625
2980		-142.578125
2981		-150.390625
2982		-142.578125
2983		-150.390625
2984		-140.625000
2985		-150.390625
2986		-140.625000
2987		-144.531250
2988		-142.578125
2989		-144.531250
2990		-140.625000
2991		-146.484375
2992		-136.718750
2993		-144.531250
2994		-136.718750
2995		-142.578125
2996		-134.765625
2997		-140.625000
2998		-132.812500
2999		-140.625000
3000		-132.812500
3001		-138.671875
3002		-130.859375
3003		-136.718750
3004		-128.906250
3005		-132.812500
3006		-128.906250
3007		-130.859375
3008		-123.046875
3009		-130.859375
3010		-123.046875
3011		-128.906250
3012		-121.093750
3013		-128.906250
3014		-117.187500
3015		-125.000000
3016		-115.234375
3017		-121.093750
3018		-113.281250
3019		-121.093750
3020		-111.328125
3021		-115.234375
3022		-111.328125
3023		-111.328125
3024		-107.421875
3025		-111.328125
3026		-101.562500
3027		-109.375000
3028		-99.609375
3029		-107.421875
3030		-97.656250
3031		-103.515625
3032		-93.750000
3033		-99.609375
3034		-91.796875
3035		-97.656250
3036		-87.890625
3037		-93.750000
3038		-87.890625
3039		-89.843750
3040		-83.984375
3041		-87.890625
3042		-80.078125
3043		-85.937500
3044		-76.171875
3045		-80.078125
3046		-72.265625
3047		-78.125000
3048		-68.359375
3049		-76.171875
3050		-64.453125
3051		-70.312500
3052		-62.500000
3053		-68.359375
3054		-60.546875
3055		-62.500000
3056		-58.593750
3057		-58.593750
3058		-50.781250
3059		-58.593750
3060		-48.828125
3061		-52.734375
3062		-44.921875
3063		-50.781250
3064		-42.968750
3065		-46.875000
3066		-37.109375
3067		-42.968750
3068		-35.156250
3069		-39.062500
3070		-31.250000
3071		-33.203125
3072		-29.296875
3073		-31.250000
3074		-25.390625
3075		-27.343750
3076		-19.531250
3077		-25.390625
3078		-15.625000
3079		-21.484375
3080		-13.671875
3081		-19.531250
3082		-9.765625
3083		-15.625000
3084		-3.906250
3085		-11.718750
3086		-1.953125
3087		-5.859375
3088		0.000000
3089		-1.953125
3090		1.953125
3091		1.953125
3092		9.765625
3093		1.953125
3094		11.718750
3095		5.859375
3096		15.625000
3097		9.765625
3098		17.578125
3099		11.718750
3100		21.484375
3101		15.625000
3102		25.390625
3103		19.531250
3104		27.343750
3105		25.390625
3106		29.296875
3107		27.343750
3108		33.203125
3109		29.296875
3110		37.109375
3111		31.250000
3112		41.015625
3113		35.156250
3114		44.921875
3115		39.062500
3116		46.875000
3117		42.968750
3118		48.828125
3119		44.921875
3120		52.734375
3121		46.875000
3122		52.734375
3123		52.734375
3124		56.640625
3125		52.734375
3126		60.546875
3127		54.687500
3128		64.453125
3129		56.640625
3130		66.406250
3131		60.546875
3132		68.359375
3133		62.500000
3134		72.265625
3135		66.406250
3136		74.218750
3137		68.359375
3138		76.171875
3139		72.265625
3140		76.171875
3141		74.218750
3142		82.031250
3143		74.218750
3144		83.984375
3145		78.125000
3146		85.937500
3147		80.078125
3148		87.890625
3149		80.078125
3150		89.843750
3151		83.984375
3152		91.796875
3153		85.937500
3154		93.750000
3155		89.843750
3156		93.750000
3157		91.796875
3158		95.703125
3159		89.843750
3160		99.609375
3161		91.796875
3162		101.562500
3163		93.750000
3164		101.562500
3165		95.703125
3166		103.515625
3167		97.656250
3168		105.468750
3169		97.656250
3170		105.468750
3171		99.609375
3172		107.421875
3173		103.515625
3174		105.468750
3175		103.515625
3176		109.375000
3177		103.515625
3178		111.328125
3179		103.515625
3180		111.328125
3181		105.468750
3182		113.281250
3183		105.468750
3184		113.281250
3185		107.421875
3186		115.234375
3187		107.421875
3188		115.234375
3189		111.328125
3190		113.281250
3191		111.328125
3192		117.187500
3193		109.375000
3194		117.187500
3195		109.375000
3196		117.187500
3197		109.375000
3198		117.187500
3199		111.328125
3200		119.140625
3201		111.328125
3202		119.140625
3203		111.328125
3204		119.140625
3205		111.328125
3206		117.187500
3207		113.281250
3208		115.234375
3209		111.328125
3210		119.140625
3211		111.328125
3212		119.140625
3213		111.328125
3214		119.140625
3215		111.328125
3216		119.140625
3217		109.375000
3218		117.187500
3219		109.375000
3220		117.187500
3221		109.375000
3222		117.187500
3223		111.328125
3224		113.281250
3225		107.421875
3226		115.234375
3227		107.421875
3228		115.234375
3229		105.468750
3230		115.234375
3231		105.468750
3232		113.281250
3233		103.515625
3234		113.281250
3235		103.515625
3236		111.328125
3237		103.515625
3238		111.328125
3239		103.515625
3240		107.421875
3241		103.515625
3242		105.468750
3243		99.609375
3244		107.421875
3245		97.656250
3246		107.421875
3247		97.656250
3248		105.468750
3249		93.750000
3250		103.515625
3251		93.750000
3252		101.562500
3253		91.796875
3254		99.609375
3255		89.843750
3256		97.656250
3257		89.843750
3258		93.750000
3259		85.937500
3260		93.750000
3261		83.984375
3262		91.796875
3263		82.031250
3264		91.796875
3265		80.078125
3266		87.890625
3267		78.125000
3268		85.937500
3269		74.218750
3270		83.984375
3271		74.218750
3272		80.078125
3273		74.218750
3274		78.125000
3275		68.359375
3276		74.218750
3277		66.406250
3278		74.218750
3279		62.500000
3280		72.265625
3281		60.546875
3282		68.359375
3283		58.593750
3284		68.359375
3285		54.687500
3286		64.453125
3287		52.734375
3288		62.500000
3289		52.734375
3290		58.593750
3291		48.828125
3292		54.687500
3293		42.968750
3294		52.734375
3295		41.015625
3296		50.781250
3297		39.062500
3298		46.875000
3299		35.156250
3300		44.921875
3301		31.250000
3302		41.015625
3303		29.296875
3304		39.062500
3305		27.343750
3306		35.156250
3307		25.390625
3308		29.296875
3309		21.484375
3310		25.390625
3311		15.625000
3312		25.390625
3313		13.671875
3314		21.484375
3315		7.812500
3316		17.578125
3317		5.859375
3318		13.671875
3319		1.953125
3320		11.718750
3321		-1.953125
3322		7.812500
3323		-1.953125
3324		1.953125
3325		-5.859375
3326		0.000000
3327		-11.718750
3328		-1.953125
3329		-15.625000
3330		-5.859375
3331		-17.578125
3332		-9.765625
3333		-23.437500
3334		-11.718750
3335		-25.390625
3336		-15.625000
3337		-29.296875
3338		-19.531250
3339		-31.250000
3340		-23.437500
3341		-33.203125
3342		-29.296875
3343		-41.015625
3344		-33.203125
3345		-42.968750
3346		-35.156250
3347		-46.875000
3348		-37.109375
3349		-50.781250
3350		-41.015625
3351		-52.734375
3352		-44.921875
3353		-56.640625
3354		-46.875000
3355		-60.546875
3356		-50.781250
3357		-62.500000
3358		-56.640625
3359		-64.453125
3360		-60.546875
3361		-70.312500
3362		-62.500000
3363		-74.218750
3364		-64.453125
3365		-78.125000
3366		-68.359375
3367		-80.078125
3368		-72.265625
3369		-83.984375
3370		-74.218750
3371		-87.890625
3372		-78.125000
3373		-87.890625
3374		-82.031250
3375		-89.843750
3376		-85.937500
3377		-95.703125
3378		-89.843750
3379		-99.609375
3380		-89.843750
3381		-101.562500
3382		-91.796875
3383		-103.515625
3384		-95.703125
3385		-107.421875
3386		-97.656250
3387		-109.375000
3388		-101.562500
3389		-111.328125
3390		-103.515625
3391		-113.281250
3392		-109.375000
3393		-115.234375
3394		-111.328125
3395		-121.093750
3396		-111.328125
3397		-123.046875
3398		-113.281250
3399		-125.000000
3400		-115.234375
3401		-126.953125
3402		-119.140625
3403		-128.906250
3404		-121.093750
3405		-130.859375
3406		-121.093750
3407		-130.859375
3408		-126.953125
3409		-132.812500
3410		-128.906250
3411		-136.718750
3412		-128.906250
3413		-138.671875
3414		-128.906250
3415		-140.625000
3416		-130.859375
3417		-142.578125
3418		-132.812500
3419		-142.578125
3420		-134.765625
3421		-144.531250
3422		-134.765625
3423		-144.531250
3424		-136.718750
3425		-142.578125
3426		-140.625000
3427		-146.484375
3428		-140.625000
3429		-148.437500
3430		-140.625000
3431		-148.437500
3432		-140.625000
3433		-150.390625
3434		-142.578125
3435		-150.390625
3436		-142.578125
3437		-150.390625
3438		-142.578125
3439		-150.390625
3440		-142.578125
3441		-148.437500
3442		-146.484375
3443		-148.437500
3444		-146.484375
3445		-150.390625
3446		-144.531250
3447		-150.390625
3448		-144.531250
3449		-150.390625
3450		-144.531250
3451		-150.390625
3452		-144.531250
3453		-150.390625
3454		-144.531250
3455		-150.390625
3456		-142.578125
3457		-148.437500
3458		-144.531250
3459		-146.484375
3460		-144.531250
3461		-148.437500
3462		-140.625000
3463		-148.437500
3464		-138.671875
3465		-146.484375
3466		-138.671875
3467		-144.531250
3468		-136.718750
3469		-144.531250
3470		-134.765625
3471		-142.578125
3472		-134.765625
3473		-142.578125
3474		-132.812500
3475		-138.671875
3476		-134.765625
3477		-136.718750
3478		-130.859375
3479		-136.718750
3480		-128.906250
3481		-134.765625
3482		-126.953125
3483		-134.765625
3484		-125.000000
3485		-130.859375
3486		-123.046875
3487		-128.906250
3488		-121.093750
3489		-126.953125
3490		-119.140625
3491		-123.046875
3492		-119.140625
3493		-119.140625
3494		-115.234375
3495		-119.140625
3496		-111.328125
3497		-117.187500
3498		-109.375000
3499		-115.234375
3500		-105.468750
3501		-113.281250
3502		-103.515625
3503		-109.375000
3504		-101.562500
3505		-107.421875
3506		-97.656250
3507		-103.515625
3508		-97.656250
3509		-99.609375
3510		-93.750000
3511		-95.703125
3512		-89.843750
3513		-95.703125
3514		-85.937500
3515		-93.750000
3516		-83.984375
3517		-89.843750
3518		-80.078125
3519		-85.937500
3520		-76.171875
3521		-83.984375
3522		-72.265625
3523		-78.125000
3524		-70.312500
3525		-74.218750
3526		-68.359375
3527		-70.312500
3528		-66.406250
3529		-68.359375
3530		-58.593750
3531		-66.406250
3532		-56.640625
3533		-62.500000
3534		-52.734375
3535		-60.546875
3536		-48.828125
3537		-54.687500
3538		-46.875000
3539		-52.734375
3540		-42.968750
3541		-48.828125
3542		-41.015625
3543		-42.968750
3544		-37.109375
3545		-39.062500
3546		-31.250000
3547		-37.109375
3548		-27.343750
3549		-35.156250
3550		-25.390625
3551		-31.250000
3552		-21.484375
3553		-25.390625
3554		-17.578125
3555		-23.437500
3556		-13.671875
3557		-19.531250
3558		-9.765625
3559		-13.671875
3560		-9.765625
3561		-9.765625
3562		-5.859375
3563		-7.812500
3564		0.000000
3565		-5.859375
3566		3.906250
3567		-1.953125
3568		7.812500
3569		1.953125
3570		11.718750
3571		3.906250
3572		13.671875
3573		9.765625
3574		17.578125
3575		13.671875
3576		19.531250
3577		17.578125
3578		21.484375
3579		19.531250
3580		27.343750
3581		21.484375
3582		31.250000
3583		25.390625
3584		33.203125
3585		27.343750
3586		37.109375
3587		31.250000
3588		39.062500
3589		33.203125
3590		44.921875
3591		37.109375
3592		44.921875
3593		42.968750
3594		46.875000
3595		44.921875
3596		52.734375
3597		44.921875
3598		54.687500
3599		48.828125
3600		58.593750
3601		50.781250
3602		60.546875
3603		54.687500
3604		64.453125
3605		56.640625
3606		66.406250
3607		60.546875
3608		68.359375
3609		64.453125
3610		68.359375
3611		66.406250
3612		72.265625
3613		68.359375
3614		76.171875
3615		68.359375
3616		80.078125
3617		72.265625
3618		80.078125
3619		74.218750
3620		83.984375
3621		76.171875
3622		85.937500
3623		80.078125
3624		87.890625
3625		82.031250
3626		87.890625
3627		85.937500
3628		89.843750
3629		85.937500
3630		93.750000
3631		85.937500
3632		95.703125
3633		89.843750
3634		95.703125
3635		89.843750
3636		99.609375
3637		91.796875
3638		99.609375
3639		93.750000
3640		101.562500
3641		93.750000
3642		103.515625
3643		99.609375
3644		101.562500
3645		99.609375
3646		103.515625
3647		99.609375
3648		107.421875
3649		101.562500
3650		109.375000
3651		101.562500
3652		109.375000
3653		103.515625
3654		111.328125
3655		103.515625
3656		113.281250
3657		105.468750
3658		113.281250
3659		107.421875
3660		111.328125
3661		109.375000
3662		113.281250
3663		107.421875
3664		115.234375
3665		109.375000
3666		115.234375
3667		109.375000
3668		117.187500
3669		109.375000
3670		117.187500
3671		109.375000
3672		117.187500
3673		109.375000
3674		119.140625
3675		111.328125
3676		119.140625
3677		113.281250
3678		117.187500
3679		113.281250
3680		117.187500
3681		111.328125
3682		119.140625
3683		111.328125
3684		119.140625
3685		111.328125
3686		119.140625
3687		111.328125
3688		119.140625
3689		111.328125
3690		119.140625
3691		111.328125
3692		119.140625
3693		113.281250
3694		115.234375
3695		113.281250
3696		115.234375
3697		109.375000
3698		117.187500
3699		109.375000
3700		117.187500
3701		109.375000
3702		115.234375
3703		107.421875
3704		117.187500
3705		107.421875
3706		115.234375
3707		107.421875
3708		113.281250
3709		107.421875
3710		113.281250
3711		107.421875
3712		111.328125
3713		105.468750
3714		109.375000
3715		103.515625
3716		111.328125
3717		101.562500
3718		109.375000
3719		99.609375
3720		107.421875
3721		99.609375
3722		107.421875
3723		97.656250
3724		105.468750
3725		95.703125
3726		103.515625
3727		97.656250
3728		99.609375
3729		95.703125
3730		99.609375
3731		91.796875
3732		99.609375
3733		89.843750
3734		97.656250
3735		87.890625
3736		95.703125
3737		85.937500
3738		93.750000
3739		83.984375
3740		91.796875
3741		82.031250
3742		89.843750
3743		82.031250
3744		87.890625
3745		80.078125
3746		83.984375
3747		76.171875
3748		82.031250
3749		72.265625
3750		82.031250
3751		70.312500
3752		78.125000
3753		68.359375
3754		76.171875
3755		64.453125
3756		74.218750
3757		62.500000
3758		72.265625
3759		60.546875
3760		70.312500
3761		60.546875
3762		64.453125
3763		56.640625
3764		62.500000
3765		52.734375
3766		62.500000
3767		50.781250
3768		58.593750
3769		46.875000
3770		56.640625
3771		42.968750
3772		52.734375
3773		41.015625
3774		48.828125
3775		37.109375
3776		46.875000
3777		37.109375
3778		41.015625
3779		33.203125
3780		39.062500
3781		27.343750
3782		37.109375
3783		25.390625
3784		33.203125
3785		21.484375
3786		31.250000
3787		19.531250
3788		27.343750
3789		15.625000
3790		25.390625
3791		11.718750
3792		21.484375
3793		9.765625
3794		17.578125
3795		7.812500
3796		11.718750
3797		1.953125
3798		7.812500
3799		-1.953125
3800		7.812500
3801		-5.859375
3802		3.906250
3803		-7.812500
3804		0.000000
3805		-11.718750
3806		-1.953125
3807		-15.625000
3808		-5.859375
3809		-17.578125
3810		-9.765625
3811		-21.484375
3812		-15.625000
3813		-23.437500
3814		-19.531250
3815		-31.250000
3816		-21.484375
3817		-33.203125
3818		-23.437500
3819		-37.109375
3820		-27.343750
3821		-41.015625
3822		-31.250000
3823		-44.921875
3824		-35.156250
3825		-46.875000
3826		-37.109375
3827		-48.828125
3828		-42.968750
3829		-52.734375
3830		-46.875000
3831		-58.593750
3832		-50.781250
3833		-60.546875
3834		-52.734375
3835		-64.453125
3836		-54.687500
3837		-68.359375
3838		-58.593750
3839		-72.265625
3840		-62.500000
3841		-76.171875
3842		-64.453125
3843		-76.171875
3844		-68.359375
3845		-78.125000
3846		-74.218750
3847		-83.984375
3848		-78.125000
3849		-85.937500
3850		-78.125000
3851		-91.796875
3852		-82.031250
3853		-93.750000
3854		-83.984375
3855		-95.703125
3856		-87.890625
3857		-99.609375
3858		-89.843750
3859		-101.562500
3860		-91.796875
3861		-101.562500
3862		-97.656250
3863		-105.468750
3864		-101.562500
3865		-109.375000
3866		-101.562500
3867		-113.281250
3868		-103.515625
3869		-115.234375
3870		-105.468750
3871		-117.187500
3872		-109.375000
3873		-121.093750
3874		-111.328125
3875		-123.046875
3876		-113.281250
3877		-123.046875
3878		-115.234375
3879		-125.000000
3880		-121.093750
3881		-128.906250
3882		-123.046875
3883		-130.859375
3884		-123.046875
3885		-132.812500
3886		-125.000000
3887		-134.765625
3888		-126.953125
3889		-136.718750
3890		-126.953125
3891		-138.671875
3892		-128.906250
3893		-138.671875
3894		-132.812500
3895		-138.671875
3896		-134.765625
3897		-138.671875
3898		-136.718750
3899		-144.531250
3900		-134.765625
3901		-144.531250
3902		-136.718750
3903		-146.484375
3904		-138.671875
3905		-146.484375
3906		-138.671875
3907		-148.437500
3908		-138.671875
3909		-148.437500
3910		-140.625000
3911		-148.437500
3912		-140.625000
3913		-146.484375
3914		-144.531250
3915		-148.437500
3916		-142.578125
3917		-150.390625
3918		-142.578125
3919		-150.390625
3920		-142.578125
3921		-150.390625
3922		-142.578125
3923		-150.390625
3924		-142.578125
3925		-150.390625
3926		-142.578125
3927		-150.390625
3928		-142.578125
3929		-146.484375
3930		-144.531250
3931		-148.437500
3932		-142.578125
3933		-148.437500
3934		-140.625000
3935		-148.437500
3936		-140.625000
3937		-148.437500
3938		-138.671875
3939		-146.484375
3940		-138.671875
3941		-146.484375
3942		-138.671875
3943		-144.531250
3944		-136.718750
3945		-140.625000
3946		-136.718750
3947		-140.625000
3948		-136.718750
3949		-140.625000
3950		-132.812500
3951		-140.625000
3952		-130.859375
3953		-138.671875
3954		-130.859375
3955		-136.718750
3956		-128.906250
3957		-134.765625
3958		-126.953125
3959		-134.765625
3960		-125.000000
3961		-132.812500
3962		-125.000000
3963		-126.953125
3964		-123.046875
3965		-125.000000
3966		-119.140625
3967		-125.000000
3968		-115.234375
3969		-123.046875
3970		-113.281250
3971		-121.093750
3972		-111.328125
3973		-117.187500
3974		-109.375000
3975		-115.234375
3976		-105.468750
3977		-113.281250
3978		-105.468750
3979		-107.421875
3980		-103.515625
3981		-105.468750
3982		-101.562500
3983		-103.515625
3984		-95.703125
3985		-101.562500
3986		-91.796875
3987		-99.609375
3988		-89.843750
3989		-95.703125
3990		-85.937500
3991		-93.750000
3992		-83.984375
3993		-89.843750
3994		-80.078125
3995		-87.890625
3996		-80.078125
3997		-82.031250
3998		-76.171875
3999		-78.125000
4000		-70.312500
4001		-78.125000
4002		-66.406250
4003		-72.265625
4004		-64.453125
4005		-70.312500
4006		-60.546875
4007		-68.359375
4008		-58.593750
4009		-62.500000
4010		-54.687500
4011		-60.546875
4012		-52.734375
4013		-54.687500
4014		-48.828125
4015		-50.781250
4016		-44.921875
4017		-48.828125
4018		-39.062500
4019		-46.875000
4020		-37.109375
4021		-42.968750
4022		-33.203125
4023		-39.062500
4024		-29.296875
4025		-35.156250
4026		-25.390625
4027		-33.203125
4028		-21.484375
4029		-25.390625
4030		-19.531250
4031		-21.484375
4032		-17.578125
4033		-19.531250
4034		-11.718750
4035		-17.578125
4036		-7.812500
4037		-13.671875
4038		-3.906250
4039		-9.765625
4040		-1.953125
4041		-7.812500
4042		1.953125
4043		-3.906250
4044		5.859375
4045		0.000000
4046		7.812500
4047		5.859375
4048		9.765625
4049		9.765625
4050		17.578125
4051		9.765625
4052		19.531250
4053		13.671875
4054		23.437500
4055		17.578125
4056		27.343750
4057		21.484375
4058		29.296875
4059		23.437500
4060		33.203125
4061		27.343750
4062		35.156250
4063		33.203125
4064		37.109375
4065		35.156250
4066		39.062500
4067		37.109375
4068		44.921875
4069		39.062500
4070		46.875000
4071		41.015625
4072		50.781250
4073		44.921875
4074		54.687500
4075		46.875000
4076		56.640625
4077		50.781250
4078		60.546875
4079		54.687500
4080		60.546875
4081		58.593750
4082		62.500000
4083		60.546875
4084		68.359375
4085		60.546875
4086		70.312500
4087		64.453125
4088		72.265625
4089		66.406250
4090		76.171875
4091		70.312500
4092		78.125000
4093		72.265625
4094		80.078125
4095		74.218750
4096		80.078125
4097		78.125000
4098		82.031250
4099		80.078125
4100		83.984375
4101		80.078125
4102		87.890625
4103		82.031250
4104		89.843750
4105		83.984375
4106		91.796875
4107		85.937500
4108		93.750000
4109		87.890625
4110		95.703125
4111		89.843750
4112		97.656250
4113		93.750000
4114		97.656250
4115		95.703125
4116		99.609375
4117		95.703125
4118		103.515625
4119		95.703125
4120		105.468750
4121		97.656250
4122		105.468750
4123		99.609375
4124		107.421875
4125		99.609375
4126		107.421875
4127		101.562500
4128		109.375000
4129		103.515625
4130		109.375000
4131		107.421875
4132		109.375000
4133		107.421875
4134		111.328125
4135		105.468750
4136		113.281250
4137		107.421875
4138		115.234375
4139		107.421875
4140		115.234375
4141		107.421875
4142		115.234375
4143		109.375000
4144		117.187500
4145		109.375000
4146		119.140625
4147		113.281250
4148		115.234375
4149		113.281250
4150		115.234375
4151		111.328125
4152		119.140625
4153		111.328125
4154		119.140625
4155		111.328125
4156		119.140625
4157		111.328125
4158		119.140625
4159		111.328125
4160		119.140625
4161		111.328125
4162		119.140625
4163		111.328125
4164		119.140625
4165		115.234375
4166		117.187500
4167		111.328125
4168		119.140625
4169		111.328125
4170		119.140625
4171		111.328125
4172		119.140625
4173		111.328125
4174		117.187500
4175		109.375000
4176		119.140625
4177		109.375000
4178		117.187500
4179		109.375000
4180		117.187500
4181		111.328125
4182		113.281250
4183		109.375000
4184		113.281250
4185		105.468750
4186		115.234375
4187		105.468750
4188		113.281250
4189		105.468750
4190		113.281250
4191		103.515625
4192		111.328125
4193		103.515625
4194		111.328125
4195		101.562500
4196		109.375000
4197		103.515625
4198		107.421875
4199		101.562500
4200		105.468750
4201		97.656250
4202		103.515625
4203		95.703125
4204		103.515625
4205		93.750000
4206		101.562500
4207		93.750000
4208		101.562500
4209		91.796875
4210		99.609375
4211		89.843750
4212		97.656250
4213		87.890625
4214		95.703125
4215		87.890625
4216		91.796875
4217		83.984375
4218		89.843750
4219		82.031250
4220		89.843750
4221		78.125000
4222		87.890625
4223		78.125000
4224		85.937500
4225		74.218750
4226		83.984375
4227		72.265625
4228		82.031250
4229		70.312500
4230		78.125000
4231		70.312500
4232		74.218750
4233		68.359375
4234		72.265625
4235		62.500000
4236		70.312500
4237		58.593750
4238		68.359375
4239		56.640625
4240		66.406250
4241		52.734375
4242		62.500000
4243		50.781250
4244		60.546875
4245		48.828125
4246		58.593750
4247		46.875000
4248		54.687500
4249		44.921875
4250		48.828125
4251		41.015625
4252		46.875000
4253		35.156250
4254		44.921875
4255		33.203125
4256		42.968750
4257		31.250000
4258		41.015625
4259		27.343750
4260		35.156250
4261		23.437500
4262		33.203125
4263		21.484375
4264		31.250000
4265		19.531250
4266		25.390625
4267		15.625000
4268		21.484375
4269		11.718750
4270		19.531250
4271		7.812500
4272		17.578125
4273		3.906250
4274		13.671875
4275		0.000000
4276		9.765625
4277		-1.953125
4278		7.812500
4279		-7.812500
4280		1.953125
4281		-7.812500
4282		-1.953125
4283		-11.718750
4284		-5.859375
4285		-15.625000
4286		-9.765625
4287		-19.531250
4288		-11.718750
4289		-23.437500
4290		-15.625000
4291		-25.390625
4292		-19.531250
4293		-29.296875
4294		-21.484375
4295		-33.203125
4296		-25.390625
4297		-35.156250
4298		-29.296875
4299		-39.062500
4300		-33.203125
4301		-42.968750
4302		-37.109375
4303		-48.828125
4304		-39.062500
4305		-52.734375
4306		-42.968750
4307		-54.687500
4308		-44.921875
4309		-58.593750
4310		-48.828125
4311		-62.500000
4312		-52.734375
4313		-64.453125
4314		-56.640625
4315		-66.406250
4316		-60.546875
4317		-70.312500
4318		-64.453125
4319		-76.171875
4320		-66.406250
4321		-80.078125
4322		-70.312500
4323		-82.031250
4324		-72.265625
4325		-85.937500
4326		-76.171875
4327		-87.890625
4328		-80.078125
4329		-89.843750
4330		-82.031250
4331		-91.796875
4332		-85.937500
4333		-93.750000
4334		-89.843750
4335		-99.609375
4336		-93.750000
4337		-101.562500
4338		-93.750000
4339		-105.468750
4340		-95.703125
4341		-107.421875
4342		-99.609375
4343		-109.375000
4344		-101.562500
4345		-113.281250
4346		-103.515625
4347		-115.234375
4348		-107.421875
4349		-115.234375
4350		-111.328125
4351		-117.187500
4352		-115.234375
4353		-123.046875
4354		-115.234375
4355		-125.000000
4356		-117.187500
4357		-126.953125
4358		-117.187500
4359		-128.906250
4360		-119.140625
4361		-130.859375
4362		-123.046875
4363		-134.765625
4364		-125.000000
4365		-132.812500
4366		-126.953125
4367		-134.765625
4368		-130.859375
4369		-138.671875
4370		-130.859375
4371		-140.625000
4372		-130.859375
4373		-140.625000
4374		-132.812500
4375		-142.578125
4376		-134.765625
4377		-144.531250
4378		-134.765625
4379		-144.531250
4380		-136.718750
4381		-144.531250
4382		-136.718750
4383		-144.531250
4384		-140.625000
4385		-144.531250
4386		-142.578125
4387		-148.437500
4388		-140.625000
4389		-148.437500
4390		-140.625000
4391		-148.437500
4392		-142.578125
4393		-150.390625
4394		-142.578125
4395		-150.390625
4396		-142.578125
4397		-148.437500
4398		-142.578125
4399		-146.484375
4400		-144.531250
4401		-146.484375
4402		-144.531250
4403		-150.390625
4404		-142.578125
4405		-150.390625
4406		-142.578125
4407		-150.390625
4408		-142.578125
4409		-150.390625
4410		-140.625000
4411		-148.437500
4412		-140.625000
4413		-148.437500
4414		-140.625000
4415		-146.484375
4416		-138.671875
4417		-142.578125
4418		-140.625000
4419		-144.531250
4420		-138.671875
4421		-144.531250
4422		-136.718750
4423		-144.531250
4424		-134.765625
4425		-142.578125
4426		-134.765625
4427		-140.625000
4428		-132.812500
4429		-140.625000
4430		-130.859375
4431		-136.718750
4432		-128.906250
4433		-132.812500
4434		-128.906250
4435		-132.812500
4436		-128.906250
4437		-132.812500
4438		-125.000000
4439		-130.859375
4440		-121.093750
4441		-126.953125
4442		-119.140625
4443		-126.953125
4444		-119.140625
4445		-125.000000
4446		-115.234375
4447		-121.093750
4448		-113.281250
4449		-119.140625
4450		-113.281250
4451		-115.234375
4452		-111.328125
4453		-113.281250
4454		-105.468750
4455		-111.328125
4456		-103.515625
4457		-109.375000
4458		-99.609375
4459		-107.421875
4460		-97.656250
4461		-103.515625
4462		-93.750000
4463		-101.562500
4464		-91.796875
4465		-97.656250
4466		-89.843750
4467		-91.796875
4468		-87.890625
4469		-89.843750
4470		-83.984375
4471		-87.890625
4472		-80.078125
4473		-85.937500
4474		-76.171875
4475		-82.031250
4476		-74.218750
4477		-78.125000
4478		-70.312500
4479		-76.171875
4480		-66.406250
4481		-72.265625
4482		-62.500000
4483		-66.406250
4484		-62.500000
4485		-64.453125
4486		-58.593750
4487		-60.546875
4488		-52.734375
4489		-58.593750
4490		-50.781250
4491		-54.687500
4492		-46.875000
4493		-50.781250
4494		-41.015625
4495		-48.828125
4496		-39.062500
4497		-44.921875
4498		-37.109375
4499		-41.015625
4500		-33.203125
4501		-35.156250
4502		-29.296875
4503		-31.250000
4504		-23.437500
4505		-31.250000
4506		-21.484375
4507		-25.390625
4508		-17.578125
4509		-23.437500
4510		-13.671875
4511		-19.531250
4512		-9.765625
4513		-15.625000
4514		-5.859375
4515		-11.718750
4516		-3.906250
4517		-5.859375
4518		-1.953125
4519		-3.906250
4520		1.953125
4521		0.000000
4522		7.812500
4523		1.953125
4524		11.718750
4525		3.906250
4526		13.671875
4527		7.812500
4528		15.625000
4529		11.718750
4530		21.484375
4531		15.625000
4532		23.437500
4533		17.578125
4534		25.390625
4535		23.437500
4536		29.296875
4537		27.343750
4538		33.203125
4539		27.343750
4540		37.109375
4541		31.250000
4542		39.062500
4543		35.156250
4544		42.968750
4545		37.109375
4546		46.875000
4547		41.015625
4548		50.781250
4549		42.968750
4550		50.781250
4551		48.828125
4552		52.734375
4553		50.781250
4554		56.640625
4555		50.781250
4556		60.546875
4557		54.687500
4558		62.500000
4559		56.640625
4560		66.406250
4561		60.546875
4562		68.359375
4563		62.500000
4564		70.312500
4565		64.453125
4566		74.218750
4567		70.312500
4568		74.218750
4569		72.265625
4570		76.171875
4571		72.265625
4572		82.031250
4573		74.218750
4574		83.984375
4575		76.171875
4576		85.937500
4577		80.078125
4578		87.890625
4579		82.031250
4580		89.843750
4581		82.031250
4582		91.796875
4583		85.937500
4584		93.750000
4585		89.843750
4586		93.750000
4587		91.796875
4588		97.656250
4589		89.843750
4590		99.609375
4591		91.796875
4592		99.609375
4593		93.750000
4594		101.562500
4595		95.703125
4596		103.515625
4597		97.656250
4598		105.468750
4599		97.656250
4600		105.468750
4601		101.562500
4602		105.468750
4603		103.515625
4604		107.421875
4605		103.515625
4606		109.375000
4607		103.515625
4608		111.328125
4609		103.515625
4610		113.281250
4611		105.468750
4612		113.281250
4613		105.468750
4614		115.234375
4615		107.421875
4616		115.234375
4617		107.421875
4618		115.234375
4619		111.328125
4620		113.281250
4621		111.328125
4622		117.187500
4623		109.375000
4624		117.187500
4625		111.328125
4626		119.140625
4627		111.328125
4628		119.140625
4629		111.328125
4630		119.140625
4631		111.328125
4632		119.140625
4633		111.328125
4634		119.140625
4635		115.234375
4636		117.187500
4637		113.281250
4638		117.187500
4639		111.328125
4640		119.140625
4641		111.328125
4642		119.140625
4643		111.328125
4644		119.140625
4645		111.328125
4646		119.140625
4647		111.328125
4648		119.140625
4649		111.328125
4650		119.140625
4651		113.281250
4652		115.234375
4653		113.281250
4654		115.234375
4655		109.375000
4656		117.187500
4657		109.375000
4658		117.187500
4659		109.375000
4660		117.187500
4661		107.421875
4662		115.234375
4663		107.421875
4664		115.234375
4665		105.468750
4666		113.281250
4667		107.421875
4668		113.281250
4669		105.468750
4670		109.375000
4671		103.515625
4672		107.421875
4673		101.562500
4674		109.375000
4675		99.609375
4676		107.421875
4677		97.656250
4678		107.421875
4679		97.656250
4680		105.468750
4681		95.703125
4682		103.515625
4683		93.750000
4684		103.515625
4685		93.750000
4686		97.656250
4687		93.750000
4688		95.703125
4689		87.890625
4690		95.703125
4691		85.937500
4692		95.703125
4693		85.937500
4694		93.750000
4695		82.031250
4696		91.796875
4697		82.031250
4698		89.843750
4699		80.078125
4700		87.890625
4701		78.125000
4702		85.937500
4703		76.171875
4704		80.078125
4705		72.265625
4706		80.078125
4707		70.312500
4708		78.125000
4709		68.359375
4710		76.171875
4711		64.453125
4712		72.265625
4713		62.500000
4714		70.312500
4715		58.593750
4716		68.359375
4717		56.640625
4718		64.453125
4719		56.640625
4720		60.546875
4721		52.734375
4722		56.640625
4723		46.875000
4724		56.640625
4725		44.921875
4726		54.687500
4727		42.968750
4728		50.781250
4729		39.062500
4730		48.828125
4731		35.156250
4732		44.921875
4733		33.203125
4734		42.968750
4735		31.250000
4736		37.109375
4737		29.296875
4738		33.203125
4739		23.437500
4740		31.250000
4741		19.531250
4742		29.296875
4743		15.625000
4744		25.390625
4745		13.671875
4746		21.484375
4747		9.765625
4748		19.531250
4749		5.859375
4750		15.625000
4751		5.859375
4752		11.718750
4753		1.953125
4754		5.859375
4755		-1.953125
4756		3.906250
4757		-5.859375
4758		1.953125
4759		-11.718750
4760		-1.953125
4761		-13.671875
4762		-3.906250
4763		-17.578125
4764		-7.812500
4765		-23.437500
4766		-11.718750
4767		-25.390625
4768		-15.625000
4769		-25.390625
4770		-21.484375
4771		-29.296875
4772		-25.390625
4773		-35.156250
4774		-25.390625
4775		-39.062500
4776		-29.296875
4777		-42.968750
4778		-33.203125
4779		-46.875000
4780		-37.109375
4781		-50.781250
4782		-41.015625
4783		-52.734375
4784		-42.968750
4785		-54.687500
4786		-46.875000
4787		-56.640625
4788		-52.734375
4789		-64.453125
4790		-56.640625
4791		-66.406250
4792		-58.593750
4793		-68.359375
4794		-60.546875
4795		-74.218750
4796		-62.500000
4797		-76.171875
4798		-66.406250
4799		-78.125000
4800		-70.312500
4801		-82.031250
4802		-72.265625
4803		-83.984375
4804		-78.125000
4805		-85.937500
4806		-82.031250
4807		-91.796875
4808		-83.984375
4809		-95.703125
4810		-85.937500
4811		-97.656250
4812		-87.890625
4813		-99.609375
4814		-91.796875
4815		-103.515625
4816		-93.750000
4817		-105.468750
4818		-97.656250
4819		-105.468750
4820		-101.562500
4821		-109.375000
4822		-103.515625
4823		-113.281250
4824		-105.468750
4825		-115.234375
4826		-105.468750
4827		-119.140625
4828		-109.375000
4829		-121.093750
4830		-111.328125
4831		-123.046875
4832		-113.281250
4833		-125.000000
4834		-115.234375
4835		-125.000000
4836		-119.140625
4837		-126.953125
4838		-123.046875
4839		-128.906250
4840		-125.000000
4841		-132.812500
4842		-125.000000
4843		-134.765625
4844		-125.000000
4845		-136.718750
4846		-126.953125
4847		-136.718750
4848		-128.906250
4849		-138.671875
4850		-128.906250
4851		-140.625000
4852		-132.812500
4853		-138.671875
4854		-134.765625
4855		-140.625000
4856		-136.718750
4857		-144.531250
4858		-136.718750
4859		-144.531250
4860		-136.718750
4861		-146.484375
4862		-136.718750
4863		-146.484375
4864		-138.671875
4865		-148.437500
4866		-138.671875
4867		-148.437500
4868		-140.625000
4869		-148.437500
4870		-140.625000
4871		-144.531250
4872		-142.578125
4873		-148.437500
4874		-140.625000
4875		-148.437500
4876		-140.625000
4877		-148.437500
4878		-140.625000
4879		-148.437500
4880		-140.625000
4881		-148.437500
4882		-140.625000
4883		-148.437500
4884		-140.625000
4885		-148.437500
4886		-140.625000
4887		-144.531250
4888		-142.578125
4889		-144.531250
4890		-140.625000
4891		-146.484375
4892		-138.671875
4893		-144.531250
4894		-136.718750
4895		-144.531250
4896		-136.718750
4897		-142.578125
4898		-134.765625
4899		-142.578125
4900		-134.765625
4901		-140.625000
4902		-132.812500
4903		-136.718750
4904		-132.812500
4905		-134.765625
4906		-132.812500
4907		-136.718750
4908		-128.906250
4909		-134.765625
4910		-126.953125
4911		-132.812500
4912		-125.000000
4913		-130.859375
4914		-123.046875
4915		-128.906250
4916		-121.093750
4917		-126.953125
4918		-117.187500
4919		-125.000000
4920		-117.187500
4921		-121.093750
4922		-117.187500
4923		-119.140625
4924		-113.281250
4925		-119.140625
4926		-109.375000
4927		-115.234375
4928		-107.421875
4929		-115.234375
4930		-105.468750
4931		-111.328125
4932		-101.562500
4933		-109.375000
4934		-99.609375
4935		-107.421875
4936		-95.703125
4937		-101.562500
4938		-95.703125
4939		-97.656250
4940		-93.750000
4941		-95.703125
4942		-87.890625
4943		-93.750000
4944		-85.937500
4945		-91.796875
4946		-82.031250
4947		-87.890625
4948		-78.125000
4949		-83.984375
4950		-76.171875
4951		-82.031250
4952		-72.265625
4953		-80.078125
4954		-70.312500
4955		-72.265625
4956		-66.406250
4957		-70.312500
4958		-62.500000
4959		-68.359375
4960		-60.546875
4961		-66.406250
4962		-54.687500
4963		-62.500000
4964		-52.734375
4965		-58.593750
4966		-50.781250
4967		-54.687500
4968		-44.921875
4969		-52.734375
4970		-42.968750
4971		-44.921875
4972		-41.015625
4973		-42.968750
4974		-37.109375
4975		-41.015625
4976		-31.250000
4977		-37.109375
4978		-29.296875
4979		-33.203125
4980		-23.437500
4981		-31.250000
4982		-21.484375
4983		-27.343750
4984		-17.578125
4985		-23.437500
4986		-13.671875
4987		-17.578125
4988		-11.718750
4989		-13.671875
4990		-7.812500
4991		-9.765625
4992		-3.906250
4993		-9.765625
4994		0.000000
4995		-3.906250
4996		3.906250
4997		-1.953125
4998		7.812500
4999		0.000000
5000		11.718750
5001		5.859375
5002		15.625000
5003		7.812500
5004		15.625000
5005		13.671875
5006		19.531250
5007		17.578125
5008		23.437500
5009		19.531250
5010		27.343750
5011		21.484375
5012		29.296875
5013		23.437500
5014		35.156250
5015		29.296875
5016		37.109375
5017		31.250000
5018		39.062500
5019		35.156250
5020		42.968750
5021		39.062500
5022		44.921875
5023		42.968750
5024		46.875000
5025		44.921875
5026		52.734375
5027		46.875000
5028		54.687500
5029		48.828125
5030		58.593750
5031		52.734375
5032		60.546875
5033		54.687500
5034		62.500000
5035		56.640625
5036		66.406250
5037		58.593750
5038		66.406250
5039		64.453125
5040		70.312500
5041		66.406250
5042		74.218750
5043		66.406250
5044		76.171875
5045		70.312500
5046		78.125000
5047		72.265625
5048		80.078125
5049		76.171875
5050		82.031250
5051		78.125000
5052		85.937500
5053		80.078125
5054		87.890625
5055		83.984375
5056		87.890625
5057		85.937500
5058		89.843750
5059		85.937500
5060		93.750000
5061		87.890625
5062		95.703125
5063		89.843750
5064		97.656250
5065		89.843750
5066		99.609375
5067		91.796875
5068		101.562500
5069		93.750000
5070		103.515625
5071		95.703125
5072		103.515625
5073		99.609375
5074		103.515625
5075		99.609375
5076		107.421875
5077		99.609375
5078		109.375000
5079		101.562500
5080		109.375000
5081		103.515625
5082		111.328125
5083		103.515625
5084		113.281250
5085		105.468750
5086		113.281250
5087		107.421875
5088		113.281250
5089		109.375000
5090		113.281250
5091		111.328125
5092		113.281250
5093		109.375000
5094		117.187500
5095		109.375000
5096		117.187500
5097		111.328125
5098		119.140625
5099		111.328125
5100		119.140625
5101		111.328125
5102		119.140625
5103		111.328125
5104		121.093750
5105		115.234375
5106		117.187500
5107		115.234375
5108		119.140625
5109		115.234375
5110		119.140625
5111		113.281250
5112		121.093750
5113		113.281250
5114		121.093750
5115		113.281250
5116		121.093750
5117		113.281250
5118		121.093750
5119		113.281250
5120		121.093750
5121		115.234375
5122		121.093750
5123		115.234375
5124		117.187500
5125		115.234375
5126		119.140625
5127		115.234375
5128		119.140625
5129		113.281250
5130		119.140625
5131		113.281250
5132		119.140625
5133		111.328125
5134		117.187500
5135		111.328125
5136		117.187500
5137		111.328125
5138		115.234375
5139		111.328125
5140		113.281250
5141		109.375000
5142		113.281250
5143		109.375000
5144		113.281250
5145		107.421875
5146		111.328125
5147		107.421875
5148		109.375000
5149		103.515625
5150		111.328125
5151		103.515625
5152		107.421875
5153		101.562500
5154		109.375000
5155		99.609375
5156		107.421875
5157		99.609375
5158		103.515625
5159		97.656250
5160		101.562500
5161		97.656250
5162		101.562500
5163		95.703125
5164		99.609375
5165		93.750000
5166		97.656250
5167		91.796875
5168		97.656250
5169		87.890625
5170		93.750000
5171		85.937500
5172		93.750000
5173		85.937500
5174		89.843750
5175		82.031250
5176		87.890625
5177		82.031250
5178		85.937500
5179		78.125000
5180		83.984375
5181		76.171875
5182		80.078125
5183		74.218750
5184		78.125000
5185		72.265625
5186		78.125000
5187		68.359375
5188		76.171875
5189		68.359375
5190		72.265625
5191		64.453125
5192		68.359375
5193		62.500000
5194		66.406250
5195		58.593750
5196		64.453125
5197		56.640625
5198		60.546875
5199		52.734375
5200		58.593750
5201		50.781250
5202		54.687500
5203		46.875000
5204		52.734375
5205		44.921875
5206		48.828125
5207		41.015625
5208		46.875000
5209		39.062500
5210		42.968750
5211		35.156250
5212		41.015625
5213		31.250000
5214		37.109375
5215		29.296875
5216		35.156250
5217		25.390625
5218		31.250000
5219		23.437500
5220		27.343750
5221		17.578125
5222		23.437500
5223		15.625000
5224		21.484375
5225		11.718750
5226		17.578125
5227		9.765625
5228		15.625000
5229		5.859375
5230		11.718750
5231		1.953125
5232		7.812500
5233		-1.953125
5234		3.906250
5235		-3.906250
5236		0.000000
5237		-7.812500
5238		-1.953125
5239		-11.718750
5240		-5.859375
5241		-15.625000
5242		-9.765625
5243		-19.531250
5244		-13.671875
5245		-21.484375
5246		-17.578125
5247		-25.390625
5248		-19.531250
5249		-29.296875
5250		-23.437500
5251		-33.203125
5252		-27.343750
5253		-37.109375
5254		-31.250000
5255		-39.062500
5256		-35.156250
5257		-42.968750
5258		-39.062500
5259		-48.828125
5260		-41.015625
5261		-50.781250
5262		-44.921875
5263		-52.734375
5264		-46.875000
5265		-56.640625
5266		-52.734375
5267		-60.546875
5268		-54.687500
5269		-64.453125
5270		-58.593750
5271		-68.359375
5272		-60.546875
5273		-70.312500
5274		-64.453125
5275		-72.265625
5276		-68.359375
5277		-76.171875
5278		-70.312500
5279		-80.078125
5280		-74.218750
5281		-82.031250
5282		-78.125000
5283		-85.937500
5284		-80.078125
5285		-89.843750
5286		-83.984375
5287		-91.796875
5288		-87.890625
5289		-93.750000
5290		-89.843750
5291		-97.656250
5292		-93.750000
5293		-101.562500
5294		-95.703125
5295		-103.515625
5296		-97.656250
5297		-105.468750
5298		-101.562500
5299		-109.375000
5300		-103.515625
5301		-111.328125
5302		-105.468750
5303		-113.281250
5304		-109.375000
5305		-117.187500
5306		-111.328125
5307		-117.187500
5308		-113.281250
5309		-119.140625
5310		-115.234375
5311		-123.046875
5312		-117.187500
5313		-123.046875
5314		-119.140625
5315		-126.953125
5316		-121.093750
5317		-128.906250
5318		-125.000000
5319		-128.906250
5320		-126.953125
5321		-130.859375
5322		-126.953125
5323		-132.812500
5324		-128.906250
5325		-134.765625
5326		-130.859375
5327		-136.718750
5328		-130.859375
5329		-136.718750
5330		-132.812500
5331		-138.671875
5332		-134.765625
5333		-140.625000
5334		-134.765625
5335		-140.625000
5336		-136.718750
5337		-142.578125
5338		-138.671875
5339		-142.578125
5340		-138.671875
5341		-142.578125
5342		-140.625000
5343		-142.578125
5344		-140.625000
5345		-144.531250
5346		-140.625000
5347		-144.531250
5348		-142.578125
5349		-144.531250
5350		-142.578125
5351		-144.531250
5352		-142.578125
5353		-144.531250
5354		-140.625000
5355		-146.484375
5356		-140.625000
5357		-144.531250
5358		-140.625000
5359		-144.531250
5360		-142.578125
5361		-144.531250
5362		-140.625000
5363		-144.531250
5364		-140.625000
5365		-144.531250
5366		-140.625000
5367		-142.578125
5368		-138.671875
5369		-142.578125
5370		-138.671875
5371		-142.578125
5372		-138.671875
5373		-140.625000
5374		-136.718750
5375		-138.671875
5376		-136.718750
5377		-138.671875
5378		-132.812500
5379		-136.718750
5380		-132.812500
5381		-136.718750
5382		-132.812500
5383		-134.765625
5384		-130.859375
5385		-132.812500
5386		-128.906250
5387		-130.859375
5388		-126.953125
5389		-128.906250
5390		-125.000000
5391		-126.953125
5392		-125.000000
5393		-125.000000
5394		-123.046875
5395		-125.000000
5396		-119.140625
5397		-121.093750
5398		-117.187500
5399		-121.093750
5400		-115.234375
5401		-117.187500
5402		-113.281250
5403		-115.234375
5404		-109.375000
5405		-111.328125
5406		-107.421875
5407		-109.375000
5408		-105.468750
5409		-107.421875
5410		-103.515625
5411		-105.468750
5412		-99.609375
5413		-101.562500
5414		-97.656250
5415		-99.609375
5416		-93.750000
5417		-95.703125
5418		-91.796875
5419		-93.750000
5420		-87.890625
5421		-89.843750
5422		-85.937500
5423		-87.890625
5424		-82.031250
5425		-83.984375
5426		-80.078125
5427		-82.031250
5428		-76.171875
5429		-78.125000
5430		-72.265625
5431		-76.171875
5432		-70.312500
5433		-70.312500
5434		-66.406250
5435		-68.359375
5436		-62.500000
5437		-64.453125
5438		-58.593750
5439		-62.500000
5440		-54.687500
5441		-58.593750
5442		-52.734375
5443		-54.687500
5444		-48.828125
5445		-50.781250
5446		-44.921875
5447		-46.875000
5448		-42.968750
5449		-42.968750
5450		-39.062500
5451		-41.015625
5452		-35.156250
5453		-37.109375
5454		-31.250000
5455		-33.203125
5456		-29.296875
5457		-29.296875
5458		-25.390625
5459		-25.390625
5460		-21.484375
5461		-23.437500
5462		-15.625000
5463		-19.531250
5464		-13.671875
5465		-15.625000
5466		-9.765625
5467		-11.718750
5468		-5.859375
5469		-7.812500
5470		-3.906250
5471		-5.859375
5472		0.000000
5473		-1.953125
5474		5.859375
5475		1.953125
5476		7.812500
5477		5.859375
5478		9.765625
5479		7.812500
5480		13.671875
5481		11.718750
5482		17.578125
5483		15.625000
5484		21.484375
5485		19.531250
5486		23.437500
5487		21.484375
5488		27.343750
5489		25.390625
5490		31.250000
5491		27.343750
5492		33.203125
5493		31.250000
5494		37.109375
5495		35.156250
5496		41.015625
5497		37.109375
5498		42.968750
5499		41.015625
5500		46.875000
5501		44.921875
5502		48.828125
5503		46.875000
5504		52.734375
5505		50.781250
5506		54.687500
5507		52.734375
5508		58.593750
5509		56.640625
5510		60.546875
5511		58.593750
5512		62.500000
5513		60.546875
5514		66.406250
5515		62.500000
5516		68.359375
5517		66.406250
5518		70.312500
5519		68.359375
5520		74.218750
5521		70.312500
5522		76.171875
5523		74.218750
5524		78.125000
5525		74.218750
5526		80.078125
5527		78.125000
5528		82.031250
5529		80.078125
5530		83.984375
5531		82.031250
5532		85.937500
5533		83.984375
5534		89.843750
5535		85.937500
5536		89.843750
5537		87.890625
5538		93.750000
5539		89.843750
5540		95.703125
5541		91.796875
5542		95.703125
5543		93.750000
5544		97.656250
5545		95.703125
5546		101.562500
5547		97.656250
5548		101.562500
5549		99.609375
5550		103.515625
5551		101.562500
5552		103.515625
5553		101.562500
5554		105.468750
5555		101.562500
5556		107.421875
5557		103.515625
5558		109.375000
5559		105.468750
5560		109.375000
5561		107.421875
5562		111.328125
5563		107.421875
5564		111.328125
5565		109.375000
5566		113.281250
5567		109.375000
5568		113.281250
5569		111.328125
5570		115.234375
5571		111.328125
5572		115.234375
5573		113.281250
5574		115.234375
5575		111.328125
5576		117.187500
5577		113.281250
5578		117.187500
5579		115.234375
5580		117.187500
5581		115.234375
5582		119.140625
5583		115.234375
5584		119.140625
5585		115.234375
5586		117.187500
5587		115.234375
5588		119.140625
5589		115.234375
5590		119.140625
5591		115.234375
5592		121.093750
5593		117.187500
5594		119.140625
5595		115.234375
5596		119.140625
5597		115.234375
5598		119.140625
5599		115.234375
5600		119.140625
5601		115.234375
5602		119.140625
5603		115.234375
5604		117.187500
5605		115.234375
5606		117.187500
5607		113.281250
5608		117.187500
5609		113.281250
5610		117.187500
5611		113.281250
5612		115.234375
5613		111.328125
5614		115.234375
5615		111.328125
5616		115.234375
5617		111.328125
5618		113.281250
5619		109.375000
5620		113.281250
5621		107.421875
5622		111.328125
5623		107.421875
5624		111.328125
5625		105.468750
5626		111.328125
5627		105.468750
5628		107.421875
5629		101.562500
5630		107.421875
5631		101.562500
5632		107.421875
5633		101.562500
5634		105.468750
5635		99.609375
5636		103.515625
5637		97.656250
5638		101.562500
5639		95.703125
5640		99.609375
5641		93.750000
5642		97.656250
5643		93.750000
5644		95.703125
5645		91.796875
5646		93.750000
5647		87.890625
5648		93.750000
5649		85.937500
5650		91.796875
5651		83.984375
5652		89.843750
5653		82.031250
5654		85.937500
5655		80.078125
5656		83.984375
5657		78.125000
5658		82.031250
5659		76.171875
5660		82.031250
5661		74.218750
5662		78.125000
5663		70.312500
5664		74.218750
5665		68.359375
5666		72.265625
5667		66.406250
5668		70.312500
5669		64.453125
5670		68.359375
5671		60.546875
5672		64.453125
5673		58.593750
5674		62.500000
5675		54.687500
5676		60.546875
5677		52.734375
5678		56.640625
5679		48.828125
5680		54.687500
5681		46.875000
5682		52.734375
5683		42.968750
5684		48.828125
5685		41.015625
5686		44.921875
5687		37.109375
5688		41.015625
5689		33.203125
5690		39.062500
5691		29.296875
5692		37.109375
5693		27.343750
5694		33.203125
5695		23.437500
5696		29.296875
5697		21.484375
5698		25.390625
5699		17.578125
5700		23.437500
5701		13.671875
5702		19.531250
5703		9.765625
5704		17.578125
5705		7.812500
5706		11.718750
5707		3.906250
5708		9.765625
5709		0.000000
5710		5.859375
5711		-1.953125
5712		1.953125
5713		-7.812500
5714		-1.953125
5715		-9.765625
5716		-3.906250
5717		-13.671875
5718		-7.812500
5719		-17.578125
5720		-11.718750
5721		-21.484375
5722		-15.625000
5723		-23.437500
5724		-19.531250
5725		-29.296875
5726		-23.437500
5727		-31.250000
5728		-25.390625
5729		-35.156250
5730		-29.296875
5731		-39.062500
5732		-33.203125
5733		-41.015625
5734		-37.109375
5735		-44.921875
5736		-39.062500
5737		-48.828125
5738		-42.968750
5739		-52.734375
5740		-46.875000
5741		-54.687500
5742		-50.781250
5743		-58.593750
5744		-52.734375
5745		-62.500000
5746		-56.640625
5747		-66.406250
5748		-60.546875
5749		-68.359375
5750		-62.500000
5751		-72.265625
5752		-66.406250
5753		-74.218750
5754		-70.312500
5755		-78.125000
5756		-72.265625
5757		-82.031250
5758		-76.171875
5759		-83.984375
5760		-78.125000
5761		-85.937500
5762		-82.031250
5763		-89.843750
5764		-85.937500
5765		-93.750000
5766		-87.890625
5767		-95.703125
5768		-89.843750
5769		-97.656250
5770		-93.750000
5771		-101.562500
5772		-97.656250
5773		-103.515625
5774		-99.609375
5775		-107.421875
5776		-101.562500
5777		-109.375000
5778		-103.515625
5779		-111.328125
5780		-107.421875
5781		-113.281250
5782		-109.375000
5783		-117.187500
5784		-111.328125
5785		-119.140625
5786		-113.281250
5787		-121.093750
5788		-117.187500
5789		-123.046875
5790		-119.140625
5791		-125.000000
5792		-121.093750
5793		-126.953125
5794		-123.046875
5795		-128.906250
5796		-125.000000
5797		-130.859375
5798		-126.953125
5799		-132.812500
5800		-126.953125
5801		-132.812500
5802		-128.906250
5803		-134.765625
5804		-130.859375
5805		-136.718750
5806		-132.812500
5807		-138.671875
5808		-132.812500
5809		-138.671875
5810		-134.765625
5811		-138.671875
5812		-136.718750
5813		-140.625000
5814		-136.718750
5815		-142.578125
5816		-136.718750
5817		-142.578125
5818		-138.671875
5819		-142.578125
5820		-138.671875
5821		-142.578125
5822		-140.625000
5823		-144.531250
5824		-140.625000
5825		-144.531250
5826		-140.625000
5827		-144.531250
5828		-140.625000
5829		-144.531250
5830		-142.578125
5831		-146.484375
5832		-140.625000
5833		-144.531250
5834		-140.625000
5835		-144.531250
5836		-140.625000
5837		-144.531250
5838		-140.625000
5839		-144.531250
5840		-140.625000
5841		-144.531250
5842		-140.625000
5843		-144.531250
5844		-138.671875
5845		-142.578125
5846		-138.671875
5847		-140.625000
5848		-138.671875
5849		-142.578125
5850		-134.765625
5851		-140.625000
5852		-134.765625
5853		-138.671875
5854		-134.765625
5855		-138.671875
5856		-132.812500
5857		-136.718750
5858		-132.812500
5859		-134.765625
5860		-128.906250
5861		-134.765625
5862		-128.906250
5863		-130.859375
5864		-126.953125
5865		-128.906250
5866		-125.000000
5867		-128.906250
5868		-123.046875
5869		-126.953125
5870		-121.093750
5871		-125.000000
5872		-119.140625
5873		-123.046875
5874		-117.187500
5875		-119.140625
5876		-115.234375
5877		-117.187500
5878		-113.281250
5879		-115.234375
5880		-111.328125
5881		-113.281250
5882		-107.421875
5883		-111.328125
5884		-107.421875
5885		-109.375000
5886		-103.515625
5887		-105.468750
5888		-99.609375
5889		-101.562500
5890		-97.656250
5891		-101.562500
5892		-93.750000
5893		-97.656250
5894		-91.796875
5895		-95.703125
5896		-89.843750
5897		-91.796875
5898		-85.937500
5899		-87.890625
5900		-82.031250
5901		-85.937500
5902		-78.125000
5903		-83.984375
5904		-76.171875
5905		-80.078125
5906		-72.265625
5907		-76.171875
5908		-68.359375
5909		-74.218750
5910		-66.406250
5911		-70.312500
5912		-64.453125
5913		-64.453125
5914		-60.546875
5915		-62.500000
5916		-56.640625
5917		-60.546875
5918		-52.734375
5919		-56.640625
5920		-48.828125
5921		-52.734375
5922		-44.921875
5923		-50.781250
5924		-42.968750
5925		-46.875000
5926		-39.062500
5927		-41.015625
5928		-35.156250
5929		-37.109375
5930		-33.203125
5931		-35.156250
5932		-29.296875
5933		-31.250000
5934		-23.437500
5935		-29.296875
5936		-21.484375
5937		-25.390625
5938		-17.578125
5939		-21.484375
5940		-13.671875
5941		-17.578125
5942		-9.765625
5943		-13.671875
5944		-7.812500
5945		-9.765625
5946		-3.906250
5947		-5.859375
5948		-1.953125
5949		-1.953125
5950		3.906250
5951		0.000000
5952		7.812500
5953		3.906250
5954		11.718750
5955		5.859375
5956		13.671875
5957		11.718750
5958		17.578125
5959		13.671875
5960		21.484375
5961		15.625000
5962		23.437500
5963		21.484375
5964		25.390625
5965		23.437500
5966		29.296875
5967		27.343750
5968		33.203125
5969		31.250000
5970		35.156250
5971		35.156250
5972		39.062500
5973		37.109375
5974		41.015625
5975		41.015625
5976		44.921875
5977		42.968750
5978		48.828125
5979		46.875000
5980		50.781250
5981		48.828125
5982		52.734375
5983		50.781250
5984		56.640625
5985		54.687500
5986		58.593750
5987		58.593750
5988		62.500000
5989		60.546875
5990		64.453125
5991		62.500000
5992		66.406250
5993		66.406250
5994		70.312500
5995		66.406250
5996		72.265625
5997		70.312500
5998		74.218750
5999		72.265625
6000		78.125000
6001		76.171875
6002		80.078125
6003		78.125000
6004		82.031250
6005		80.078125
6006		83.984375
6007		82.031250
6008		85.937500
6009		83.984375
6010		87.890625
6011		85.937500
6012		89.843750
6013		87.890625
6014		91.796875
6015		89.843750
6016		93.750000
6017		91.796875
6018		95.703125
6019		93.750000
6020		97.656250
6021		95.703125
6022		99.609375
6023		97.656250
6024		101.562500
6025		99.609375
6026		101.562500
6027		99.609375
6028		103.515625
6029		101.562500
6030		105.468750
6031		103.515625
6032		107.421875
6033		105.468750
6034		107.421875
6035		105.468750
6036		109.375000
6037		107.421875
6038		109.375000
6039		109.375000
6040		111.328125
6041		109.375000
6042		113.281250
6043		111.328125
6044		113.281250
6045		111.328125
6046		113.281250
6047		113.281250
6048		115.234375
6049		113.281250
6050		117.187500
6051		113.281250
6052		117.187500
6053		115.234375
6054		117.187500
6055		115.234375
6056		117.187500
6057		115.234375
6058		117.187500
6059		115.234375
6060		119.140625
6061		115.234375
6062		119.140625
6063		117.187500
6064		119.140625
6065		117.187500
6066		119.140625
6067		113.281250
6068		123.046875
6069		113.281250
6070		123.046875
6071		113.281250
6072		123.046875
6073		117.187500
6074		119.140625
6075		117.187500
6076		119.140625
6077		117.187500
6078		119.140625
6079		115.234375
6080		119.140625
6081		115.234375
6082		119.140625
6083		111.328125
6084		121.093750
6085		111.328125
6086		121.093750
6087		111.328125
6088		121.093750
6089		109.375000
6090		119.140625
6091		113.281250
6092		115.234375
6093		111.328125
6094		115.234375
6095		111.328125
6096		113.281250
6097		109.375000
6098		113.281250
6099		109.375000
6100		111.328125
6101		105.468750
6102		115.234375
6103		103.515625
6104		113.281250
6105		103.515625
6106		113.281250
6107		103.515625
6108		107.421875
6109		103.515625
6110		105.468750
6111		101.562500
6112		105.468750
6113		99.609375
6114		103.515625
6115		97.656250
6116		103.515625
6117		91.796875
6118		103.515625
6119		91.796875
6120		101.562500
6121		89.843750
6122		99.609375
6123		89.843750
6124		97.656250
6125		89.843750
6126		91.796875
6127		87.890625
6128		91.796875
6129		85.937500
6130		89.843750
6131		82.031250
6132		85.937500
6133		80.078125
6134		83.984375
6135		76.171875
6136		85.937500
6137		72.265625
6138		83.984375
6139		72.265625
6140		82.031250
6141		70.312500
6142		74.218750
6143		68.359375
6144		72.265625
6145		66.406250
6146		70.312500
6147		62.500000
6148		68.359375
6149		60.546875
6150		64.453125
6151		54.687500
6152		64.453125
6153		50.781250
6154		62.500000
6155		48.828125
6156		58.593750
6157		48.828125
6158		54.687500
6159		46.875000
6160		50.781250
6161		42.968750
6162		48.828125
6163		41.015625
6164		44.921875
6165		37.109375
6166		41.015625
6167		31.250000
6168		41.015625
6169		27.343750
6170		39.062500
6171		23.437500
6172		35.156250
6173		23.437500
6174		33.203125
6175		21.484375
6176		25.390625
6177		17.578125
6178		21.484375
6179		13.671875
6180		19.531250
6181		11.718750
6182		15.625000
6183		7.812500
6184		11.718750
6185		1.953125
6186		11.718750
6187		-1.953125
6188		7.812500
6189		-5.859375
6190		3.906250
6191		-5.859375
6192		-1.953125
6193		-9.765625
6194		-5.859375
6195		-13.671875
6196		-9.765625
6197		-17.578125
6198		-11.718750
6199		-21.484375
6200		-15.625000
6201		-27.343750
6202		-17.578125
6203		-31.250000
6204		-17.578125
6205		-35.156250
6206		-23.437500
6207		-35.156250
6208		-27.343750
6209		-37.109375
6210		-33.203125
6211		-41.015625
6212		-37.109375
6213		-44.921875
6214		-41.015625
6215		-48.828125
6216		-42.968750
6217		-52.734375
6218		-46.875000
6219		-56.640625
6220		-46.875000
6221		-60.546875
6222		-50.781250
6223		-62.500000
6224		-52.734375
6225		-66.406250
6226		-60.546875
6227		-68.359375
6228		-64.453125
6229		-72.265625
6230		-66.406250
6231		-74.218750
6232		-70.312500
6233		-78.125000
6234		-74.218750
6235		-83.984375
6236		-74.218750
6237		-87.890625
6238		-76.171875
6239		-89.843750
6240		-80.078125
6241		-89.843750
6242		-85.937500
6243		-91.796875
6244		-87.890625
6245		-95.703125
6246		-91.796875
6247		-97.656250
6248		-93.750000
6249		-101.562500
6250		-95.703125
6251		-103.515625
6252		-99.609375
6253		-107.421875
6254		-101.562500
6255		-111.328125
6256		-101.562500
6257		-111.328125
6258		-107.421875
6259		-113.281250
6260		-109.375000
6261		-115.234375
6262		-111.328125
6263		-117.187500
6264		-113.281250
6265		-119.140625
6266		-115.234375
6267		-121.093750
6268		-117.187500
6269		-123.046875
6270		-119.140625
6271		-128.906250
6272		-119.140625
6273		-128.906250
6274		-119.140625
6275		-128.906250
6276		-125.000000
6277		-130.859375
6278		-126.953125
6279		-132.812500
6280		-128.906250
6281		-132.812500
6282		-130.859375
6283		-134.765625
6284		-130.859375
6285		-136.718750
6286		-132.812500
6287		-138.671875
6288		-132.812500
6289		-140.625000
6290		-132.812500
6291		-138.671875
6292		-136.718750
6293		-140.625000
6294		-136.718750
6295		-140.625000
6296		-136.718750
6297		-140.625000
6298		-138.671875
6299		-140.625000
6300		-138.671875
6301		-142.578125
6302		-138.671875
6303		-142.578125
6304		-140.625000
6305		-142.578125
6306		-140.625000
6307		-142.578125
6308		-140.625000
6309		-142.578125
6310		-140.625000
6311		-142.578125
6312		-138.671875
6313		-142.578125
6314		-140.625000
6315		-142.578125
6316		-138.671875
6317		-140.625000
6318		-138.671875
6319		-140.625000
6320		-136.718750
6321		-140.625000
6322		-138.671875
6323		-140.625000
6324		-136.718750
6325		-138.671875
6326		-136.718750
6327		-138.671875
6328		-134.765625
6329		-136.718750
6330		-134.765625
6331		-136.718750
6332		-132.812500
6333		-134.765625
6334		-130.859375
6335		-132.812500
6336		-128.906250
6337		-132.812500
6338		-128.906250
6339		-130.859375
6340		-126.953125
6341		-128.906250
6342		-125.000000
6343		-126.953125
6344		-123.046875
6345		-125.000000
6346		-121.093750
6347		-123.046875
6348		-119.140625
6349		-121.093750
6350		-117.187500
6351		-119.140625
6352		-115.234375
6353		-117.187500
6354		-113.281250
6355		-115.234375
6356		-111.328125
6357		-113.281250
6358		-109.375000
6359		-109.375000
6360		-105.468750
6361		-107.421875
6362		-103.515625
6363		-105.468750
6364		-101.562500
6365		-103.515625
6366		-97.656250
6367		-99.609375
6368		-95.703125
6369		-97.656250
6370		-91.796875
6371		-93.750000
6372		-89.843750
6373		-91.796875
6374		-85.937500
6375		-87.890625
6376		-82.031250
6377		-85.937500
6378		-80.078125
6379		-82.031250
6380		-78.125000
6381		-78.125000
6382		-74.218750
6383		-76.171875
6384		-72.265625
6385		-72.265625
6386		-68.359375
6387		-70.312500
6388		-64.453125
6389		-66.406250
6390		-60.546875
6391		-62.500000
6392		-58.593750
6393		-58.593750
6394		-54.687500
6395		-56.640625
6396		-50.781250
6397		-52.734375
6398		-46.875000
6399		-48.828125
6400		-42.968750
6401		-44.921875
6402		-41.015625
6403		-42.968750
6404		-35.156250
6405		-39.062500
6406		-33.203125
6407		-35.156250
6408		-29.296875
6409		-31.250000
6410		-25.390625
6411		-29.296875
6412		-23.437500
6413		-25.390625
6414		-19.531250
6415		-21.484375
6416		-15.625000
6417		-17.578125
6418		-11.718750
6419		-13.671875
6420		-7.812500
6421		-11.718750
6422		-3.906250
6423		-7.812500
6424		-1.953125
6425		-3.906250
6426		1.953125
6427		0.000000
6428		5.859375
6429		1.953125
6430		9.765625
6431		7.812500
6432		11.718750
6433		9.765625
6434		15.625000
6435		13.671875
6436		19.531250
6437		17.578125
6438		21.484375
6439		19.531250
6440		25.390625
6441		23.437500
6442		29.296875
6443		27.343750
6444		33.203125
6445		29.296875
6446		35.156250
6447		33.203125
6448		37.109375
6449		37.109375
6450		41.015625
6451		39.062500
6452		44.921875
6453		42.968750
6454		50.781250
6455		44.921875
6456		50.781250
6457		48.828125
6458		52.734375
6459		50.781250
6460		56.640625
6461		54.687500
6462		58.593750
6463		56.640625
6464		62.500000
6465		60.546875
6466		64.453125
6467		62.500000
6468		66.406250
6469		66.406250
6470		70.312500
6471		64.453125
6472		72.265625
6473		70.312500
6474		74.218750
6475		72.265625
6476		76.171875
6477		76.171875
6478		80.078125
6479		76.171875
6480		82.031250
6481		80.078125
6482		83.984375
6483		82.031250
6484		85.937500
6485		83.984375
6486		87.890625
6487		83.984375
6488		91.796875
6489		87.890625
6490		91.796875
6491		89.843750
6492		93.750000
6493		91.796875
6494		97.656250
6495		93.750000
6496		99.609375
6497		95.703125
6498		99.609375
6499		97.656250
6500		101.562500
6501		99.609375
6502		103.515625
6503		99.609375
6504		105.468750
6505		101.562500
6506		107.421875
6507		103.515625
6508		107.421875
6509		105.468750
6510		109.375000
6511		105.468750
6512		111.328125
6513		107.421875
6514		111.328125
6515		109.375000
6516		113.281250
6517		109.375000
6518		113.281250
6519		111.328125
6520		113.281250
6521		111.328125
6522		115.234375
6523		111.328125
6524		117.187500
6525		113.281250
6526		117.187500
6527		113.281250
6528		119.140625
6529		113.281250
6530		119.140625
6531		115.234375
6532		119.140625
6533		117.187500
6534		119.140625
6535		117.187500
6536		119.140625
6537		117.187500
6538		121.093750
6539		117.187500
6540		121.093750
6541		117.187500
6542		121.093750
6543		119.140625
6544		121.093750
6545		117.187500
6546		121.093750
6547		117.187500
6548		121.093750
6549		119.140625
6550		121.093750
6551		117.187500
6552		121.093750
6553		117.187500
6554		119.140625
6555		117.187500
6556		121.093750
6557		117.187500
6558		119.140625
6559		117.187500
6560		119.140625
6561		115.234375
6562		119.140625
6563		115.234375
6564		119.140625
6565		115.234375
6566		117.187500
6567		113.281250
6568		117.187500
6569		113.281250
6570		117.187500
6571		113.281250
6572		115.234375
6573		111.328125
6574		115.234375
6575		111.328125
6576		113.281250
6577		109.375000
6578		113.281250
6579		109.375000
6580		111.328125
6581		107.421875
6582		111.328125
6583		105.468750
6584		109.375000
6585		105.468750
6586		107.421875
6587		103.515625
6588		107.421875
6589		101.562500
6590		105.468750
6591		99.609375
6592		103.515625
6593		99.609375
6594		101.562500
6595		97.656250
6596		99.609375
6597		95.703125
6598		99.609375
6599		93.750000
6600		97.656250
6601		91.796875
6602		95.703125
6603		89.843750
6604		93.750000
6605		87.890625
6606		91.796875
6607		85.937500
6608		89.843750
6609		83.984375
6610		87.890625
6611		82.031250
6612		83.984375
6613		78.125000
6614		82.031250
6615		76.171875
6616		80.078125
6617		74.218750
6618		78.125000
6619		72.265625
6620		76.171875
6621		68.359375
6622		72.265625
6623		66.406250
6624		70.312500
6625		64.453125
6626		68.359375
6627		60.546875
6628		64.453125
6629		58.593750
6630		62.500000
6631		54.687500
6632		60.546875
6633		52.734375
6634		56.640625
6635		48.828125
6636		54.687500
6637		46.875000
6638		50.781250
6639		42.968750
6640		48.828125
6641		41.015625
6642		44.921875
6643		37.109375
6644		41.015625
6645		33.203125
6646		39.062500
6647		31.250000
6648		35.156250
6649		27.343750
6650		31.250000
6651		23.437500
6652		29.296875
6653		21.484375
6654		25.390625
6655		17.578125
6656		23.437500
6657		13.671875
6658		19.531250
6659		11.718750
6660		15.625000
6661		7.812500
6662		11.718750
6663		3.906250
6664		7.812500
6665		0.000000
6666		5.859375
6667		-3.906250
6668		1.953125
6669		-5.859375
6670		-1.953125
6671		-11.718750
6672		-3.906250
6673		-13.671875
6674		-5.859375
6675		-17.578125
6676		-11.718750
6677		-19.531250
6678		-15.625000
6679		-23.437500
6680		-19.531250
6681		-27.343750
6682		-21.484375
6683		-31.250000
6684		-25.390625
6685		-35.156250
6686		-29.296875
6687		-37.109375
6688		-33.203125
6689		-41.015625
6690		-35.156250
6691		-44.921875
6692		-39.062500
6693		-48.828125
6694		-42.968750
6695		-52.734375
6696		-46.875000
6697		-54.687500
6698		-50.781250
6699		-58.593750
6700		-52.734375
6701		-60.546875
6702		-56.640625
6703		-64.453125
6704		-60.546875
6705		-70.312500
6706		-62.500000
6707		-72.265625
6708		-64.453125
6709		-74.218750
6710		-70.312500
6711		-78.125000
6712		-72.265625
6713		-80.078125
6714		-76.171875
6715		-83.984375
6716		-78.125000
6717		-85.937500
6718		-82.031250
6719		-89.843750
6720		-85.937500
6721		-91.796875
6722		-87.890625
6723		-95.703125
6724		-87.890625
6725		-97.656250
6726		-91.796875
6727		-99.609375
6728		-95.703125
6729		-103.515625
6730		-99.609375
6731		-105.468750
6732		-101.562500
6733		-107.421875
6734		-103.515625
6735		-109.375000
6736		-107.421875
6737		-113.281250
6738		-109.375000
6739		-117.187500
6740		-109.375000
6741		-119.140625
6742		-111.328125
6743		-119.140625
6744		-115.234375
6745		-121.093750
6746		-117.187500
6747		-123.046875
6748		-119.140625
6749		-125.000000
6750		-121.093750
6751		-126.953125
6752		-123.046875
6753		-128.906250
6754		-125.000000
6755		-130.859375
6756		-126.953125
6757		-132.812500
6758		-126.953125
6759		-132.812500
6760		-126.953125
6761		-132.812500
6762		-130.859375
6763		-134.765625
6764		-130.859375
6765		-136.718750
6766		-132.812500
6767		-136.718750
6768		-134.765625
6769		-138.671875
6770		-134.765625
6771		-138.671875
6772		-136.718750
6773		-140.625000
6774		-134.765625
6775		-140.625000
6776		-134.765625
6777		-140.625000
6778		-138.671875
6779		-140.625000
6780		-138.671875
6781		-140.625000
6782		-138.671875
6783		-140.625000
6784		-138.671875
6785		-140.625000
6786		-138.671875
6787		-140.625000
6788		-138.671875
6789		-142.578125
6790		-136.718750
6791		-142.578125
6792		-136.718750
6793		-140.625000
6794		-136.718750
6795		-140.625000
6796		-136.718750
6797		-138.671875
6798		-136.718750
6799		-138.671875
6800		-136.718750
6801		-138.671875
6802		-134.765625
6803		-136.718750
6804		-134.765625
6805		-136.718750
6806		-132.812500
6807		-138.671875
6808		-130.859375
6809		-136.718750
6810		-130.859375
6811		-132.812500
6812		-128.906250
6813		-130.859375
6814		-126.953125
6815		-128.906250
6816		-126.953125
6817		-128.906250
6818		-125.000000
6819		-126.953125
6820		-123.046875
6821		-125.000000
6822		-121.093750
6823		-125.000000
6824		-117.187500
6825		-123.046875
6826		-115.234375
6827		-119.140625
6828		-115.234375
6829		-117.187500
6830		-113.281250
6831		-115.234375
6832		-111.328125
6833		-113.281250
6834		-109.375000
6835		-111.328125
6836		-105.468750
6837		-107.421875
6838		-103.515625
6839		-105.468750
6840		-99.609375
6841		-105.468750
6842		-95.703125
6843		-101.562500
6844		-95.703125
6845		-97.656250
6846		-93.750000
6847		-93.750000
6848		-89.843750
6849		-91.796875
6850		-87.890625
6851		-87.890625
6852		-83.984375
6853		-85.937500
6854		-82.031250
6855		-82.031250
6856		-78.125000
6857		-80.078125
6858		-74.218750
6859		-78.125000
6860		-72.265625
6861		-72.265625
6862		-68.359375
6863		-70.312500
6864		-66.406250
6865		-66.406250
6866		-62.500000
6867		-62.500000
6868		-58.593750
6869		-60.546875
6870		-54.687500
6871		-56.640625
6872		-52.734375
6873		-52.734375
6874		-46.875000
6875		-48.828125
6876		-44.921875
6877		-46.875000
6878		-41.015625
6879		-42.968750
6880		-37.109375
6881		-39.062500
6882		-35.156250
6883		-35.156250
6884		-31.250000
6885		-33.203125
6886		-27.343750
6887		-29.296875
6888		-23.437500
6889		-25.390625
6890		-19.531250
6891		-23.437500
6892		-17.578125
6893		-17.578125
6894		-13.671875
6895		-15.625000
6896		-9.765625
6897		-11.718750
6898		-5.859375
6899		-7.812500
6900		-1.953125
6901		-3.906250
6902		0.000000
6903		0.000000
6904		3.906250
6905		1.953125
6906		7.812500
6907		5.859375
6908		11.718750
6909		9.765625
6910		13.671875
6911		13.671875
6912		17.578125
6913		15.625000
6914		21.484375
6915		19.531250
6916		25.390625
6917		23.437500
6918		27.343750
6919		27.343750
6920		31.250000
6921		29.296875
6922		35.156250
6923		33.203125
6924		37.109375
6925		35.156250
6926		41.015625
6927		39.062500
6928		42.968750
6929		41.015625
6930		46.875000
6931		44.921875
6932		48.828125
6933		46.875000
6934		52.734375
6935		50.781250
6936		54.687500
6937		52.734375
6938		58.593750
6939		56.640625
6940		60.546875
6941		60.546875
6942		64.453125
6943		62.500000
6944		66.406250
6945		64.453125
6946		68.359375
6947		66.406250
6948		72.265625
6949		70.312500
6950		74.218750
6951		72.265625
6952		76.171875
6953		74.218750
6954		78.125000
6955		76.171875
6956		80.078125
6957		80.078125
6958		83.984375
6959		82.031250
6960		85.937500
6961		83.984375
6962		87.890625
6963		85.937500
6964		89.843750
6965		87.890625
6966		91.796875
6967		89.843750
6968		93.750000
6969		91.796875
6970		95.703125
6971		93.750000
6972		97.656250
6973		95.703125
6974		99.609375
6975		97.656250
6976		101.562500
6977		99.609375
6978		101.562500
6979		101.562500
6980		103.515625
6981		101.562500
6982		105.468750
6983		103.515625
6984		107.421875
6985		105.468750
6986		107.421875
6987		105.468750
6988		109.375000
6989		107.421875
6990		111.328125
6991		109.375000
6992		111.328125
6993		109.375000
6994		113.281250
6995		111.328125
6996		113.281250
6997		111.328125
6998		115.234375
6999		113.281250
7000		115.234375
7001		113.281250
7002		117.187500
7003		115.234375
7004		117.187500
7005		115.234375
7006		117.187500
7007		115.234375
7008		119.140625
7009		117.187500
7010		119.140625
7011		117.187500
7012		119.140625
7013		117.187500
7014		119.140625
7015		117.187500
7016		119.140625
7017		117.187500
7018		121.093750
7019		117.187500
7020		121.093750
7021		119.140625
7022		121.093750
7023		119.140625
7024		121.093750
7025		119.140625
7026		121.093750
7027		119.140625
7028		121.093750
7029		119.140625
7030		121.093750
7031		117.187500
7032		121.093750
7033		117.187500
7034		121.093750
7035		117.187500
7036		119.140625
7037		117.187500
7038		119.140625
7039		117.187500
7040		119.140625
7041		115.234375
7042		119.140625
7043		115.234375
7044		117.187500
7045		115.234375
7046		117.187500
7047		113.281250
7048		117.187500
7049		113.281250
7050		115.234375
7051		111.328125
7052		115.234375
7053		111.328125
7054		113.281250
7055		109.375000
7056		113.281250
7057		109.375000
7058		111.328125
7059		107.421875
7060		109.375000
7061		105.468750
7062		109.375000
7063		105.468750
7064		107.421875
7065		103.515625
7066		105.468750
7067		101.562500
7068		105.468750
7069		99.609375
7070		103.515625
7071		97.656250
7072		101.562500
7073		97.656250
7074		99.609375
7075		95.703125
7076		99.609375
7077		93.750000
7078		95.703125
7079		91.796875
7080		93.750000
7081		89.843750
7082		93.750000
7083		87.890625
7084		89.843750
7085		85.937500
7086		87.890625
7087		82.031250
7088		85.937500
7089		80.078125
7090		83.984375
7091		78.125000
7092		82.031250
7093		76.171875
7094		80.078125
7095		74.218750
7096		78.125000
7097		70.312500
7098		74.218750
7099		68.359375
7100		72.265625
7101		66.406250
7102		70.312500
7103		62.500000
7104		66.406250
7105		60.546875
7106		64.453125
7107		56.640625
7108		62.500000
7109		54.687500
7110		58.593750
7111		50.781250
7112		56.640625
7113		48.828125
7114		52.734375
7115		44.921875
7116		50.781250
7117		42.968750
7118		46.875000
7119		39.062500
7120		44.921875
7121		35.156250
7122		41.015625
7123		33.203125
7124		37.109375
7125		29.296875
7126		35.156250
7127		27.343750
7128		31.250000
7129		23.437500
7130		27.343750
7131		19.531250
7132		25.390625
7133		15.625000
7134		21.484375
7135		13.671875
7136		17.578125
7137		9.765625
7138		13.671875
7139		5.859375
7140		11.718750
7141		1.953125
7142		7.812500
7143		0.000000
7144		3.906250
7145		-3.906250
7146		1.953125
7147		-7.812500
7148		-1.953125
7149		-11.718750
7150		-5.859375
7151		-13.671875
7152		-9.765625
7153		-17.578125
7154		-13.671875
7155		-21.484375
7156		-15.625000
7157		-25.390625
7158		-19.531250
7159		-29.296875
7160		-23.437500
7161		-31.250000
7162		-27.343750
7163		-35.156250
7164		-29.296875
7165		-39.062500
7166		-33.203125
7167		-42.968750
7168		-37.109375
7169		-44.921875
7170		-41.015625
7171		-50.781250
7172		-44.921875
7173		-52.734375
7174		-48.828125
7175		-56.640625
7176		-50.781250
7177		-58.593750
7178		-54.687500
7179		-62.500000
7180		-58.593750
7181		-66.406250
7182		-60.546875
7183		-68.359375
7184		-64.453125
7185		-72.265625
7186		-68.359375
7187		-76.171875
7188		-70.312500
7189		-78.125000
7190		-74.218750
7191		-82.031250
7192		-76.171875
7193		-83.984375
7194		-80.078125
7195		-87.890625
7196		-83.984375
7197		-89.843750
7198		-85.937500
7199		-93.750000
7200		-89.843750
7201		-95.703125
7202		-91.796875
7203		-99.609375
7204		-95.703125
7205		-101.562500
7206		-97.656250
7207		-103.515625
7208		-99.609375
7209		-107.421875
7210		-101.562500
7211		-109.375000
7212		-105.468750
7213		-111.328125
7214		-107.421875
7215		-113.281250
7216		-109.375000
7217		-115.234375
7218		-111.328125
7219		-117.187500
7220		-113.281250
7221		-119.140625
7222		-117.187500
7223		-123.046875
7224		-119.140625
7225		-123.046875
7226		-121.093750
7227		-126.953125
7228		-123.046875
7229		-126.953125
7230		-123.046875
7231		-128.906250
7232		-125.000000
7233		-130.859375
7234		-126.953125
7235		-132.812500
7236		-128.906250
7237		-132.812500
7238		-130.859375
7239		-134.765625
7240		-130.859375
7241		-134.765625
7242		-132.812500
7243		-136.718750
7244		-134.765625
7245		-136.718750
7246		-134.765625
7247		-138.671875
7248		-136.718750
7249		-138.671875
7250		-136.718750
7251		-140.625000
7252		-136.718750
7253		-140.625000
7254		-138.671875
7255		-140.625000
7256		-138.671875
7257		-140.625000
7258		-138.671875
7259		-140.625000
7260		-138.671875
7261		-140.625000
7262		-138.671875
7263		-140.625000
7264		-138.671875
7265		-140.625000
7266		-138.671875
7267		-140.625000
7268		-138.671875
7269		-140.625000
7270		-138.671875
7271		-140.625000
7272		-138.671875
7273		-140.625000
7274		-138.671875
7275		-140.625000
7276		-136.718750
7277		-138.671875
7278		-136.718750
7279		-138.671875
7280		-134.765625
7281		-136.718750
7282		-134.765625
7283		-136.718750
7284		-134.765625
7285		-134.765625
7286		-132.812500
7287		-134.765625
7288		-130.859375
7289		-132.812500
7290		-130.859375
7291		-130.859375
7292		-128.906250
7293		-130.859375
7294		-126.953125
7295		-128.906250
7296		-125.000000
7297		-126.953125
7298		-123.046875
7299		-125.000000
7300		-121.093750
7301		-123.046875
7302		-119.140625
7303		-121.093750
7304		-117.187500
7305		-119.140625
7306		-115.234375
7307		-117.187500
7308		-113.281250
7309		-115.234375
7310		-111.328125
7311		-113.281250
7312		-109.375000
7313		-111.328125
7314		-105.468750
7315		-107.421875
7316		-103.515625
7317		-105.468750
7318		-101.562500
7319		-103.515625
7320		-97.656250
7321		-99.609375
7322		-95.703125
7323		-97.656250
7324		-93.750000
7325		-93.750000
7326		-89.843750
7327		-91.796875
7328		-85.937500
7329		-87.890625
7330		-83.984375
7331		-85.937500
7332		-80.078125
7333		-82.031250
7334		-78.125000
7335		-80.078125
7336		-74.218750
7337		-76.171875
7338		-72.265625
7339		-72.265625
7340		-68.359375
7341		-70.312500
7342		-64.453125
7343		-66.406250
7344		-62.500000
7345		-62.500000
7346		-58.593750
7347		-60.546875
7348		-54.687500
7349		-56.640625
7350		-50.781250
7351		-52.734375
7352		-48.828125
7353		-48.828125
7354		-44.921875
7355		-46.875000
7356		-41.015625
7357		-42.968750
7358		-37.109375
7359		-39.062500
7360		-33.203125
7361		-35.156250
7362		-31.250000
7363		-31.250000
7364		-27.343750
7365		-27.343750
7366		-23.437500
7367		-25.390625
7368		-19.531250
7369		-21.484375
7370		-15.625000
7371		-17.578125
7372		-13.671875
7373		-13.671875
7374		-7.812500
7375		-11.718750
7376		-5.859375
7377		-7.812500
7378		-1.953125
7379		-3.906250
7380		1.953125
7381		0.000000
7382		5.859375
7383		3.906250
7384		7.812500
7385		5.859375
7386		11.718750
7387		9.765625
7388		15.625000
7389		13.671875
7390		17.578125
7391		17.578125
7392		21.484375
7393		19.531250
7394		25.390625
7395		23.437500
7396		27.343750
7397		25.390625
7398		31.250000
7399		29.296875
7400		35.156250
7401		33.203125
7402		37.109375
7403		37.109375
7404		41.015625
7405		39.062500
7406		42.968750
7407		42.968750
7408		46.875000
7409		44.921875
7410		48.828125
7411		48.828125
7412		52.734375
7413		50.781250
7414		54.687500
7415		54.687500
7416		58.593750
7417		56.640625
7418		60.546875
7419		58.593750
7420		64.453125
7421		62.500000
7422		66.406250
7423		64.453125
7424		68.359375
7425		68.359375
7426		72.265625
7427		70.312500
7428		74.218750
7429		72.265625
7430		76.171875
7431		74.218750
7432		78.125000
7433		76.171875
7434		80.078125
7435		80.078125
7436		83.984375
7437		82.031250
7438		85.937500
7439		83.984375
7440		87.890625
7441		85.937500
7442		89.843750
7443		87.890625
7444		91.796875
7445		89.843750
7446		93.750000
7447		91.796875
7448		95.703125
7449		93.750000
7450		97.656250
7451		95.703125
7452		99.609375
7453		97.656250
7454		99.609375
7455		97.656250
7456		101.562500
7457		99.609375
7458		103.515625
7459		101.562500
7460		105.468750
7461		103.515625
7462		107.421875
7463		105.468750
7464		107.421875
7465		105.468750
7466		109.375000
7467		107.421875
7468		109.375000
7469		107.421875
7470		111.328125
7471		109.375000
7472		113.281250
7473		111.328125
7474		113.281250
7475		111.328125
7476		115.234375
7477		113.281250
7478		115.234375
7479		113.281250
7480		115.234375
7481		113.281250
7482		117.187500
7483		115.234375
7484		117.187500
7485		115.234375
7486		117.187500
7487		115.234375
7488		119.140625
7489		117.187500
7490		119.140625
7491		117.187500
7492		119.140625
7493		117.187500
7494		119.140625
7495		117.187500
7496		119.140625
7497		117.187500
7498		121.093750
7499		117.187500
7500		121.093750
7501		117.187500
7502		121.093750
7503		117.187500
7504		121.093750
7505		117.187500
7506		119.140625
7507		117.187500
7508		119.140625
7509		117.187500
7510		119.140625
7511		117.187500
7512		119.140625
7513		117.187500
7514		119.140625
7515		115.234375
7516		119.140625
7517		115.234375
7518		119.140625
7519		115.234375
7520		117.187500
7521		113.281250
7522		117.187500
7523		113.281250
7524		117.187500
7525		113.281250
7526		115.234375
7527		111.328125
7528		115.234375
7529		111.328125
7530		113.281250
7531		109.375000
7532		113.281250
7533		109.375000
7534		111.328125
7535		107.421875
7536		109.375000
7537		105.468750
7538		109.375000
7539		105.468750
7540		107.421875
7541		103.515625
7542		107.421875
7543		101.562500
7544		105.468750
7545		99.609375
7546		103.515625
7547		99.609375
7548		101.562500
7549		97.656250
7550		101.562500
7551		95.703125
7552		99.609375
7553		93.750000
7554		97.656250
7555		91.796875
7556		95.703125
7557		89.843750
7558		93.750000
7559		87.890625
7560		91.796875
7561		85.937500
7562		89.843750
7563		83.984375
7564		87.890625
7565		82.031250
7566		83.984375
7567		78.125000
7568		82.031250
7569		76.171875
7570		80.078125
7571		74.218750
7572		78.125000
7573		70.312500
7574		76.171875
7575		68.359375
7576		72.265625
7577		66.406250
7578		70.312500
7579		64.453125
7580		68.359375
7581		60.546875
7582		64.453125
7583		58.593750
7584		62.500000
7585		54.687500
7586		58.593750
7587		52.734375
7588		56.640625
7589		48.828125
7590		54.687500
7591		46.875000
7592		50.781250
7593		42.968750
7594		46.875000
7595		39.062500
7596		44.921875
7597		37.109375
7598		42.968750
7599		33.203125
7600		39.062500
7601		31.250000
7602		35.156250
7603		27.343750
7604		31.250000
7605		23.437500
7606		29.296875
7607		21.484375
7608		25.390625
7609		17.578125
7610		23.437500
7611		13.671875
7612		19.531250
7613		9.765625
7614		15.625000
7615		7.812500
7616		11.718750
7617		3.906250
7618		9.765625
7619		0.000000
7620		5.859375
7621		-3.906250
7622		1.953125
7623		-5.859375
7624		-1.953125
7625		-9.765625
7626		-3.906250
7627		-13.671875
7628		-7.812500
7629		-17.578125
7630		-11.718750
7631		-19.531250
7632		-15.625000
7633		-23.437500
7634		-19.531250
7635		-27.343750
7636		-21.484375
7637		-31.250000
7638		-25.390625
7639		-35.156250
7640		-29.296875
7641		-37.109375
7642		-33.203125
7643		-41.015625
7644		-37.109375
7645		-44.921875
7646		-39.062500
7647		-48.828125
7648		-42.968750
7649		-50.781250
7650		-46.875000
7651		-54.687500
7652		-50.781250
7653		-58.593750
7654		-52.734375
7655		-62.500000
7656		-56.640625
7657		-64.453125
7658		-60.546875
7659		-68.359375
7660		-64.453125
7661		-70.312500
7662		-66.406250
7663		-74.218750
7664		-70.312500
7665		-78.125000
7666		-74.218750
7667		-80.078125
7668		-76.171875
7669		-83.984375
7670		-80.078125
7671		-85.937500
7672		-82.031250
7673		-89.843750
7674		-85.937500
7675		-91.796875
7676		-87.890625
7677		-95.703125
7678		-91.796875
7679		-97.656250
7680		-93.750000
7681		-101.562500
7682		-95.703125
7683		-103.515625
7684		-99.609375
7685		-105.468750
7686		-101.562500
7687		-109.375000
7688		-103.515625
7689		-111.328125
7690		-107.421875
7691		-113.281250
7692		-109.375000
7693		-115.234375
7694		-111.328125
7695		-117.187500
7696		-113.281250
7697		-119.140625
7698		-115.234375
7699		-121.093750
7700		-119.140625
7701		-123.046875
7702		-121.093750
7703		-126.953125
7704		-123.046875
7705		-126.953125
7706		-125.000000
7707		-128.906250
7708		-125.000000
7709		-130.859375
7710		-126.953125
7711		-132.812500
7712		-128.906250
7713		-134.765625
7714		-130.859375
7715		-134.765625
7716		-130.859375
7717		-136.718750
7718		-132.812500
7719		-138.671875
7720		-132.812500
7721		-138.671875
7722		-134.765625
7723		-142.578125
7724		-134.765625
7725		-140.625000
7726		-136.718750
7727		-140.625000
7728		-138.671875
7729		-140.625000
7730		-138.671875
7731		-142.578125
7732		-138.671875
7733		-142.578125
7734		-140.625000
7735		-144.531250
7736		-136.718750
7737		-142.578125
7738		-140.625000
7739		-146.484375
7740		-138.671875
7741		-142.578125
7742		-140.625000
7743		-146.484375
7744		-136.718750
7745		-142.578125
7746		-140.625000
7747		-142.578125
7748		-140.625000
7749		-142.578125
7750		-138.671875
7751		-144.531250
7752		-136.718750
7753		-142.578125
7754		-136.718750
7755		-140.625000
7756		-136.718750
7757		-140.625000
7758		-134.765625
7759		-140.625000
7760		-132.812500
7761		-136.718750
7762		-134.765625
7763		-136.718750
7764		-132.812500
7765		-136.718750
7766		-130.859375
7767		-136.718750
7768		-128.906250
7769		-134.765625
7770		-128.906250
7771		-130.859375
7772		-126.953125
7773		-130.859375
7774		-125.000000
7775		-126.953125
7776		-125.000000
7777		-126.953125
7778		-121.093750
7779		-125.000000
7780		-121.093750
7781		-123.046875
7782		-117.187500
7783		-121.093750
7784		-113.281250
7785		-119.140625
7786		-113.281250
7787		-115.234375
7788		-109.375000
7789		-113.281250
7790		-107.421875
7791		-111.328125
7792		-107.421875
7793		-109.375000
7794		-101.562500
7795		-105.468750
7796		-101.562500
7797		-103.515625
7798		-99.609375
7799		-101.562500
7800		-93.750000
7801		-99.609375
7802		-91.796875
7803		-97.656250
7804		-89.843750
7805		-93.750000
7806		-87.890625
7807		-91.796875
7808		-80.078125
7809		-85.937500
7810		-82.031250
7811		-85.937500
7812		-76.171875
7813		-80.078125
7814		-74.218750
7815		-76.171875
7816		-70.312500
7817		-76.171875
7818		-68.359375
7819		-72.265625
7820		-64.453125
7821		-66.406250
7822		-62.500000
7823		-62.500000
7824		-54.687500
7825		-62.500000
7826		-54.687500
7827		-58.593750
7828		-48.828125
7829		-52.734375
7830		-48.828125
7831		-48.828125
7832		-44.921875
7833		-48.828125
7834		-39.062500
7835		-44.921875
7836		-35.156250
7837		-41.015625
7838		-33.203125
7839		-35.156250
7840		-29.296875
7841		-33.203125
7842		-25.390625
7843		-29.296875
7844		-19.531250
7845		-25.390625
7846		-19.531250
7847		-21.484375
7848		-15.625000
7849		-19.531250
7850		-11.718750
7851		-15.625000
7852		-7.812500
7853		-11.718750
7854		-5.859375
7855		-7.812500
7856		-1.953125
7857		-5.859375
7858		3.906250
7859		-3.906250
7860		5.859375
7861		0.000000
7862		9.765625
7863		5.859375
7864		11.718750
7865		9.765625
7866		17.578125
7867		11.718750
7868		21.484375
7869		13.671875
7870		23.437500
7871		19.531250
7872		25.390625
7873		23.437500
7874		31.250000
7875		23.437500
7876		35.156250
7877		27.343750
7878		37.109375
7879		33.203125
7880		37.109375
7881		35.156250
7882		41.015625
7883		39.062500
7884		44.921875
7885		39.062500
7886		48.828125
7887		42.968750
7888		50.781250
7889		48.828125
7890		52.734375
7891		48.828125
7892		58.593750
7893		52.734375
7894		58.593750
7895		52.734375
7896		62.500000
7897		58.593750
7898		64.453125
7899		62.500000
7900		68.359375
7901		62.500000
7902		72.265625
7903		66.406250
7904		72.265625
7905		70.312500
7906		74.218750
7907		72.265625
7908		80.078125
7909		72.265625
7910		80.078125
7911		76.171875
7912		83.984375
7913		80.078125
7914		82.031250
7915		82.031250
7916		85.937500
7917		82.031250
7918		89.843750
7919		82.031250
7920		91.796875
7921		87.890625
7922		91.796875
7923		89.843750
7924		95.703125
7925		87.890625
7926		97.656250
7927		93.750000
7928		97.656250
7929		95.703125
7930		97.656250
7931		97.656250
7932		99.609375
7933		97.656250
7934		103.515625
7935		97.656250
7936		105.468750
7937		99.609375
7938		105.468750
7939		103.515625
7940		105.468750
7941		101.562500
7942		111.328125
7943		101.562500
7944		111.328125
7945		103.515625
7946		111.328125
7947		107.421875
7948		111.328125
7949		109.375000
7950		113.281250
7951		107.421875
7952		117.187500
7953		107.421875
7954		117.187500
7955		109.375000
7956		115.234375
7957		113.281250
7958		117.187500
7959		111.328125
7960		119.140625
7961		111.328125
7962		121.093750
7963		115.234375
7964		117.187500
7965		115.234375
7966		117.187500
7967		113.281250
7968		121.093750
7969		113.281250
7970		121.093750
7971		115.234375
7972		121.093750
7973		117.187500
7974		119.140625
7975		113.281250
7976		123.046875
7977		117.187500
7978		121.093750
7979		115.234375
7980		123.046875
7981		117.187500
7982		119.140625
7983		115.234375
7984		119.140625
7985		113.281250
7986		123.046875
7987		115.234375
7988		119.140625
7989		115.234375
7990		119.140625
7991		113.281250
7992		119.140625
7993		115.234375
7994		117.187500
7995		111.328125
7996		119.140625
7997		113.281250
7998		117.187500
7999		113.281250
8000		115.234375
8001		111.328125
8002		115.234375
8003		107.421875
8004		117.187500
8005		109.375000
8006		113.281250
8007		107.421875
8008		113.281250
8009		105.468750
8010		113.281250
8011		107.421875
8012		109.375000
8013		105.468750
8014		109.375000
8015		103.515625
8016		107.421875
8017		103.515625
8018		105.468750
8019		101.562500
8020		105.468750
8021		97.656250
8022		105.468750
8023		97.656250
8024		101.562500
8025		93.750000
8026		101.562500
8027		95.703125
8028		97.656250
8029		93.750000
8030		97.656250
8031		91.796875
8032		95.703125
8033		89.843750
8034		93.750000
8035		87.890625
8036		91.796875
8037		85.937500
8038		89.843750
8039		83.984375
8040		87.890625
8041		80.078125
8042		83.984375
8043		78.125000
8044		82.031250
8045		74.218750
8046		80.078125
8047		74.218750
8048		78.125000
8049		72.265625
8050		76.171875
8051		68.359375
8052		74.218750
8053		66.406250
8054		70.312500
8055		64.453125
8056		68.359375
8057		60.546875
8058		66.406250
8059		58.593750
8060		62.500000
8061		54.687500
8062		60.546875
8063		52.734375
8064		56.640625
8065		48.828125
8066		54.687500
8067		44.921875
8068		50.781250
8069		42.968750
8070		48.828125
8071		39.062500
8072		46.875000
8073		35.156250
8074		42.968750
8075		33.203125
8076		39.062500
8077		29.296875
8078		37.109375
8079		27.343750
8080		35.156250
8081		25.390625
8082		29.296875
8083		21.484375
8084		25.390625
8085		15.625000
8086		23.437500
8087		13.671875
8088		19.531250
8089		9.765625
8090		17.578125
8091		7.812500
8092		13.671875
8093		3.906250
8094		11.718750
8095		0.000000
8096		7.812500
8097		-1.953125
8098		3.906250
8099		-5.859375
8100		-1.953125
8101		-9.765625
8102		-3.906250
8103		-13.671875
8104		-5.859375
8105		-17.578125
8106		-9.765625
8107		-21.484375
8108		-13.671875
8109		-23.437500
8110		-15.625000
8111		-27.343750
8112		-19.531250
8113		-31.250000
8114		-23.437500
8115		-33.203125
8116		-29.296875
8117		-39.062500
8118		-33.203125
8119		-42.968750
8120		-35.156250
8121		-44.921875
8122		-37.109375
8123		-50.781250
8124		-41.015625
8125		-52.734375
8126		-44.921875
8127		-54.687500
8128		-48.828125
8129		-58.593750
8130		-52.734375
8131		-60.546875
8132		-56.640625
8133		-64.453125
8134		-58.593750
8135		-68.359375
8136		-62.500000
8137		-72.265625
8138		-64.453125
8139		-76.171875
8140		-68.359375
8141		-78.125000
8142		-70.312500
8143		-80.078125
8144		-74.218750
8145		-83.984375
8146		-78.125000
8147		-85.937500
8148		-82.031250
8149		-89.843750
8150		-83.984375
8151		-93.750000
8152		-87.890625
8153		-95.703125
8154		-89.843750
8155		-99.609375
8156		-91.796875
8157		-103.515625
8158		-95.703125
8159		-105.468750
8160		-97.656250
8161		-105.468750
8162		-101.562500
8163		-109.375000
8164		-101.562500
8165		-111.328125
8166		-107.421875
8167		-113.281250
8168		-109.375000
8169		-117.187500
8170		-111.328125
8171		-119.140625
8172		-113.281250
8173		-119.140625
8174		-115.234375
8175		-123.046875
8176		-115.234375
8177		-125.000000
8178		-119.140625
8179		-126.953125
8180		-121.093750
8181		-126.953125
8182		-123.046875
8183		-128.906250
8184		-125.000000
8185		-130.859375
8186		-126.953125
8187		-132.812500
8188		-128.906250
8189		-134.765625
8190		-130.859375
8191		-138.671875
8192		-128.906250
8193		-136.718750
8194		-132.812500
8195		-138.671875
8196		-134.765625
8197		-138.671875
8198		-134.765625
8199		-140.625000
8200		-136.718750
8201		-142.578125
8202		-138.671875
8203		-142.578125
8204		-138.671875
8205		-142.578125
8206		-138.671875
8207		-146.484375
8208		-138.671875
8209		-144.531250
8210		-140.625000
8211		-144.531250
8212		-140.625000
8213		-144.531250
8214		-140.625000
8215		-144.531250
8216		-142.578125
8217		-144.531250
8218		-142.578125
8219		-146.484375
8220		-140.625000
8221		-144.531250
8222		-140.625000
8223		-144.531250
8224		-142.578125
8225		-146.484375
8226		-140.625000
8227		-144.531250
8228		-140.625000
8229		-144.531250
8230		-140.625000
8231		-144.531250
8232		-140.625000
8233		-142.578125
8234		-138.671875
8235		-142.578125
8236		-136.718750
8237		-140.625000
8238		-136.718750
8239		-138.671875
8240		-136.718750
8241		-140.625000
8242		-134.765625
8243		-138.671875
8244		-132.812500
8245		-136.718750
8246		-132.812500
8247		-134.765625
8248		-130.859375
8249		-132.812500
8250		-128.906250
8251		-130.859375
8252		-126.953125
8253		-128.906250
8254		-125.000000
8255		-128.906250
8256		-123.046875
8257		-126.953125
8258		-121.093750
8259		-125.000000
8260		-119.140625
8261		-121.093750
8262		-117.187500
8263		-121.093750
8264		-115.234375
8265		-119.140625
8266		-113.281250
8267		-115.234375
8268		-111.328125
8269		-113.281250
8270		-107.421875
8271		-109.375000
8272		-105.468750
8273		-107.421875
8274		-103.515625
8275		-105.468750
8276		-99.609375
8277		-101.562500
8278		-97.656250
8279		-99.609375
8280		-93.750000
8281		-95.703125
8282		-91.796875
8283		-93.750000
8284		-87.890625
8285		-89.843750
8286		-83.984375
8287		-87.890625
8288		-82.031250
8289		-83.984375
8290		-78.125000
8291		-82.031250
8292		-74.218750
8293		-78.125000
8294		-72.265625
8295		-74.218750
8296		-68.359375
8297		-70.312500
8298		-64.453125
8299		-68.359375
8300		-62.500000
8301		-64.453125
8302		-60.546875
8303		-60.546875
8304		-56.640625
8305		-58.593750
8306		-52.734375
8307		-54.687500
8308		-48.828125
8309		-52.734375
8310		-44.921875
8311		-46.875000
8312		-41.015625
8313		-42.968750
8314		-39.062500
8315		-41.015625
8316		-35.156250
8317		-37.109375
8318		-31.250000
8319		-33.203125
8320		-27.343750
8321		-29.296875
8322		-23.437500
8323		-25.390625
8324		-19.531250
8325		-23.437500
8326		-17.578125
8327		-19.531250
8328		-13.671875
8329		-15.625000
8330		-9.765625
8331		-11.718750
8332		-5.859375
8333		-7.812500
8334		-3.906250
8335		-5.859375
8336		0.000000
8337		-1.953125
8338		3.906250
8339		1.953125
8340		7.812500
8341		5.859375
8342		11.718750
8343		9.765625
8344		15.625000
8345		13.671875
8346		17.578125
8347		15.625000
8348		21.484375
8349		19.531250
8350		23.437500
8351		23.437500
8352		27.343750
8353		25.390625
8354		31.250000
8355		29.296875
8356		33.203125
8357		31.250000
8358		37.109375
8359		35.156250
8360		41.015625
8361		39.062500
8362		42.968750
8363		41.015625
8364		46.875000
8365		44.921875
8366		48.828125
8367		46.875000
8368		52.734375
8369		50.781250
8370		54.687500
8371		50.781250
8372		56.640625
8373		56.640625
8374		60.546875
8375		58.593750
8376		62.500000
8377		60.546875
8378		66.406250
8379		64.453125
8380		68.359375
8381		66.406250
8382		72.265625
8383		68.359375
8384		72.265625
8385		72.265625
8386		76.171875
8387		74.218750
8388		78.125000
8389		76.171875
8390		80.078125
8391		78.125000
8392		82.031250
8393		80.078125
8394		83.984375
8395		82.031250
8396		85.937500
8397		83.984375
8398		87.890625
8399		85.937500
8400		91.796875
8401		87.890625
8402		91.796875
8403		89.843750
8404		93.750000
8405		91.796875
8406		97.656250
8407		93.750000
8408		97.656250
8409		95.703125
8410		99.609375
8411		97.656250
8412		101.562500
8413		99.609375
8414		103.515625
8415		99.609375
8416		105.468750
8417		101.562500
8418		105.468750
8419		103.515625
8420		105.468750
8421		103.515625
8422		107.421875
8423		105.468750
8424		109.375000
8425		105.468750
8426		111.328125
8427		107.421875
8428		111.328125
8429		107.421875
8430		111.328125
8431		109.375000
8432		113.281250
8433		109.375000
8434		113.281250
8435		111.328125
8436		113.281250
8437		111.328125
8438		115.234375
8439		111.328125
8440		115.234375
8441		113.281250
8442		117.187500
8443		113.281250
8444		115.234375
8445		113.281250
8446		117.187500
8447		113.281250
8448		117.187500
8449		113.281250
8450		117.187500
8451		115.234375
8452		117.187500
8453		115.234375
8454		117.187500
8455		115.234375
8456		119.140625
8457		115.234375
8458		117.187500
8459		115.234375
8460		117.187500
8461		113.281250
8462		117.187500
8463		113.281250
8464		117.187500
8465		113.281250
8466		119.140625
8467		113.281250
8468		117.187500
8469		113.281250
8470		115.234375
8471		111.328125
8472		115.234375
8473		111.328125
8474		115.234375
8475		111.328125
8476		115.234375
8477		111.328125
8478		113.281250
8479		109.375000
8480		113.281250
8481		109.375000
8482		113.281250
8483		107.421875
8484		111.328125
8485		107.421875
8486		109.375000
8487		103.515625
8488		109.375000
8489		105.468750
8490		109.375000
8491		103.515625
8492		107.421875
8493		101.562500
8494		105.468750
8495		101.562500
8496		103.515625
8497		99.609375
8498		103.515625
8499		97.656250
8500		101.562500
8501		95.703125
8502		99.609375
8503		95.703125
8504		97.656250
8505		91.796875
8506		97.656250
8507		91.796875
8508		93.750000
8509		89.843750
8510		93.750000
8511		87.890625
8512		89.843750
8513		83.984375
8514		89.843750
8515		82.031250
8516		85.937500
8517		80.078125
8518		85.937500
8519		78.125000
8520		82.031250
8521		76.171875
8522		80.078125
8523		74.218750
8524		78.125000
8525		70.312500
8526		76.171875
8527		68.359375
8528		72.265625
8529		66.406250
8530		72.265625
8531		64.453125
8532		68.359375
8533		60.546875
8534		66.406250
8535		58.593750
8536		62.500000
8537		56.640625
8538		60.546875
8539		52.734375
8540		56.640625
8541		50.781250
8542		54.687500
8543		46.875000
8544		52.734375
8545		42.968750
8546		48.828125
8547		41.015625
8548		44.921875
8549		37.109375
8550		42.968750
8551		35.156250
8552		41.015625
8553		31.250000
8554		37.109375
8555		27.343750
8556		33.203125
8557		23.437500
8558		29.296875
8559		21.484375
8560		27.343750
8561		17.578125
8562		23.437500
8563		15.625000
8564		19.531250
8565		11.718750
8566		17.578125
8567		7.812500
8568		13.671875
8569		5.859375
8570		9.765625
8571		0.000000
8572		5.859375
8573		-1.953125
8574		3.906250
8575		-5.859375
8576		0.000000
8577		-9.765625
8578		-3.906250
8579		-11.718750
8580		-7.812500
8581		-15.625000
8582		-9.765625
8583		-21.484375
8584		-13.671875
8585		-23.437500
8586		-17.578125
8587		-27.343750
8588		-21.484375
8589		-31.250000
8590		-23.437500
8591		-33.203125
8592		-29.296875
8593		-37.109375
8594		-31.250000
8595		-41.015625
8596		-35.156250
8597		-44.921875
8598		-39.062500
8599		-46.875000
8600		-42.968750
8601		-50.781250
8602		-44.921875
8603		-54.687500
8604		-48.828125
8605		-58.593750
8606		-52.734375
8607		-60.546875
8608		-56.640625
8609		-64.453125
8610		-58.593750
8611		-68.359375
8612		-62.500000
8613		-70.312500
8614		-64.453125
8615		-74.218750
8616		-68.359375
8617		-78.125000
8618		-72.265625
8619		-80.078125
8620		-76.171875
8621		-83.984375
8622		-78.125000
8623		-85.937500
8624		-82.031250
8625		-89.843750
8626		-83.984375
8627		-91.796875
8628		-87.890625
8629		-95.703125
8630		-89.843750
8631		-97.656250
8632		-93.750000
8633		-101.562500
8634		-95.703125
8635		-103.515625
8636		-99.609375
8637		-105.468750
8638		-101.562500
8639		-109.375000
8640		-103.515625
8641		-111.328125
8642		-107.421875
8643		-113.281250
8644		-109.375000
8645		-117.187500
8646		-111.328125
8647		-117.187500
8648		-113.281250
8649		-121.093750
8650		-115.234375
8651		-123.046875
8652		-117.187500
8653		-125.000000
8654		-121.093750
8655		-126.953125
8656		-123.046875
8657		-128.906250
8658		-125.000000
8659		-130.859375
8660		-126.953125
8661		-132.812500
8662		-128.906250
8663		-132.812500
8664		-128.906250
8665		-134.765625
8666		-130.859375
8667		-138.671875
8668		-132.812500
8669		-136.718750
8670		-134.765625
8671		-138.671875
8672		-136.718750
8673		-140.625000
8674		-136.718750
8675		-140.625000
8676		-136.718750
8677		-142.578125
8678		-138.671875
8679		-144.531250
8680		-140.625000
8681		-144.531250
8682		-140.625000
8683		-144.531250
8684		-140.625000
8685		-144.531250
8686		-140.625000
8687		-144.531250
8688		-142.578125
8689		-146.484375
8690		-140.625000
8691		-146.484375
8692		-142.578125
8693		-146.484375
8694		-142.578125
8695		-146.484375
8696		-142.578125
8697		-146.484375
8698		-142.578125
8699		-144.531250
8700		-142.578125
8701		-144.531250
8702		-142.578125
8703		-144.531250
8704		-142.578125
8705		-144.531250
8706		-140.625000
8707		-144.531250
8708		-138.671875
8709		-142.578125
8710		-138.671875
8711		-142.578125
8712		-138.671875
8713		-140.625000
8714		-138.671875
8715		-140.625000
8716		-136.718750
8717		-138.671875
8718		-134.765625
8719		-138.671875
8720		-134.765625
8721		-136.718750
8722		-132.812500
8723		-134.765625
8724		-130.859375
8725		-132.812500
8726		-128.906250
8727		-132.812500
8728		-126.953125
8729		-130.859375
8730		-126.953125
8731		-128.906250
8732		-125.000000
8733		-126.953125
8734		-121.093750
8735		-125.000000
8736		-121.093750
8737		-121.093750
8738		-117.187500
8739		-121.093750
8740		-113.281250
8741		-117.187500
8742		-113.281250
8743		-115.234375
8744		-111.328125
8745		-113.281250
8746		-107.421875
8747		-111.328125
8748		-105.468750
8749		-107.421875
8750		-101.562500
8751		-105.468750
8752		-99.609375
8753		-101.562500
8754		-97.656250
8755		-99.609375
8756		-95.703125
8757		-97.656250
8758		-91.796875
8759		-93.750000
8760		-89.843750
8761		-91.796875
8762		-85.937500
8763		-87.890625
8764		-83.984375
8765		-85.937500
8766		-80.078125
8767		-82.031250
8768		-78.125000
8769		-80.078125
8770		-74.218750
8771		-76.171875
8772		-70.312500
8773		-72.265625
8774		-66.406250
8775		-68.359375
8776		-64.453125
8777		-66.406250
8778		-60.546875
8779		-62.500000
8780		-56.640625
8781		-58.593750
8782		-52.734375
8783		-54.687500
8784		-50.781250
8785		-52.734375
8786		-46.875000
8787		-48.828125
8788		-42.968750
8789		-44.921875
8790		-39.062500
8791		-42.968750
8792		-35.156250
8793		-37.109375
8794		-31.250000
8795		-35.156250
8796		-29.296875
8797		-29.296875
8798		-25.390625
8799		-27.343750
8800		-21.484375
8801		-23.437500
8802		-17.578125
8803		-21.484375
8804		-15.625000
8805		-15.625000
8806		-11.718750
8807		-13.671875
8808		-7.812500
8809		-9.765625
8810		-3.906250
8811		-5.859375
8812		0.000000
8813		-1.953125
8814		1.953125
8815		1.953125
8816		5.859375
8817		3.906250
8818		9.765625
8819		7.812500
8820		13.671875
8821		11.718750
8822		15.625000
8823		15.625000
8824		21.484375
8825		17.578125
8826		23.437500
8827		21.484375
8828		27.343750
8829		25.390625
8830		29.296875
8831		27.343750
8832		33.203125
8833		31.250000
8834		37.109375
8835		35.156250
8836		41.015625
8837		37.109375
8838		41.015625
8839		41.015625
8840		44.921875
8841		42.968750
8842		46.875000
8843		46.875000
8844		50.781250
8845		48.828125
8846		54.687500
8847		52.734375
8848		56.640625
8849		54.687500
8850		58.593750
8851		58.593750
8852		62.500000
8853		60.546875
8854		64.453125
8855		62.500000
8856		66.406250
8857		66.406250
8858		72.265625
8859		66.406250
8860		72.265625
8861		70.312500
8862		74.218750
8863		72.265625
8864		76.171875
8865		74.218750
8866		80.078125
8867		76.171875
8868		82.031250
8869		80.078125
8870		83.984375
8871		82.031250
8872		85.937500
8873		83.984375
8874		87.890625
8875		85.937500
8876		89.843750
8877		87.890625
8878		93.750000
8879		89.843750
8880		93.750000
8881		91.796875
8882		95.703125
8883		93.750000
8884		97.656250
8885		93.750000
8886		99.609375
8887		95.703125
8888		101.562500
8889		99.609375
8890		101.562500
8891		99.609375
8892		103.515625
8893		101.562500
8894		105.468750
8895		101.562500
8896		105.468750
8897		103.515625
8898		109.375000
8899		105.468750
8900		109.375000
8901		105.468750
8902		109.375000
8903		107.421875
8904		111.328125
8905		109.375000
8906		111.328125
8907		109.375000
8908		113.281250
8909		111.328125
8910		113.281250
8911		111.328125
8912		113.281250
8913		113.281250
8914		115.234375
8915		113.281250
8916		115.234375
8917		113.281250
8918		115.234375
8919		113.281250
8920		117.187500
8921		115.234375
8922		117.187500
8923		115.234375
8924		117.187500
8925		113.281250
8926		119.140625
8927		115.234375
8928		117.187500
8929		115.234375
8930		119.140625
8931		115.234375
8932		117.187500
8933		115.234375
8934		119.140625
8935		115.234375
8936		119.140625
8937		113.281250
8938		119.140625
8939		115.234375
8940		117.187500
8941		113.281250
8942		119.140625
8943		113.281250
8944		117.187500
8945		113.281250
8946		117.187500
8947		113.281250
8948		117.187500
8949		113.281250
8950		117.187500
8951		111.328125
8952		117.187500
8953		111.328125
8954		115.234375
8955		111.328125
8956		113.281250
8957		109.375000
8958		113.281250
8959		109.375000
8960		113.281250
8961		107.421875
8962		111.328125
8963		107.421875
8964		111.328125
8965		105.468750
8966		109.375000
8967		105.468750
8968		107.421875
8969		103.515625
8970		107.421875
8971		101.562500
8972		105.468750
8973		99.609375
8974		103.515625
8975		97.656250
8976		103.515625
8977		97.656250
8978		101.562500
8979		95.703125
8980		99.609375
8981		93.750000
8982		97.656250
8983		91.796875
8984		95.703125
8985		89.843750
8986		93.750000
8987		87.890625
8988		91.796875
8989		85.937500
8990		89.843750
8991		83.984375
8992		87.890625
8993		82.031250
8994		87.890625
8995		80.078125
8996		83.984375
8997		78.125000
8998		82.031250
8999		76.171875
9000		80.078125
9001		72.265625
9002		78.125000
9003		68.359375
9004		74.218750
9005		68.359375
9006		72.265625
9007		64.453125
9008		70.312500
9009		62.500000
9010		68.359375
9011		60.546875
9012		64.453125
9013		56.640625
9014		62.500000
9015		54.687500
9016		58.593750
9017		50.781250
9018		56.640625
9019		48.828125
9020		52.734375
9021		44.921875
9022		50.781250
9023		42.968750
9024		46.875000
9025		39.062500
9026		44.921875
9027		35.156250
9028		41.015625
9029		33.203125
9030		39.062500
9031		31.250000
9032		35.156250
9033		25.390625
9034		33.203125
9035		23.437500
9036		29.296875
9037		19.531250
9038		25.390625
9039		17.578125
9040		21.484375
9041		13.671875
9042		19.531250
9043		9.765625
9044		15.625000
9045		5.859375
9046		11.718750
9047		1.953125
9048		7.812500
9049		-1.953125
9050		3.906250
9051		-3.906250
9052		1.953125
9053		-7.812500
9054		-1.953125
9055		-9.765625
9056		-5.859375
9057		-13.671875
9058		-7.812500
9059		-17.578125
9060		-11.718750
9061		-21.484375
9062		-15.625000
9063		-25.390625
9064		-19.531250
9065		-27.343750
9066		-23.437500
9067		-31.250000
9068		-25.390625
9069		-35.156250
9070		-29.296875
9071		-39.062500
9072		-33.203125
9073		-41.015625
9074		-37.109375
9075		-44.921875
9076		-41.015625
9077		-48.828125
9078		-41.015625
9079		-52.734375
9080		-46.875000
9081		-56.640625
9082		-50.781250
9083		-58.593750
9084		-52.734375
9085		-62.500000
9086		-56.640625
9087		-66.406250
9088		-60.546875
9089		-70.312500
9090		-62.500000
9091		-72.265625
9092		-66.406250
9093		-74.218750
9094		-70.312500
9095		-78.125000
9096		-72.265625
9097		-82.031250
9098		-76.171875
9099		-83.984375
9100		-80.078125
9101		-87.890625
9102		-83.984375
9103		-89.843750
9104		-85.937500
9105		-93.750000
9106		-87.890625
9107		-95.703125
9108		-91.796875
9109		-99.609375
9110		-95.703125
9111		-103.515625
9112		-97.656250
9113		-105.468750
9114		-99.609375
9115		-107.421875
9116		-101.562500
9117		-109.375000
9118		-105.468750
9119		-111.328125
9120		-107.421875
9121		-115.234375
9122		-109.375000
9123		-117.187500
9124		-113.281250
9125		-119.140625
9126		-115.234375
9127		-121.093750
9128		-117.187500
9129		-123.046875
9130		-119.140625
9131		-125.000000
9132		-121.093750
9133		-126.953125
9134		-123.046875
9135		-128.906250
9136		-125.000000
9137		-130.859375
9138		-126.953125
9139		-132.812500
9140		-128.906250
9141		-134.765625
9142		-130.859375
9143		-136.718750
9144		-130.859375
9145		-136.718750
9146		-132.812500
9147		-138.671875
9148		-134.765625
9149		-138.671875
9150		-134.765625
9151		-140.625000
9152		-136.718750
9153		-140.625000
9154		-136.718750
9155		-144.531250
9156		-138.671875
9157		-142.578125
9158		-140.625000
9159		-142.578125
9160		-140.625000
9161		-144.531250
9162		-140.625000
9163		-144.531250
9164		-140.625000
9165		-146.484375
9166		-142.578125
9167		-146.484375
9168		-142.578125
9169		-146.484375
9170		-142.578125
9171		-146.484375
9172		-142.578125
9173		-146.484375
9174		-142.578125
9175		-144.531250
9176		-142.578125
9177		-146.484375
9178		-140.625000
9179		-144.531250
9180		-140.625000
9181		-144.531250
9182		-140.625000
9183		-144.531250
9184		-140.625000
9185		-144.531250
9186		-140.625000
9187		-142.578125
9188		-138.671875
9189		-142.578125
9190		-138.671875
9191		-140.625000
9192		-136.718750
9193		-138.671875
9194		-134.765625
9195		-138.671875
9196		-134.765625
9197		-138.671875
9198		-132.812500
9199		-136.718750
9200		-132.812500
9201		-134.765625
9202		-130.859375
9203		-132.812500
9204		-128.906250
9205		-130.859375
9206		-126.953125
9207		-128.906250
9208		-125.000000
9209		-126.953125
9210		-123.046875
9211		-126.953125
9212		-121.093750
9213		-123.046875
9214		-119.140625
9215		-121.093750
9216		-117.187500
9217		-119.140625
9218		-115.234375
9219		-117.187500
9220		-113.281250
9221		-113.281250
9222		-109.375000
9223		-113.281250
9224		-107.421875
9225		-109.375000
9226		-105.468750
9227		-107.421875
9228		-101.562500
9229		-103.515625
9230		-99.609375
9231		-101.562500
9232		-95.703125
9233		-97.656250
9234		-93.750000
9235		-97.656250
9236		-91.796875
9237		-91.796875
9238		-87.890625
9239		-89.843750
9240		-83.984375
9241		-85.937500
9242		-82.031250
9243		-83.984375
9244		-78.125000
9245		-82.031250
9246		-76.171875
9247		-78.125000
9248		-72.265625
9249		-74.218750
9250		-68.359375
9251		-72.265625
9252		-64.453125
9253		-68.359375
9254		-62.500000
9255		-64.453125
9256		-58.593750
9257		-62.500000
9258		-54.687500
9259		-56.640625
9260		-52.734375
9261		-52.734375
9262		-48.828125
9263		-50.781250
9264		-44.921875
9265		-46.875000
9266		-41.015625
9267		-42.968750
9268		-37.109375
9269		-39.062500
9270		-35.156250
9271		-37.109375
9272		-31.250000
9273		-33.203125
9274		-27.343750
9275		-29.296875
9276		-23.437500
9277		-25.390625
9278		-19.531250
9279		-21.484375
9280		-17.578125
9281		-17.578125
9282		-13.671875
9283		-15.625000
9284		-9.765625
9285		-11.718750
9286		-5.859375
9287		-7.812500
9288		-1.953125
9289		-3.906250
9290		1.953125
9291		0.000000
9292		3.906250
9293		1.953125
9294		7.812500
9295		5.859375
9296		11.718750
9297		9.765625
9298		13.671875
9299		11.718750
9300		17.578125
9301		15.625000
9302		21.484375
9303		19.531250
9304		25.390625
9305		23.437500
9306		27.343750
9307		25.390625
9308		31.250000
9309		29.296875
9310		33.203125
9311		33.203125
9312		39.062500
9313		35.156250
9314		41.015625
9315		39.062500
9316		42.968750
9317		41.015625
9318		46.875000
9319		44.921875
9320		48.828125
9321		46.875000
9322		52.734375
9323		48.828125
9324		56.640625
9325		52.734375
9326		58.593750
9327		56.640625
9328		60.546875
9329		56.640625
9330		64.453125
9331		60.546875
9332		66.406250
9333		64.453125
9334		68.359375
9335		66.406250
9336		70.312500
9337		68.359375
9338		74.218750
9339		70.312500
9340		76.171875
9341		74.218750
9342		78.125000
9343		76.171875
9344		80.078125
9345		78.125000
9346		83.984375
9347		80.078125
9348		85.937500
9349		82.031250
9350		87.890625
9351		85.937500
9352		89.843750
9353		87.890625
9354		91.796875
9355		87.890625
9356		93.750000
9357		89.843750
9358		95.703125
9359		91.796875
9360		95.703125
9361		93.750000
9362		99.609375
9363		93.750000
9364		101.562500
9365		97.656250
9366		103.515625
9367		99.609375
9368		103.515625
9369		99.609375
9370		103.515625
9371		101.562500
9372		105.468750
9373		103.515625
9374		107.421875
9375		105.468750
9376		107.421875
9377		105.468750
9378		109.375000
9379		105.468750
9380		113.281250
9381		107.421875
9382		113.281250
9383		107.421875
9384		115.234375
9385		109.375000
9386		113.281250
9387		109.375000
9388		115.234375
9389		111.328125
9390		115.234375
9391		111.328125
9392		117.187500
9393		113.281250
9394		115.234375
9395		111.328125
9396		119.140625
9397		111.328125
9398		119.140625
9399		111.328125
9400		119.140625
9401		111.328125
9402		119.140625
9403		115.234375
9404		119.140625
9405		115.234375
9406		119.140625
9407		115.234375
9408		119.140625
9409		115.234375
9410		119.140625
9411		115.234375
9412		117.187500
9413		113.281250
9414		121.093750
9415		113.281250
9416		121.093750
9417		113.281250
9418		121.093750
9419		113.281250
9420		119.140625
9421		113.281250
9422		117.187500
9423		113.281250
9424		117.187500
9425		113.281250
9426		117.187500
9427		113.281250
9428		117.187500
9429		109.375000
9430		117.187500
9431		109.375000
9432		117.187500
9433		107.421875
9434		115.234375
9435		107.421875
9436		115.234375
9437		109.375000
9438		111.328125
9439		107.421875
9440		111.328125
9441		105.468750
9442		111.328125
9443		105.468750
9444		109.375000
9445		101.562500
9446		107.421875
9447		101.562500
9448		109.375000
9449		97.656250
9450		107.421875
9451		97.656250
9452		105.468750
9453		95.703125
9454		105.468750
9455		93.750000
9456		103.515625
9457		93.750000
9458		101.562500
9459		93.750000
9460		97.656250
9461		91.796875
9462		95.703125
9463		87.890625
9464		95.703125
9465		85.937500
9466		93.750000
9467		83.984375
9468		91.796875
9469		82.031250
9470		89.843750
9471		80.078125
9472		87.890625
9473		78.125000
9474		85.937500
9475		76.171875
9476		82.031250
9477		74.218750
9478		78.125000
9479		70.312500
9480		76.171875
9481		68.359375
9482		76.171875
9483		66.406250
9484		72.265625
9485		62.500000
9486		70.312500
9487		58.593750
9488		68.359375
9489		58.593750
9490		64.453125
9491		54.687500
9492		62.500000
9493		52.734375
9494		58.593750
9495		50.781250
9496		54.687500
9497		44.921875
9498		54.687500
9499		42.968750
9500		50.781250
9501		39.062500
9502		48.828125
9503		35.156250
9504		44.921875
9505		33.203125
9506		42.968750
9507		31.250000
9508		41.015625
9509		29.296875
9510		35.156250
9511		25.390625
9512		31.250000
9513		21.484375
9514		27.343750
9515		17.578125
9516		25.390625
9517		13.671875
9518		23.437500
9519		9.765625
9520		19.531250
9521		5.859375
9522		17.578125
9523		3.906250
9524		13.671875
9525		1.953125
9526		9.765625
9527		-1.953125
9528		3.906250
9529		-5.859375
9530		0.000000
9531		-11.718750
9532		0.000000
9533		-13.671875
9534		-5.859375
9535		-17.578125
9536		-7.812500
9537		-19.531250
9538		-11.718750
9539		-25.390625
9540		-15.625000
9541		-27.343750
9542		-17.578125
9543		-29.296875
9544		-23.437500
9545		-33.203125
9546		-27.343750
9547		-39.062500
9548		-29.296875
9549		-41.015625
9550		-31.250000
9551		-44.921875
9552		-35.156250
9553		-48.828125
9554		-39.062500
9555		-52.734375
9556		-42.968750
9557		-54.687500
9558		-46.875000
9559		-56.640625
9560		-48.828125
9561		-60.546875
9562		-54.687500
9563		-66.406250
9564		-58.593750
9565		-68.359375
9566		-60.546875
9567		-72.265625
9568		-62.500000
9569		-76.171875
9570		-66.406250
9571		-78.125000
9572		-70.312500
9573		-82.031250
9574		-72.265625
9575		-83.984375
9576		-76.171875
9577		-85.937500
9578		-80.078125
9579		-87.890625
9580		-83.984375
9581		-93.750000
9582		-85.937500
9583		-97.656250
9584		-87.890625
9585		-99.609375
9586		-89.843750
9587		-103.515625
9588		-93.750000
9589		-105.468750
9590		-97.656250
9591		-107.421875
9592		-99.609375
9593		-107.421875
9594		-101.562500
9595		-111.328125
9596		-107.421875
9597		-115.234375
9598		-107.421875
9599		-119.140625
9600		-109.375000
9601		-121.093750
9602		-111.328125
9603		-123.046875
9604		-113.281250
9605		-125.000000
9606		-115.234375
9607		-126.953125
9608		-117.187500
9609		-126.953125
9610		-121.093750
9611		-126.953125
9612		-125.000000
9613		-130.859375
9614		-126.953125
9615		-134.765625
9616		-125.000000
9617		-136.718750
9618		-126.953125
9619		-136.718750
9620		-128.906250
9621		-138.671875
9622		-130.859375
9623		-140.625000
9624		-130.859375
9625		-140.625000
9626		-132.812500
9627		-140.625000
9628		-136.718750
9629		-140.625000
9630		-138.671875
9631		-144.531250
9632		-136.718750
9633		-146.484375
9634		-136.718750
9635		-146.484375
9636		-138.671875
9637		-146.484375
9638		-138.671875
9639		-148.437500
9640		-138.671875
9641		-148.437500
9642		-140.625000
9643		-148.437500
9644		-140.625000
9645		-146.484375
9646		-142.578125
9647		-148.437500
9648		-142.578125
9649		-148.437500
9650		-140.625000
9651		-148.437500
9652		-140.625000
9653		-148.437500
9654		-140.625000
9655		-148.437500
9656		-140.625000
9657		-148.437500
9658		-140.625000
9659		-148.437500
9660		-138.671875
9661		-144.531250
9662		-140.625000
9663		-142.578125
9664		-140.625000
9665		-146.484375
9666		-138.671875
9667		-144.531250
9668		-136.718750
9669		-144.531250
9670		-134.765625
9671		-142.578125
9672		-134.765625
9673		-142.578125
9674		-132.812500
9675		-140.625000
9676		-130.859375
9677		-136.718750
9678		-132.812500
9679		-134.765625
9680		-130.859375
9681		-134.765625
9682		-126.953125
9683		-134.765625
9684		-125.000000
9685		-132.812500
9686		-123.046875
9687		-130.859375
9688		-123.046875
9689		-128.906250
9690		-119.140625
9691		-126.953125
9692		-117.187500
9693		-125.000000
9694		-117.187500
9695		-119.140625
9696		-115.234375
9697		-117.187500
9698		-113.281250
9699		-117.187500
9700		-107.421875
9701		-115.234375
9702		-105.468750
9703		-113.281250
9704		-103.515625
9705		-109.375000
9706		-99.609375
9707		-107.421875
9708		-97.656250
9709		-103.515625
9710		-95.703125
9711		-99.609375
9712		-93.750000
9713		-95.703125
9714		-91.796875
9715		-93.750000
9716		-85.937500
9717		-91.796875
9718		-83.984375
9719		-89.843750
9720		-80.078125
9721		-85.937500
9722		-76.171875
9723		-82.031250
9724		-74.218750
9725		-80.078125
9726		-70.312500
9727		-76.171875
9728		-68.359375
9729		-70.312500
9730		-66.406250
9731		-68.359375
9732		-58.593750
9733		-64.453125
9734		-58.593750
9735		-62.500000
9736		-54.687500
9737		-60.546875
9738		-50.781250
9739		-54.687500
9740		-46.875000
9741		-52.734375
9742		-42.968750
9743		-48.828125
9744		-41.015625
9745		-42.968750
9746		-39.062500
9747		-41.015625
9748		-35.156250
9749		-37.109375
9750		-31.250000
9751		-33.203125
9752		-25.390625
9753		-29.296875
9754		-21.484375
9755		-27.343750
9756		-19.531250
9757		-23.437500
9758		-15.625000
9759		-19.531250
9760		-11.718750
9761		-15.625000
9762		-9.765625
9763		-11.718750
9764		-5.859375
9765		-7.812500
9766		0.000000
9767		-5.859375
9768		3.906250
9769		-1.953125
9770		7.812500
9771		0.000000
9772		9.765625
9773		3.906250
9774		13.671875
9775		7.812500
9776		17.578125
9777		9.765625
9778		17.578125
9779		15.625000
9780		21.484375
9781		19.531250
9782		23.437500
9783		19.531250
9784		29.296875
9785		23.437500
9786		33.203125
9787		27.343750
9788		35.156250
9789		29.296875
9790		39.062500
9791		33.203125
9792		42.968750
9793		37.109375
9794		44.921875
9795		41.015625
9796		46.875000
9797		44.921875
9798		48.828125
9799		46.875000
9800		54.687500
9801		48.828125
9802		56.640625
9803		50.781250
9804		60.546875
9805		54.687500
9806		64.453125
9807		56.640625
9808		66.406250
9809		58.593750
9810		68.359375
9811		62.500000
9812		68.359375
9813		66.406250
9814		70.312500
9815		68.359375
9816		76.171875
9817		70.312500
9818		78.125000
9819		70.312500
9820		80.078125
9821		74.218750
9822		82.031250
9823		78.125000
9824		83.984375
9825		78.125000
9826		85.937500
9827		80.078125
9828		87.890625
9829		83.984375
9830		87.890625
9831		85.937500
9832		89.843750
9833		87.890625
9834		95.703125
9835		87.890625
9836		97.656250
9837		89.843750
9838		97.656250
9839		91.796875
9840		99.609375
9841		93.750000
9842		101.562500
9843		95.703125
9844		103.515625
9845		97.656250
9846		103.515625
9847		101.562500
9848		103.515625
9849		99.609375
9850		107.421875
9851		99.609375
9852		109.375000
9853		101.562500
9854		111.328125
9855		103.515625
9856		111.328125
9857		103.515625
9858		113.281250
9859		105.468750
9860		113.281250
9861		105.468750
9862		113.281250
9863		109.375000
9864		111.328125
9865		111.328125
9866		113.281250
9867		109.375000
9868		117.187500
9869		109.375000
9870		117.187500
9871		109.375000
9872		117.187500
9873		109.375000
9874		117.187500
9875		111.328125
9876		119.140625
9877		111.328125
9878		119.140625
9879		113.281250
9880		119.140625
9881		115.234375
9882		117.187500
9883		111.328125
9884		119.140625
9885		111.328125
9886		121.093750
9887		111.328125
9888		119.140625
9889		113.281250
9890		119.140625
9891		111.328125
9892		119.140625
9893		111.328125
9894		119.140625
9895		113.281250
9896		119.140625
9897		113.281250
9898		117.187500
9899		111.328125
9900		119.140625
9901		109.375000
9902		119.140625
9903		109.375000
9904		117.187500
9905		109.375000
9906		117.187500
9907		107.421875
9908		117.187500
9909		107.421875
9910		115.234375
9911		107.421875
9912		115.234375
9913		109.375000
9914		111.328125
9915		107.421875
9916		111.328125
9917		103.515625
9918		113.281250
9919		103.515625
9920		111.328125
9921		101.562500
9922		109.375000
9923		99.609375
9924		109.375000
9925		99.609375
9926		107.421875
9927		97.656250
9928		105.468750
9929		97.656250
9930		103.515625
9931		97.656250
9932		99.609375
9933		93.750000
9934		99.609375
9935		91.796875
9936		99.609375
9937		89.843750
9938		97.656250
9939		87.890625
9940		95.703125
9941		85.937500
9942		93.750000
9943		83.984375
9944		91.796875
9945		83.984375
9946		89.843750
9947		82.031250
9948		85.937500
9949		80.078125
9950		83.984375
9951		74.218750
9952		83.984375
9953		72.265625
9954		80.078125
9955		70.312500
9956		80.078125
9957		68.359375
9958		78.125000
9959		66.406250
9960		74.218750
9961		64.453125
9962		72.265625
9963		62.500000
9964		68.359375
9965		60.546875
9966		64.453125
9967		54.687500
9968		62.500000
9969		52.734375
9970		60.546875
9971		50.781250
9972		58.593750
9973		46.875000
9974		54.687500
9975		42.968750
9976		52.734375
9977		41.015625
9978		50.781250
9979		39.062500
9980		44.921875
9981		37.109375
9982		41.015625
9983		31.250000
9984		39.062500
9985		27.343750
9986		37.109375
9987		23.437500
9988		35.156250
9989		19.531250
9990		29.296875
9991		19.531250
9992		27.343750
9993		13.671875
9994		23.437500
9995		11.718750
9996		19.531250
9997		9.765625
9998		15.625000
9999		5.859375
10000		11.718750
