Channel              :		CH1
Frequency            :		1.056kHz
Period               :		0.947ms
PK-PK                :		316.4mV
Probe attenuation    :		1X
Voltage per ADC value:		0.122070mV
Time interval        :		2.00000us

index		CH1_Voltage(mV)
1		62.500000
2		62.500000
3		52.734375
4		58.593750
5		50.781250
6		54.687500
7		42.968750
8		50.781250
9		41.015625
10		48.828125
11		37.109375
12		46.875000
13		33.203125
14		42.968750
15		29.296875
16		39.062500
17		23.437500
18		35.156250
19		23.437500
20		29.296875
21		19.531250
22		23.437500
23		11.718750
24		19.531250
25		9.765625
26		17.578125
27		5.859375
28		13.671875
29		1.953125
30		9.765625
31		-3.906250
32		5.859375
33		-7.812500
34		1.953125
35		-9.765625
36		-1.953125
37		-13.671875
38		-7.812500
39		-17.578125
40		-11.718750
41		-25.390625
42		-15.625000
43		-29.296875
44		-17.578125
45		-33.203125
46		-23.437500
47		-37.109375
48		-27.343750
49		-39.062500
50		-31.250000
51		-44.921875
52		-35.156250
53		-46.875000
54		-41.015625
55		-50.781250
56		-44.921875
57		-56.640625
58		-48.828125
59		-60.546875
60		-50.781250
61		-64.453125
62		-54.687500
63		-68.359375
64		-58.593750
65		-72.265625
66		-64.453125
67		-76.171875
68		-66.406250
69		-78.125000
70		-70.312500
71		-82.031250
72		-76.171875
73		-85.937500
74		-80.078125
75		-89.843750
76		-82.031250
77		-95.703125
78		-85.937500
79		-99.609375
80		-89.843750
81		-101.562500
82		-93.750000
83		-105.468750
84		-95.703125
85		-107.421875
86		-99.609375
87		-109.375000
88		-105.468750
89		-113.281250
90		-107.421875
91		-119.140625
92		-111.328125
93		-121.093750
94		-113.281250
95		-123.046875
96		-115.234375
97		-126.953125
98		-117.187500
99		-128.906250
100		-121.093750
101		-132.812500
102		-123.046875
103		-132.812500
104		-126.953125
105		-134.765625
106		-130.859375
107		-140.625000
108		-132.812500
109		-140.625000
110		-132.812500
111		-142.578125
112		-136.718750
113		-146.484375
114		-138.671875
115		-148.437500
116		-138.671875
117		-150.390625
118		-142.578125
119		-150.390625
120		-144.531250
121		-150.390625
122		-148.437500
123		-152.343750
124		-148.437500
125		-156.250000
126		-148.437500
127		-158.203125
128		-150.390625
129		-158.203125
130		-150.390625
131		-160.156250
132		-152.343750
133		-160.156250
134		-154.296875
135		-162.109375
136		-154.296875
137		-160.156250
138		-156.250000
139		-160.156250
140		-158.203125
141		-162.109375
142		-156.250000
143		-164.062500
144		-156.250000
145		-164.062500
146		-156.250000
147		-164.062500
148		-156.250000
149		-164.062500
150		-156.250000
151		-164.062500
152		-156.250000
153		-162.109375
154		-156.250000
155		-160.156250
156		-158.203125
157		-160.156250
158		-158.203125
159		-162.109375
160		-154.296875
161		-162.109375
162		-152.343750
163		-160.156250
164		-152.343750
165		-158.203125
166		-150.390625
167		-158.203125
168		-150.390625
169		-156.250000
170		-148.437500
171		-154.296875
172		-148.437500
173		-150.390625
174		-148.437500
175		-150.390625
176		-144.531250
177		-150.390625
178		-142.578125
179		-148.437500
180		-140.625000
181		-146.484375
182		-138.671875
183		-142.578125
184		-136.718750
185		-142.578125
186		-134.765625
187		-140.625000
188		-132.812500
189		-134.765625
190		-130.859375
191		-132.812500
192		-125.000000
193		-132.812500
194		-123.046875
195		-128.906250
196		-121.093750
197		-126.953125
198		-117.187500
199		-123.046875
200		-113.281250
201		-121.093750
202		-111.328125
203		-117.187500
204		-109.375000
205		-111.328125
206		-107.421875
207		-107.421875
208		-103.515625
209		-105.468750
210		-99.609375
211		-103.515625
212		-93.750000
213		-101.562500
214		-91.796875
215		-95.703125
216		-87.890625
217		-93.750000
218		-83.984375
219		-87.890625
220		-80.078125
221		-85.937500
222		-78.125000
223		-80.078125
224		-74.218750
225		-76.171875
226		-68.359375
227		-74.218750
228		-64.453125
229		-68.359375
230		-60.546875
231		-66.406250
232		-56.640625
233		-62.500000
234		-52.734375
235		-58.593750
236		-48.828125
237		-54.687500
238		-44.921875
239		-46.875000
240		-42.968750
241		-42.968750
242		-35.156250
243		-41.015625
244		-31.250000
245		-37.109375
246		-27.343750
247		-33.203125
248		-23.437500
249		-27.343750
250		-19.531250
251		-23.437500
252		-15.625000
253		-21.484375
254		-11.718750
255		-15.625000
256		-7.812500
257		-9.765625
258		-3.906250
259		-7.812500
260		1.953125
261		-3.906250
262		5.859375
263		0.000000
264		9.765625
265		5.859375
266		15.625000
267		7.812500
268		17.578125
269		11.718750
270		21.484375
271		15.625000
272		23.437500
273		23.437500
274		27.343750
275		27.343750
276		33.203125
277		27.343750
278		37.109375
279		31.250000
280		41.015625
281		35.156250
282		44.921875
283		39.062500
284		48.828125
285		42.968750
286		52.734375
287		46.875000
288		56.640625
289		52.734375
290		58.593750
291		56.640625
292		60.546875
293		58.593750
294		66.406250
295		60.546875
296		68.359375
297		64.453125
298		72.265625
299		68.359375
300		76.171875
301		70.312500
302		80.078125
303		74.218750
304		82.031250
305		78.125000
306		83.984375
307		82.031250
308		85.937500
309		83.984375
310		91.796875
311		85.937500
312		95.703125
313		89.843750
314		95.703125
315		91.796875
316		99.609375
317		93.750000
318		103.515625
319		97.656250
320		105.468750
321		99.609375
322		107.421875
323		103.515625
324		107.421875
325		107.421875
326		109.375000
327		107.421875
328		115.234375
329		107.421875
330		117.187500
331		111.328125
332		119.140625
333		113.281250
334		121.093750
335		115.234375
336		123.046875
337		117.187500
338		125.000000
339		119.140625
340		125.000000
341		123.046875
342		125.000000
343		123.046875
344		128.906250
345		123.046875
346		130.859375
347		125.000000
348		132.812500
349		126.953125
350		134.765625
351		126.953125
352		134.765625
353		128.906250
354		136.718750
355		130.859375
356		136.718750
357		134.765625
358		136.718750
359		134.765625
360		138.671875
361		132.812500
362		140.625000
363		134.765625
364		142.578125
365		136.718750
366		142.578125
367		136.718750
368		142.578125
369		136.718750
370		142.578125
371		136.718750
372		144.531250
373		140.625000
374		142.578125
375		140.625000
376		142.578125
377		138.671875
378		146.484375
379		138.671875
380		146.484375
381		138.671875
382		146.484375
383		138.671875
384		146.484375
385		138.671875
386		146.484375
387		138.671875
388		146.484375
389		138.671875
390		146.484375
391		140.625000
392		144.531250
393		138.671875
394		144.531250
395		138.671875
396		144.531250
397		136.718750
398		144.531250
399		136.718750
400		144.531250
401		134.765625
402		144.531250
403		134.765625
404		142.578125
405		134.765625
406		142.578125
407		136.718750
408		138.671875
409		134.765625
410		138.671875
411		130.859375
412		138.671875
413		130.859375
414		138.671875
415		128.906250
416		136.718750
417		126.953125
418		134.765625
419		126.953125
420		134.765625
421		125.000000
422		132.812500
423		125.000000
424		130.859375
425		123.046875
426		126.953125
427		119.140625
428		126.953125
429		117.187500
430		126.953125
431		117.187500
432		123.046875
433		115.234375
434		121.093750
435		111.328125
436		119.140625
437		109.375000
438		117.187500
439		109.375000
440		115.234375
441		107.421875
442		111.328125
443		103.515625
444		109.375000
445		99.609375
446		109.375000
447		97.656250
448		107.421875
449		95.703125
450		103.515625
451		93.750000
452		99.609375
453		89.843750
454		97.656250
455		85.937500
456		95.703125
457		85.937500
458		89.843750
459		83.984375
460		87.890625
461		78.125000
462		85.937500
463		74.218750
464		82.031250
465		70.312500
466		80.078125
467		68.359375
468		76.171875
469		64.453125
470		74.218750
471		60.546875
472		70.312500
473		60.546875
474		66.406250
475		56.640625
476		60.546875
477		50.781250
478		58.593750
479		46.875000
480		54.687500
481		42.968750
482		52.734375
483		39.062500
484		48.828125
485		35.156250
486		44.921875
487		33.203125
488		41.015625
489		29.296875
490		37.109375
491		25.390625
492		31.250000
493		21.484375
494		27.343750
495		15.625000
496		25.390625
497		11.718750
498		21.484375
499		7.812500
500		17.578125
501		3.906250
502		13.671875
503		0.000000
504		9.765625
505		-3.906250
506		3.906250
507		-5.859375
508		1.953125
509		-9.765625
510		-5.859375
511		-15.625000
512		-9.765625
513		-21.484375
514		-11.718750
515		-25.390625
516		-15.625000
517		-29.296875
518		-19.531250
519		-33.203125
520		-23.437500
521		-37.109375
522		-27.343750
523		-41.015625
524		-33.203125
525		-42.968750
526		-37.109375
527		-50.781250
528		-42.968750
529		-52.734375
530		-44.921875
531		-56.640625
532		-48.828125
533		-62.500000
534		-50.781250
535		-64.453125
536		-56.640625
537		-70.312500
538		-58.593750
539		-74.218750
540		-64.453125
541		-74.218750
542		-70.312500
543		-78.125000
544		-74.218750
545		-85.937500
546		-76.171875
547		-87.890625
548		-78.125000
549		-91.796875
550		-82.031250
551		-95.703125
552		-87.890625
553		-99.609375
554		-91.796875
555		-103.515625
556		-93.750000
557		-103.515625
558		-97.656250
559		-107.421875
560		-103.515625
561		-111.328125
562		-105.468750
563		-115.234375
564		-107.421875
565		-119.140625
566		-109.375000
567		-123.046875
568		-113.281250
569		-125.000000
570		-117.187500
571		-128.906250
572		-119.140625
573		-130.859375
574		-121.093750
575		-130.859375
576		-126.953125
577		-132.812500
578		-128.906250
579		-138.671875
580		-130.859375
581		-140.625000
582		-132.812500
583		-142.578125
584		-134.765625
585		-144.531250
586		-136.718750
587		-146.484375
588		-138.671875
589		-148.437500
590		-140.625000
591		-148.437500
592		-144.531250
593		-150.390625
594		-146.484375
595		-154.296875
596		-148.437500
597		-156.250000
598		-148.437500
599		-158.203125
600		-150.390625
601		-160.156250
602		-150.390625
603		-160.156250
604		-152.343750
605		-162.109375
606		-154.296875
607		-162.109375
608		-154.296875
609		-160.156250
610		-158.203125
611		-162.109375
612		-156.250000
613		-164.062500
614		-156.250000
615		-164.062500
616		-156.250000
617		-164.062500
618		-158.203125
619		-164.062500
620		-158.203125
621		-164.062500
622		-158.203125
623		-164.062500
624		-158.203125
625		-162.109375
626		-160.156250
627		-162.109375
628		-160.156250
629		-164.062500
630		-156.250000
631		-164.062500
632		-156.250000
633		-162.109375
634		-154.296875
635		-162.109375
636		-154.296875
637		-162.109375
638		-154.296875
639		-160.156250
640		-152.343750
641		-158.203125
642		-152.343750
643		-154.296875
644		-152.343750
645		-154.296875
646		-148.437500
647		-154.296875
648		-146.484375
649		-154.296875
650		-144.531250
651		-150.390625
652		-142.578125
653		-148.437500
654		-140.625000
655		-146.484375
656		-138.671875
657		-144.531250
658		-136.718750
659		-140.625000
660		-136.718750
661		-138.671875
662		-134.765625
663		-138.671875
664		-128.906250
665		-134.765625
666		-126.953125
667		-132.812500
668		-125.000000
669		-130.859375
670		-121.093750
671		-126.953125
672		-119.140625
673		-125.000000
674		-115.234375
675		-121.093750
676		-113.281250
677		-115.234375
678		-111.328125
679		-113.281250
680		-105.468750
681		-111.328125
682		-103.515625
683		-107.421875
684		-99.609375
685		-105.468750
686		-93.750000
687		-99.609375
688		-91.796875
689		-97.656250
690		-87.890625
691		-93.750000
692		-85.937500
693		-87.890625
694		-82.031250
695		-83.984375
696		-78.125000
697		-82.031250
698		-72.265625
699		-78.125000
700		-70.312500
701		-74.218750
702		-64.453125
703		-70.312500
704		-60.546875
705		-66.406250
706		-56.640625
707		-62.500000
708		-52.734375
709		-56.640625
710		-50.781250
711		-52.734375
712		-46.875000
713		-46.875000
714		-39.062500
715		-46.875000
716		-35.156250
717		-41.015625
718		-33.203125
719		-37.109375
720		-27.343750
721		-33.203125
722		-23.437500
723		-29.296875
724		-17.578125
725		-23.437500
726		-17.578125
727		-17.578125
728		-13.671875
729		-13.671875
730		-7.812500
731		-13.671875
732		-1.953125
733		-7.812500
734		1.953125
735		-3.906250
736		5.859375
737		0.000000
738		9.765625
739		3.906250
740		13.671875
741		7.812500
742		17.578125
743		15.625000
744		19.531250
745		17.578125
746		23.437500
747		21.484375
748		29.296875
749		23.437500
750		33.203125
751		27.343750
752		37.109375
753		31.250000
754		41.015625
755		35.156250
756		44.921875
757		39.062500
758		48.828125
759		44.921875
760		50.781250
761		48.828125
762		54.687500
763		52.734375
764		58.593750
765		52.734375
766		62.500000
767		56.640625
768		66.406250
769		60.546875
770		70.312500
771		64.453125
772		72.265625
773		66.406250
774		76.171875
775		70.312500
776		78.125000
777		76.171875
778		80.078125
779		80.078125
780		83.984375
781		80.078125
782		87.890625
783		83.984375
784		91.796875
785		85.937500
786		93.750000
787		87.890625
788		97.656250
789		91.796875
790		99.609375
791		93.750000
792		101.562500
793		97.656250
794		101.562500
795		101.562500
796		105.468750
797		101.562500
798		109.375000
799		103.515625
800		111.328125
801		105.468750
802		113.281250
803		107.421875
804		117.187500
805		111.328125
806		119.140625
807		113.281250
808		121.093750
809		113.281250
810		121.093750
811		119.140625
812		121.093750
813		119.140625
814		126.953125
815		119.140625
816		128.906250
817		121.093750
818		128.906250
819		123.046875
820		130.859375
821		125.000000
822		132.812500
823		126.953125
824		134.765625
825		126.953125
826		134.765625
827		130.859375
828		134.765625
829		132.812500
830		134.765625
831		130.859375
832		138.671875
833		130.859375
834		138.671875
835		132.812500
836		140.625000
837		134.765625
838		140.625000
839		134.765625
840		142.578125
841		134.765625
842		142.578125
843		136.718750
844		142.578125
845		138.671875
846		140.625000
847		136.718750
848		144.531250
849		136.718750
850		144.531250
851		138.671875
852		144.531250
853		138.671875
854		144.531250
855		138.671875
856		144.531250
857		138.671875
858		144.531250
859		136.718750
860		144.531250
861		140.625000
862		142.578125
863		140.625000
864		142.578125
865		138.671875
866		144.531250
867		136.718750
868		144.531250
869		136.718750
870		144.531250
871		136.718750
872		144.531250
873		136.718750
874		142.578125
875		134.765625
876		142.578125
877		134.765625
878		140.625000
879		134.765625
880		138.671875
881		132.812500
882		138.671875
883		130.859375
884		138.671875
885		130.859375
886		138.671875
887		128.906250
888		136.718750
889		126.953125
890		136.718750
891		126.953125
892		134.765625
893		125.000000
894		132.812500
895		125.000000
896		128.906250
897		121.093750
898		126.953125
899		121.093750
900		128.906250
901		119.140625
902		126.953125
903		115.234375
904		125.000000
905		113.281250
906		123.046875
907		113.281250
908		121.093750
909		111.328125
910		119.140625
911		111.328125
912		115.234375
913		107.421875
914		113.281250
915		103.515625
916		111.328125
917		101.562500
918		109.375000
919		99.609375
920		107.421875
921		93.750000
922		103.515625
923		93.750000
924		101.562500
925		89.843750
926		99.609375
927		89.843750
928		95.703125
929		87.890625
930		91.796875
931		82.031250
932		87.890625
933		78.125000
934		87.890625
935		76.171875
936		83.984375
937		74.218750
938		80.078125
939		68.359375
940		78.125000
941		66.406250
942		74.218750
943		62.500000
944		72.265625
945		60.546875
946		66.406250
947		58.593750
948		62.500000
949		52.734375
950		62.500000
951		46.875000
952		58.593750
953		44.921875
954		52.734375
955		41.015625
956		50.781250
957		37.109375
958		46.875000
959		33.203125
960		42.968750
961		31.250000
962		39.062500
963		27.343750
964		33.203125
965		23.437500
966		29.296875
967		17.578125
968		27.343750
969		13.671875
970		23.437500
971		9.765625
972		19.531250
973		5.859375
974		13.671875
975		1.953125
976		9.765625
977		0.000000
978		5.859375
979		-3.906250
980		0.000000
981		-11.718750
982		-3.906250
983		-13.671875
984		-5.859375
985		-19.531250
986		-9.765625
987		-23.437500
988		-13.671875
989		-27.343750
990		-17.578125
991		-31.250000
992		-23.437500
993		-35.156250
994		-25.390625
995		-37.109375
996		-33.203125
997		-41.015625
998		-35.156250
999		-46.875000
1000		-39.062500
1001		-52.734375
1002		-42.968750
1003		-56.640625
1004		-46.875000
1005		-60.546875
1006		-50.781250
1007		-64.453125
1008		-54.687500
1009		-66.406250
1010		-58.593750
1011		-70.312500
1012		-62.500000
1013		-74.218750
1014		-68.359375
1015		-78.125000
1016		-72.265625
1017		-83.984375
1018		-72.265625
1019		-85.937500
1020		-78.125000
1021		-91.796875
1022		-82.031250
1023		-95.703125
1024		-85.937500
1025		-97.656250
1026		-87.890625
1027		-101.562500
1028		-93.750000
1029		-101.562500
1030		-97.656250
1031		-105.468750
1032		-101.562500
1033		-111.328125
1034		-101.562500
1035		-115.234375
1036		-105.468750
1037		-117.187500
1038		-109.375000
1039		-119.140625
1040		-111.328125
1041		-123.046875
1042		-113.281250
1043		-126.953125
1044		-117.187500
1045		-126.953125
1046		-121.093750
1047		-128.906250
1048		-125.000000
1049		-134.765625
1050		-128.906250
1051		-136.718750
1052		-128.906250
1053		-138.671875
1054		-130.859375
1055		-140.625000
1056		-134.765625
1057		-142.578125
1058		-136.718750
1059		-146.484375
1060		-136.718750
1061		-146.484375
1062		-138.671875
1063		-146.484375
1064		-144.531250
1065		-150.390625
1066		-146.484375
1067		-154.296875
1068		-146.484375
1069		-156.250000
1070		-146.484375
1071		-156.250000
1072		-148.437500
1073		-158.203125
1074		-150.390625
1075		-158.203125
1076		-150.390625
1077		-160.156250
1078		-152.343750
1079		-158.203125
1080		-156.250000
1081		-158.203125
1082		-156.250000
1083		-162.109375
1084		-154.296875
1085		-162.109375
1086		-156.250000
1087		-164.062500
1088		-156.250000
1089		-164.062500
1090		-156.250000
1091		-164.062500
1092		-156.250000
1093		-164.062500
1094		-156.250000
1095		-164.062500
1096		-158.203125
1097		-160.156250
1098		-158.203125
1099		-162.109375
1100		-156.250000
1101		-162.109375
1102		-156.250000
1103		-162.109375
1104		-154.296875
1105		-162.109375
1106		-154.296875
1107		-162.109375
1108		-154.296875
1109		-160.156250
1110		-152.343750
1111		-160.156250
1112		-150.390625
1113		-156.250000
1114		-152.343750
1115		-154.296875
1116		-150.390625
1117		-154.296875
1118		-148.437500
1119		-154.296875
1120		-146.484375
1121		-152.343750
1122		-144.531250
1123		-150.390625
1124		-142.578125
1125		-148.437500
1126		-140.625000
1127		-146.484375
1128		-138.671875
1129		-142.578125
1130		-138.671875
1131		-140.625000
1132		-136.718750
1133		-138.671875
1134		-130.859375
1135		-136.718750
1136		-128.906250
1137		-134.765625
1138		-126.953125
1139		-130.859375
1140		-125.000000
1141		-130.859375
1142		-121.093750
1143		-126.953125
1144		-117.187500
1145		-125.000000
1146		-117.187500
1147		-119.140625
1148		-115.234375
1149		-115.234375
1150		-109.375000
1151		-115.234375
1152		-105.468750
1153		-111.328125
1154		-103.515625
1155		-107.421875
1156		-99.609375
1157		-103.515625
1158		-95.703125
1159		-101.562500
1160		-91.796875
1161		-97.656250
1162		-87.890625
1163		-91.796875
1164		-85.937500
1165		-87.890625
1166		-82.031250
1167		-83.984375
1168		-78.125000
1169		-83.984375
1170		-74.218750
1171		-80.078125
1172		-68.359375
1173		-74.218750
1174		-64.453125
1175		-70.312500
1176		-62.500000
1177		-68.359375
1178		-56.640625
1179		-62.500000
1180		-54.687500
1181		-56.640625
1182		-50.781250
1183		-52.734375
1184		-44.921875
1185		-48.828125
1186		-41.015625
1187		-46.875000
1188		-37.109375
1189		-42.968750
1190		-33.203125
1191		-37.109375
1192		-29.296875
1193		-33.203125
1194		-25.390625
1195		-29.296875
1196		-21.484375
1197		-23.437500
1198		-17.578125
1199		-19.531250
1200		-13.671875
1201		-15.625000
1202		-7.812500
1203		-13.671875
1204		-3.906250
1205		-9.765625
1206		1.953125
1207		-5.859375
1208		3.906250
1209		0.000000
1210		9.765625
1211		3.906250
1212		13.671875
1213		7.812500
1214		15.625000
1215		13.671875
1216		19.531250
1217		17.578125
1218		25.390625
1219		21.484375
1220		29.296875
1221		23.437500
1222		33.203125
1223		27.343750
1224		35.156250
1225		31.250000
1226		41.015625
1227		33.203125
1228		44.921875
1229		39.062500
1230		44.921875
1231		44.921875
1232		48.828125
1233		48.828125
1234		54.687500
1235		48.828125
1236		58.593750
1237		52.734375
1238		62.500000
1239		56.640625
1240		66.406250
1241		60.546875
1242		68.359375
1243		62.500000
1244		72.265625
1245		66.406250
1246		76.171875
1247		72.265625
1248		76.171875
1249		76.171875
1250		80.078125
1251		78.125000
1252		85.937500
1253		78.125000
1254		87.890625
1255		82.031250
1256		91.796875
1257		83.984375
1258		93.750000
1259		87.890625
1260		95.703125
1261		89.843750
1262		99.609375
1263		93.750000
1264		99.609375
1265		97.656250
1266		101.562500
1267		99.609375
1268		105.468750
1269		99.609375
1270		109.375000
1271		103.515625
1272		111.328125
1273		105.468750
1274		113.281250
1275		107.421875
1276		117.187500
1277		109.375000
1278		117.187500
1279		113.281250
1280		119.140625
1281		117.187500
1282		119.140625
1283		119.140625
1284		121.093750
1285		117.187500
1286		125.000000
1287		119.140625
1288		126.953125
1289		121.093750
1290		128.906250
1291		123.046875
1292		130.859375
1293		125.000000
1294		132.812500
1295		126.953125
1296		134.765625
1297		126.953125
1298		134.765625
1299		130.859375
1300		134.765625
1301		130.859375
1302		138.671875
1303		130.859375
1304		138.671875
1305		132.812500
1306		138.671875
1307		132.812500
1308		140.625000
1309		134.765625
1310		142.578125
1311		134.765625
1312		142.578125
1313		134.765625
1314		142.578125
1315		138.671875
1316		140.625000
1317		138.671875
1318		144.531250
1319		136.718750
1320		144.531250
1321		138.671875
1322		144.531250
1323		136.718750
1324		144.531250
1325		138.671875
1326		144.531250
1327		138.671875
1328		146.484375
1329		138.671875
1330		146.484375
1331		140.625000
1332		144.531250
1333		140.625000
1334		144.531250
1335		138.671875
1336		144.531250
1337		138.671875
1338		144.531250
1339		138.671875
1340		144.531250
1341		136.718750
1342		144.531250
1343		136.718750
1344		144.531250
1345		136.718750
1346		144.531250
1347		136.718750
1348		142.578125
1349		138.671875
1350		140.625000
1351		134.765625
1352		140.625000
1353		132.812500
1354		140.625000
1355		132.812500
1356		140.625000
1357		132.812500
1358		138.671875
1359		130.859375
1360		136.718750
1361		128.906250
1362		136.718750
1363		128.906250
1364		136.718750
1365		128.906250
1366		132.812500
1367		126.953125
1368		130.859375
1369		123.046875
1370		130.859375
1371		121.093750
1372		128.906250
1373		119.140625
1374		126.953125
1375		119.140625
1376		126.953125
1377		117.187500
1378		123.046875
1379		113.281250
1380		121.093750
1381		113.281250
1382		121.093750
1383		113.281250
1384		117.187500
1385		109.375000
1386		115.234375
1387		105.468750
1388		113.281250
1389		103.515625
1390		111.328125
1391		99.609375
1392		109.375000
1393		97.656250
1394		105.468750
1395		95.703125
1396		103.515625
1397		93.750000
1398		101.562500
1399		91.796875
1400		97.656250
1401		87.890625
1402		93.750000
1403		83.984375
1404		93.750000
1405		82.031250
1406		89.843750
1407		78.125000
1408		87.890625
1409		74.218750
1410		83.984375
1411		72.265625
1412		82.031250
1413		68.359375
1414		76.171875
1415		68.359375
1416		74.218750
1417		64.453125
1418		70.312500
1419		58.593750
1420		66.406250
1421		54.687500
1422		64.453125
1423		50.781250
1424		60.546875
1425		46.875000
1426		56.640625
1427		42.968750
1428		52.734375
1429		41.015625
1430		48.828125
1431		39.062500
1432		46.875000
1433		35.156250
1434		41.015625
1435		29.296875
1436		37.109375
1437		25.390625
1438		35.156250
1439		21.484375
1440		29.296875
1441		17.578125
1442		25.390625
1443		13.671875
1444		23.437500
1445		9.765625
1446		17.578125
1447		5.859375
1448		15.625000
1449		3.906250
1450		7.812500
1451		-1.953125
1452		3.906250
1453		-7.812500
1454		1.953125
1455		-11.718750
1456		-1.953125
1457		-15.625000
1458		-5.859375
1459		-17.578125
1460		-11.718750
1461		-23.437500
1462		-13.671875
1463		-27.343750
1464		-17.578125
1465		-29.296875
1466		-21.484375
1467		-33.203125
1468		-29.296875
1469		-41.015625
1470		-33.203125
1471		-44.921875
1472		-35.156250
1473		-48.828125
1474		-39.062500
1475		-52.734375
1476		-42.968750
1477		-56.640625
1478		-48.828125
1479		-58.593750
1480		-50.781250
1481		-62.500000
1482		-54.687500
1483		-66.406250
1484		-60.546875
1485		-70.312500
1486		-64.453125
1487		-76.171875
1488		-66.406250
1489		-80.078125
1490		-70.312500
1491		-83.984375
1492		-74.218750
1493		-87.890625
1494		-78.125000
1495		-91.796875
1496		-82.031250
1497		-93.750000
1498		-85.937500
1499		-95.703125
1500		-89.843750
1501		-99.609375
1502		-93.750000
1503		-105.468750
1504		-97.656250
1505		-107.421875
1506		-99.609375
1507		-111.328125
1508		-103.515625
1509		-113.281250
1510		-105.468750
1511		-117.187500
1512		-107.421875
1513		-121.093750
1514		-113.281250
1515		-123.046875
1516		-115.234375
1517		-125.000000
1518		-121.093750
1519		-128.906250
1520		-123.046875
1521		-132.812500
1522		-123.046875
1523		-134.765625
1524		-126.953125
1525		-136.718750
1526		-128.906250
1527		-138.671875
1528		-130.859375
1529		-142.578125
1530		-134.765625
1531		-144.531250
1532		-134.765625
1533		-144.531250
1534		-140.625000
1535		-146.484375
1536		-142.578125
1537		-150.390625
1538		-142.578125
1539		-152.343750
1540		-142.578125
1541		-154.296875
1542		-144.531250
1543		-156.250000
1544		-146.484375
1545		-156.250000
1546		-148.437500
1547		-158.203125
1548		-150.390625
1549		-156.250000
1550		-152.343750
1551		-156.250000
1552		-154.296875
1553		-160.156250
1554		-154.296875
1555		-162.109375
1556		-154.296875
1557		-164.062500
1558		-154.296875
1559		-164.062500
1560		-156.250000
1561		-164.062500
1562		-156.250000
1563		-164.062500
1564		-156.250000
1565		-164.062500
1566		-158.203125
1567		-162.109375
1568		-160.156250
1569		-162.109375
1570		-160.156250
1571		-164.062500
1572		-156.250000
1573		-164.062500
1574		-156.250000
1575		-164.062500
1576		-156.250000
1577		-164.062500
1578		-156.250000
1579		-162.109375
1580		-156.250000
1581		-162.109375
1582		-154.296875
1583		-160.156250
1584		-154.296875
1585		-158.203125
1586		-154.296875
1587		-156.250000
1588		-152.343750
1589		-156.250000
1590		-150.390625
1591		-154.296875
1592		-148.437500
1593		-154.296875
1594		-148.437500
1595		-152.343750
1596		-146.484375
1597		-150.390625
1598		-144.531250
1599		-148.437500
1600		-142.578125
1601		-144.531250
1602		-140.625000
1603		-142.578125
1604		-138.671875
1605		-142.578125
1606		-134.765625
1607		-140.625000
1608		-132.812500
1609		-138.671875
1610		-130.859375
1611		-136.718750
1612		-126.953125
1613		-132.812500
1614		-125.000000
1615		-130.859375
1616		-121.093750
1617		-125.000000
1618		-121.093750
1619		-123.046875
1620		-117.187500
1621		-121.093750
1622		-113.281250
1623		-119.140625
1624		-109.375000
1625		-115.234375
1626		-105.468750
1627		-111.328125
1628		-103.515625
1629		-109.375000
1630		-99.609375
1631		-105.468750
1632		-95.703125
1633		-101.562500
1634		-93.750000
1635		-95.703125
1636		-91.796875
1637		-91.796875
1638		-85.937500
1639		-91.796875
1640		-82.031250
1641		-87.890625
1642		-78.125000
1643		-83.984375
1644		-74.218750
1645		-78.125000
1646		-70.312500
1647		-76.171875
1648		-66.406250
1649		-70.312500
1650		-62.500000
1651		-64.453125
1652		-60.546875
1653		-60.546875
1654		-56.640625
1655		-58.593750
1656		-50.781250
1657		-54.687500
1658		-44.921875
1659		-50.781250
1660		-41.015625
1661		-46.875000
1662		-37.109375
1663		-42.968750
1664		-33.203125
1665		-39.062500
1666		-27.343750
1667		-35.156250
1668		-27.343750
1669		-27.343750
1670		-23.437500
1671		-23.437500
1672		-15.625000
1673		-21.484375
1674		-11.718750
1675		-17.578125
1676		-7.812500
1677		-13.671875
1678		-3.906250
1679		-9.765625
1680		0.000000
1681		-5.859375
1682		3.906250
1683		-1.953125
1684		5.859375
1685		5.859375
1686		9.765625
1687		9.765625
1688		15.625000
1689		9.765625
1690		19.531250
1691		15.625000
1692		23.437500
1693		17.578125
1694		27.343750
1695		23.437500
1696		33.203125
1697		25.390625
1698		35.156250
1699		31.250000
1700		39.062500
1701		37.109375
1702		41.015625
1703		41.015625
1704		44.921875
1705		42.968750
1706		50.781250
1707		44.921875
1708		54.687500
1709		48.828125
1710		58.593750
1711		52.734375
1712		62.500000
1713		54.687500
1714		64.453125
1715		58.593750
1716		68.359375
1717		62.500000
1718		70.312500
1719		68.359375
1720		72.265625
1721		72.265625
1722		78.125000
1723		72.265625
1724		82.031250
1725		74.218750
1726		83.984375
1727		78.125000
1728		87.890625
1729		82.031250
1730		89.843750
1731		83.984375
1732		93.750000
1733		85.937500
1734		95.703125
1735		91.796875
1736		97.656250
1737		95.703125
1738		99.609375
1739		95.703125
1740		103.515625
1741		97.656250
1742		107.421875
1743		99.609375
1744		109.375000
1745		103.515625
1746		111.328125
1747		105.468750
1748		113.281250
1749		107.421875
1750		115.234375
1751		109.375000
1752		115.234375
1753		113.281250
1754		117.187500
1755		113.281250
1756		121.093750
1757		115.234375
1758		123.046875
1759		117.187500
1760		125.000000
1761		119.140625
1762		126.953125
1763		121.093750
1764		128.906250
1765		123.046875
1766		130.859375
1767		123.046875
1768		130.859375
1769		126.953125
1770		130.859375
1771		128.906250
1772		132.812500
1773		128.906250
1774		136.718750
1775		128.906250
1776		136.718750
1777		130.859375
1778		138.671875
1779		130.859375
1780		138.671875
1781		130.859375
1782		138.671875
1783		132.812500
1784		140.625000
1785		136.718750
1786		138.671875
1787		136.718750
1788		140.625000
1789		136.718750
1790		142.578125
1791		136.718750
1792		144.531250
1793		136.718750
1794		142.578125
1795		136.718750
1796		144.531250
1797		136.718750
1798		144.531250
1799		136.718750
1800		144.531250
1801		136.718750
1802		144.531250
1803		138.671875
1804		142.578125
1805		138.671875
1806		142.578125
1807		136.718750
1808		144.531250
1809		136.718750
1810		144.531250
1811		136.718750
1812		144.531250
1813		136.718750
1814		144.531250
1815		136.718750
1816		144.531250
1817		136.718750
1818		142.578125
1819		138.671875
1820		140.625000
1821		136.718750
1822		140.625000
1823		134.765625
1824		142.578125
1825		132.812500
1826		140.625000
1827		130.859375
1828		138.671875
1829		130.859375
1830		138.671875
1831		128.906250
1832		136.718750
1833		128.906250
1834		136.718750
1835		128.906250
1836		134.765625
1837		128.906250
1838		130.859375
1839		125.000000
1840		130.859375
1841		125.000000
1842		130.859375
1843		121.093750
1844		128.906250
1845		119.140625
1846		128.906250
1847		119.140625
1848		126.953125
1849		117.187500
1850		123.046875
1851		115.234375
1852		123.046875
1853		115.234375
1854		119.140625
1855		113.281250
1856		117.187500
1857		107.421875
1858		115.234375
1859		105.468750
1860		113.281250
1861		103.515625
1862		111.328125
1863		101.562500
1864		109.375000
1865		99.609375
1866		107.421875
1867		95.703125
1868		105.468750
1869		95.703125
1870		99.609375
1871		93.750000
1872		97.656250
1873		87.890625
1874		95.703125
1875		83.984375
1876		93.750000
1877		82.031250
1878		91.796875
1879		80.078125
1880		87.890625
1881		76.171875
1882		85.937500
1883		72.265625
1884		82.031250
1885		72.265625
1886		80.078125
1887		68.359375
1888		74.218750
1889		64.453125
1890		70.312500
1891		60.546875
1892		68.359375
1893		56.640625
1894		66.406250
1895		52.734375
1896		60.546875
1897		48.828125
1898		58.593750
1899		44.921875
1900		54.687500
1901		42.968750
1902		50.781250
1903		39.062500
1904		44.921875
1905		37.109375
1906		41.015625
1907		29.296875
1908		39.062500
1909		25.390625
1910		35.156250
1911		23.437500
1912		31.250000
1913		17.578125
1914		29.296875
1915		15.625000
1916		23.437500
1917		9.765625
1918		21.484375
1919		7.812500
1920		15.625000
1921		3.906250
1922		9.765625
1923		-3.906250
1924		5.859375
1925		-7.812500
1926		1.953125
1927		-9.765625
1928		0.000000
1929		-13.671875
1930		-3.906250
1931		-17.578125
1932		-9.765625
1933		-23.437500
1934		-11.718750
1935		-25.390625
1936		-17.578125
1937		-29.296875
1938		-23.437500
1939		-33.203125
1940		-27.343750
1941		-39.062500
1942		-29.296875
1943		-42.968750
1944		-33.203125
1945		-46.875000
1946		-37.109375
1947		-52.734375
1948		-41.015625
1949		-54.687500
1950		-46.875000
1951		-60.546875
1952		-50.781250
1953		-60.546875
1954		-54.687500
1955		-66.406250
1956		-60.546875
1957		-70.312500
1958		-62.500000
1959		-74.218750
1960		-66.406250
1961		-78.125000
1962		-70.312500
1963		-83.984375
1964		-74.218750
1965		-85.937500
1966		-76.171875
1967		-89.843750
1968		-80.078125
1969		-91.796875
1970		-85.937500
1971		-95.703125
1972		-89.843750
1973		-99.609375
1974		-93.750000
1975		-105.468750
1976		-95.703125
1977		-107.421875
1978		-99.609375
1979		-111.328125
1980		-101.562500
1981		-115.234375
1982		-105.468750
1983		-117.187500
1984		-109.375000
1985		-121.093750
1986		-113.281250
1987		-121.093750
1988		-117.187500
1989		-125.000000
1990		-121.093750
1991		-128.906250
1992		-121.093750
1993		-132.812500
1994		-125.000000
1995		-134.765625
1996		-125.000000
1997		-138.671875
1998		-128.906250
1999		-140.625000
2000		-132.812500
2001		-142.578125
2002		-134.765625
2003		-142.578125
2004		-136.718750
2005		-144.531250
2006		-142.578125
2007		-148.437500
2008		-142.578125
2009		-152.343750
2010		-144.531250
2011		-154.296875
2012		-144.531250
2013		-156.250000
2014		-146.484375
2015		-156.250000
2016		-148.437500
2017		-158.203125
2018		-150.390625
2019		-158.203125
2020		-152.343750
2021		-158.203125
2022		-156.250000
2023		-160.156250
2024		-156.250000
2025		-164.062500
2026		-156.250000
2027		-164.062500
2028		-156.250000
2029		-166.015625
2030		-156.250000
2031		-166.015625
2032		-158.203125
2033		-166.015625
2034		-158.203125
2035		-166.015625
2036		-160.156250
2037		-164.062500
2038		-160.156250
2039		-164.062500
2040		-162.109375
2041		-167.968750
2042		-160.156250
2043		-167.968750
2044		-160.156250
2045		-166.015625
2046		-160.156250
2047		-166.015625
2048		-160.156250
2049		-166.015625
2050		-158.203125
2051		-166.015625
2052		-158.203125
2053		-164.062500
2054		-158.203125
2055		-162.109375
2056		-158.203125
2057		-162.109375
2058		-156.250000
2059		-162.109375
2060		-154.296875
2061		-162.109375
2062		-152.343750
2063		-160.156250
2064		-152.343750
2065		-158.203125
2066		-150.390625
2067		-156.250000
2068		-148.437500
2069		-154.296875
2070		-146.484375
2071		-150.390625
2072		-148.437500
2073		-148.437500
2074		-146.484375
2075		-150.390625
2076		-140.625000
2077		-146.484375
2078		-138.671875
2079		-144.531250
2080		-138.671875
2081		-142.578125
2082		-132.812500
2083		-140.625000
2084		-130.859375
2085		-136.718750
2086		-128.906250
2087		-134.765625
2088		-128.906250
2089		-130.859375
2090		-126.953125
2091		-128.906250
2092		-121.093750
2093		-126.953125
2094		-117.187500
2095		-125.000000
2096		-115.234375
2097		-121.093750
2098		-111.328125
2099		-117.187500
2100		-109.375000
2101		-113.281250
2102		-105.468750
2103		-111.328125
2104		-101.562500
2105		-105.468750
2106		-99.609375
2107		-101.562500
2108		-95.703125
2109		-99.609375
2110		-91.796875
2111		-95.703125
2112		-85.937500
2113		-91.796875
2114		-82.031250
2115		-87.890625
2116		-80.078125
2117		-85.937500
2118		-76.171875
2119		-80.078125
2120		-70.312500
2121		-76.171875
2122		-68.359375
2123		-70.312500
2124		-64.453125
2125		-66.406250
2126		-60.546875
2127		-64.453125
2128		-54.687500
2129		-60.546875
2130		-50.781250
2131		-56.640625
2132		-46.875000
2133		-52.734375
2134		-42.968750
2135		-46.875000
2136		-39.062500
2137		-44.921875
2138		-37.109375
2139		-37.109375
2140		-31.250000
2141		-33.203125
2142		-27.343750
2143		-31.250000
2144		-21.484375
2145		-27.343750
2146		-17.578125
2147		-23.437500
2148		-13.671875
2149		-19.531250
2150		-9.765625
2151		-13.671875
2152		-5.859375
2153		-11.718750
2154		-1.953125
2155		-3.906250
2156		1.953125
2157		0.000000
2158		5.859375
2159		3.906250
2160		11.718750
2161		5.859375
2162		15.625000
2163		9.765625
2164		19.531250
2165		13.671875
2166		23.437500
2167		17.578125
2168		27.343750
2169		23.437500
2170		31.250000
2171		25.390625
2172		33.203125
2173		31.250000
2174		37.109375
2175		35.156250
2176		42.968750
2177		37.109375
2178		46.875000
2179		41.015625
2180		48.828125
2181		44.921875
2182		52.734375
2183		46.875000
2184		56.640625
2185		50.781250
2186		60.546875
2187		54.687500
2188		64.453125
2189		60.546875
2190		64.453125
2191		64.453125
2192		68.359375
2193		66.406250
2194		74.218750
2195		68.359375
2196		78.125000
2197		72.265625
2198		80.078125
2199		74.218750
2200		82.031250
2201		76.171875
2202		85.937500
2203		82.031250
2204		89.843750
2205		83.984375
2206		89.843750
2207		87.890625
2208		91.796875
2209		89.843750
2210		97.656250
2211		91.796875
2212		99.609375
2213		93.750000
2214		103.515625
2215		97.656250
2216		105.468750
2217		99.609375
2218		107.421875
2219		101.562500
2220		109.375000
2221		103.515625
2222		111.328125
2223		109.375000
2224		111.328125
2225		111.328125
2226		115.234375
2227		111.328125
2228		117.187500
2229		113.281250
2230		121.093750
2231		115.234375
2232		123.046875
2233		115.234375
2234		123.046875
2235		117.187500
2236		125.000000
2237		119.140625
2238		126.953125
2239		123.046875
2240		126.953125
2241		125.000000
2242		128.906250
2243		125.000000
2244		132.812500
2245		125.000000
2246		132.812500
2247		126.953125
2248		134.765625
2249		126.953125
2250		136.718750
2251		128.906250
2252		136.718750
2253		130.859375
2254		136.718750
2255		130.859375
2256		136.718750
2257		134.765625
2258		136.718750
2259		132.812500
2260		138.671875
2261		132.812500
2262		140.625000
2263		132.812500
2264		140.625000
2265		134.765625
2266		142.578125
2267		134.765625
2268		142.578125
2269		134.765625
2270		142.578125
2271		134.765625
2272		142.578125
2273		138.671875
2274		142.578125
2275		138.671875
2276		140.625000
2277		136.718750
2278		142.578125
2279		136.718750
2280		142.578125
2281		136.718750
2282		144.531250
2283		134.765625
2284		142.578125
2285		134.765625
2286		142.578125
2287		134.765625
2288		142.578125
2289		136.718750
2290		140.625000
2291		136.718750
2292		138.671875
2293		132.812500
2294		140.625000
2295		132.812500
2296		140.625000
2297		132.812500
2298		138.671875
2299		130.859375
2300		138.671875
2301		130.859375
2302		138.671875
2303		128.906250
2304		136.718750
2305		128.906250
2306		136.718750
2307		128.906250
2308		132.812500
2309		126.953125
2310		130.859375
2311		123.046875
2312		132.812500
2313		123.046875
2314		130.859375
2315		121.093750
2316		128.906250
2317		119.140625
2318		126.953125
2319		117.187500
2320		125.000000
2321		115.234375
2322		125.000000
2323		117.187500
2324		119.140625
2325		115.234375
2326		117.187500
2327		111.328125
2328		117.187500
2329		107.421875
2330		117.187500
2331		105.468750
2332		113.281250
2333		103.515625
2334		113.281250
2335		101.562500
2336		109.375000
2337		97.656250
2338		107.421875
2339		97.656250
2340		105.468750
2341		95.703125
2342		99.609375
2343		93.750000
2344		97.656250
2345		87.890625
2346		97.656250
2347		83.984375
2348		93.750000
2349		82.031250
2350		91.796875
2351		80.078125
2352		87.890625
2353		76.171875
2354		85.937500
2355		74.218750
2356		82.031250
2357		72.265625
2358		78.125000
2359		68.359375
2360		74.218750
2361		64.453125
2362		70.312500
2363		60.546875
2364		68.359375
2365		56.640625
2366		64.453125
2367		52.734375
2368		62.500000
2369		48.828125
2370		58.593750
2371		46.875000
2372		54.687500
2373		44.921875
2374		50.781250
2375		41.015625
2376		44.921875
2377		35.156250
2378		41.015625
2379		31.250000
2380		39.062500
2381		27.343750
2382		35.156250
2383		23.437500
2384		33.203125
2385		19.531250
2386		29.296875
2387		15.625000
2388		23.437500
2389		13.671875
2390		19.531250
2391		9.765625
2392		13.671875
2393		3.906250
2394		9.765625
2395		-1.953125
2396		7.812500
2397		-5.859375
2398		3.906250
2399		-9.765625
2400		0.000000
2401		-13.671875
2402		-3.906250
2403		-17.578125
2404		-7.812500
2405		-21.484375
2406		-11.718750
2407		-23.437500
2408		-17.578125
2409		-27.343750
2410		-23.437500
2411		-35.156250
2412		-27.343750
2413		-39.062500
2414		-29.296875
2415		-42.968750
2416		-33.203125
2417		-44.921875
2418		-39.062500
2419		-50.781250
2420		-41.015625
2421		-54.687500
2422		-44.921875
2423		-56.640625
2424		-48.828125
2425		-60.546875
2426		-54.687500
2427		-66.406250
2428		-58.593750
2429		-70.312500
2430		-62.500000
2431		-74.218750
2432		-66.406250
2433		-78.125000
2434		-70.312500
2435		-80.078125
2436		-74.218750
2437		-85.937500
2438		-78.125000
2439		-87.890625
2440		-82.031250
2441		-91.796875
2442		-85.937500
2443		-95.703125
2444		-89.843750
2445		-99.609375
2446		-91.796875
2447		-103.515625
2448		-95.703125
2449		-107.421875
2450		-97.656250
2451		-111.328125
2452		-101.562500
2453		-113.281250
2454		-105.468750
2455		-117.187500
2456		-109.375000
2457		-119.140625
2458		-111.328125
2459		-121.093750
2460		-117.187500
2461		-126.953125
2462		-119.140625
2463		-130.859375
2464		-121.093750
2465		-132.812500
2466		-125.000000
2467		-134.765625
2468		-126.953125
2469		-138.671875
2470		-128.906250
2471		-140.625000
2472		-130.859375
2473		-142.578125
2474		-134.765625
2475		-142.578125
2476		-138.671875
2477		-144.531250
2478		-140.625000
2479		-148.437500
2480		-140.625000
2481		-152.343750
2482		-144.531250
2483		-154.296875
2484		-146.484375
2485		-156.250000
2486		-148.437500
2487		-156.250000
2488		-148.437500
2489		-158.203125
2490		-150.390625
2491		-156.250000
2492		-154.296875
2493		-158.203125
2494		-156.250000
2495		-162.109375
2496		-156.250000
2497		-164.062500
2498		-156.250000
2499		-164.062500
2500		-156.250000
2501		-166.015625
2502		-158.203125
2503		-166.015625
2504		-158.203125
2505		-166.015625
2506		-158.203125
2507		-166.015625
2508		-160.156250
2509		-164.062500
2510		-162.109375
2511		-166.015625
2512		-162.109375
2513		-167.968750
2514		-160.156250
2515		-167.968750
2516		-160.156250
2517		-167.968750
2518		-160.156250
2519		-167.968750
2520		-160.156250
2521		-167.968750
2522		-160.156250
2523		-166.015625
2524		-160.156250
2525		-164.062500
2526		-160.156250
2527		-162.109375
2528		-160.156250
2529		-164.062500
2530		-158.203125
2531		-164.062500
2532		-156.250000
2533		-162.109375
2534		-154.296875
2535		-162.109375
2536		-154.296875
2537		-160.156250
2538		-152.343750
2539		-158.203125
2540		-150.390625
2541		-158.203125
2542		-150.390625
2543		-152.343750
2544		-148.437500
2545		-152.343750
2546		-144.531250
2547		-150.390625
2548		-142.578125
2549		-148.437500
2550		-140.625000
2551		-146.484375
2552		-138.671875
2553		-144.531250
2554		-136.718750
2555		-140.625000
2556		-134.765625
2557		-138.671875
2558		-130.859375
2559		-134.765625
2560		-130.859375
2561		-132.812500
2562		-126.953125
2563		-130.859375
2564		-123.046875
2565		-126.953125
2566		-119.140625
2567		-125.000000
2568		-117.187500
2569		-123.046875
2570		-113.281250
2571		-119.140625
2572		-111.328125
2573		-115.234375
2574		-107.421875
2575		-111.328125
2576		-105.468750
2577		-107.421875
2578		-101.562500
2579		-103.515625
2580		-95.703125
2581		-101.562500
2582		-91.796875
2583		-97.656250
2584		-89.843750
2585		-93.750000
2586		-85.937500
2587		-91.796875
2588		-82.031250
2589		-85.937500
2590		-76.171875
2591		-82.031250
2592		-76.171875
2593		-76.171875
2594		-70.312500
2595		-72.265625
2596		-66.406250
2597		-70.312500
2598		-60.546875
2599		-66.406250
2600		-56.640625
2601		-62.500000
2602		-54.687500
2603		-58.593750
2604		-50.781250
2605		-54.687500
2606		-44.921875
2607		-50.781250
2608		-41.015625
2609		-44.921875
2610		-39.062500
2611		-39.062500
2612		-35.156250
2613		-37.109375
2614		-27.343750
2615		-33.203125
2616		-23.437500
2617		-29.296875
2618		-19.531250
2619		-25.390625
2620		-15.625000
2621		-21.484375
2622		-11.718750
2623		-17.578125
2624		-7.812500
2625		-13.671875
2626		-5.859375
2627		-5.859375
2628		-1.953125
2629		-1.953125
2630		3.906250
2631		0.000000
2632		7.812500
2633		1.953125
2634		13.671875
2635		7.812500
2636		17.578125
2637		11.718750
2638		21.484375
2639		15.625000
2640		23.437500
2641		19.531250
2642		27.343750
2643		25.390625
2644		31.250000
2645		29.296875
2646		35.156250
2647		31.250000
2648		41.015625
2649		35.156250
2650		42.968750
2651		39.062500
2652		48.828125
2653		42.968750
2654		52.734375
2655		44.921875
2656		54.687500
2657		48.828125
2658		58.593750
2659		54.687500
2660		60.546875
2661		58.593750
2662		64.453125
2663		62.500000
2664		68.359375
2665		64.453125
2666		72.265625
2667		66.406250
2668		74.218750
2669		70.312500
2670		78.125000
2671		72.265625
2672		82.031250
2673		76.171875
2674		83.984375
2675		78.125000
2676		85.937500
2677		83.984375
2678		87.890625
2679		87.890625
2680		91.796875
2681		87.890625
2682		95.703125
2683		89.843750
2684		97.656250
2685		93.750000
2686		101.562500
2687		95.703125
2688		103.515625
2689		99.609375
2690		107.421875
2691		101.562500
2692		109.375000
2693		105.468750
2694		109.375000
2695		107.421875
2696		111.328125
2697		107.421875
2698		115.234375
2699		111.328125
2700		117.187500
2701		111.328125
2702		119.140625
2703		113.281250
2704		121.093750
2705		115.234375
2706		123.046875
2707		117.187500
2708		125.000000
2709		119.140625
2710		125.000000
2711		123.046875
2712		126.953125
2713		123.046875
2714		128.906250
2715		123.046875
2716		132.812500
2717		125.000000
2718		132.812500
2719		126.953125
2720		132.812500
2721		126.953125
2722		134.765625
2723		128.906250
2724		136.718750
2725		130.859375
2726		136.718750
2727		132.812500
2728		136.718750
2729		134.765625
2730		136.718750
2731		132.812500
2732		140.625000
2733		132.812500
2734		140.625000
2735		134.765625
2736		140.625000
2737		134.765625
2738		142.578125
2739		136.718750
2740		142.578125
2741		134.765625
2742		144.531250
2743		136.718750
2744		140.625000
2745		138.671875
2746		142.578125
2747		136.718750
2748		144.531250
2749		136.718750
2750		144.531250
2751		136.718750
2752		144.531250
2753		136.718750
2754		144.531250
2755		136.718750
2756		144.531250
2757		136.718750
2758		144.531250
2759		136.718750
2760		142.578125
2761		138.671875
2762		140.625000
2763		136.718750
2764		140.625000
2765		134.765625
2766		142.578125
2767		132.812500
2768		140.625000
2769		132.812500
2770		140.625000
2771		132.812500
2772		140.625000
2773		130.859375
2774		138.671875
2775		130.859375
2776		138.671875
2777		130.859375
2778		134.765625
2779		130.859375
2780		134.765625
2781		126.953125
2782		134.765625
2783		126.953125
2784		134.765625
2785		125.000000
2786		132.812500
2787		123.046875
2788		130.859375
2789		121.093750
2790		128.906250
2791		119.140625
2792		128.906250
2793		119.140625
2794		125.000000
2795		119.140625
2796		123.046875
2797		113.281250
2798		121.093750
2799		113.281250
2800		121.093750
2801		111.328125
2802		119.140625
2803		109.375000
2804		115.234375
2805		107.421875
2806		113.281250
2807		103.515625
2808		111.328125
2809		101.562500
2810		109.375000
2811		101.562500
2812		105.468750
2813		99.609375
2814		103.515625
2815		93.750000
2816		101.562500
2817		91.796875
2818		99.609375
2819		89.843750
2820		95.703125
2821		85.937500
2822		93.750000
2823		82.031250
2824		91.796875
2825		78.125000
2826		87.890625
2827		78.125000
2828		83.984375
2829		76.171875
2830		80.078125
2831		70.312500
2832		78.125000
2833		66.406250
2834		74.218750
2835		62.500000
2836		72.265625
2837		60.546875
2838		70.312500
2839		56.640625
2840		66.406250
2841		52.734375
2842		60.546875
2843		50.781250
2844		58.593750
2845		46.875000
2846		52.734375
2847		42.968750
2848		48.828125
2849		39.062500
2850		46.875000
2851		37.109375
2852		42.968750
2853		31.250000
2854		41.015625
2855		27.343750
2856		35.156250
2857		23.437500
2858		31.250000
2859		19.531250
2860		27.343750
2861		17.578125
2862		21.484375
2863		13.671875
2864		17.578125
2865		7.812500
2866		15.625000
2867		3.906250
2868		11.718750
2869		-1.953125
2870		7.812500
2871		-5.859375
2872		3.906250
2873		-9.765625
2874		0.000000
2875		-11.718750
2876		-3.906250
2877		-15.625000
2878		-7.812500
2879		-19.531250
2880		-13.671875
2881		-25.390625
2882		-19.531250
2883		-29.296875
2884		-19.531250
2885		-33.203125
2886		-25.390625
2887		-39.062500
2888		-29.296875
2889		-42.968750
2890		-33.203125
2891		-46.875000
2892		-37.109375
2893		-48.828125
2894		-42.968750
2895		-52.734375
2896		-46.875000
2897		-56.640625
2898		-50.781250
2899		-62.500000
2900		-54.687500
2901		-66.406250
2902		-58.593750
2903		-72.265625
2904		-62.500000
2905		-74.218750
2906		-66.406250
2907		-80.078125
2908		-68.359375
2909		-82.031250
2910		-72.265625
2911		-83.984375
2912		-76.171875
2913		-87.890625
2914		-83.984375
2915		-93.750000
2916		-85.937500
2917		-97.656250
2918		-87.890625
2919		-101.562500
2920		-91.796875
2921		-103.515625
2922		-95.703125
2923		-107.421875
2924		-99.609375
2925		-111.328125
2926		-103.515625
2927		-113.281250
2928		-105.468750
2929		-115.234375
2930		-111.328125
2931		-119.140625
2932		-113.281250
2933		-125.000000
2934		-115.234375
2935		-126.953125
2936		-119.140625
2937		-130.859375
2938		-121.093750
2939		-132.812500
2940		-125.000000
2941		-134.765625
2942		-126.953125
2943		-138.671875
2944		-130.859375
2945		-138.671875
2946		-134.765625
2947		-140.625000
2948		-136.718750
2949		-146.484375
2950		-138.671875
2951		-146.484375
2952		-138.671875
2953		-150.390625
2954		-140.625000
2955		-152.343750
2956		-144.531250
2957		-154.296875
2958		-144.531250
2959		-154.296875
2960		-148.437500
2961		-156.250000
2962		-148.437500
2963		-156.250000
2964		-152.343750
2965		-158.203125
2966		-154.296875
2967		-162.109375
2968		-152.343750
2969		-162.109375
2970		-156.250000
2971		-164.062500
2972		-156.250000
2973		-164.062500
2974		-156.250000
2975		-166.015625
2976		-158.203125
2977		-166.015625
2978		-158.203125
2979		-164.062500
2980		-162.109375
2981		-164.062500
2982		-162.109375
2983		-167.968750
2984		-160.156250
2985		-167.968750
2986		-160.156250
2987		-167.968750
2988		-160.156250
2989		-167.968750
2990		-160.156250
2991		-167.968750
2992		-160.156250
2993		-167.968750
2994		-160.156250
2995		-166.015625
2996		-160.156250
2997		-164.062500
2998		-162.109375
2999		-166.015625
3000		-158.203125
3001		-166.015625
3002		-158.203125
3003		-164.062500
3004		-156.250000
3005		-164.062500
3006		-154.296875
3007		-162.109375
3008		-154.296875
3009		-160.156250
3010		-154.296875
3011		-160.156250
3012		-152.343750
3013		-156.250000
3014		-152.343750
3015		-154.296875
3016		-148.437500
3017		-154.296875
3018		-146.484375
3019		-152.343750
3020		-144.531250
3021		-150.390625
3022		-142.578125
3023		-148.437500
3024		-140.625000
3025		-146.484375
3026		-138.671875
3027		-144.531250
3028		-136.718750
3029		-138.671875
3030		-134.765625
3031		-136.718750
3032		-132.812500
3033		-134.765625
3034		-126.953125
3035		-134.765625
3036		-125.000000
3037		-130.859375
3038		-121.093750
3039		-126.953125
3040		-119.140625
3041		-125.000000
3042		-115.234375
3043		-123.046875
3044		-113.281250
3045		-119.140625
3046		-111.328125
3047		-113.281250
3048		-107.421875
3049		-109.375000
3050		-103.515625
3051		-109.375000
3052		-99.609375
3053		-105.468750
3054		-95.703125
3055		-99.609375
3056		-93.750000
3057		-97.656250
3058		-87.890625
3059		-93.750000
3060		-83.984375
3061		-89.843750
3062		-82.031250
3063		-83.984375
3064		-78.125000
3065		-80.078125
3066		-74.218750
3067		-78.125000
3068		-68.359375
3069		-74.218750
3070		-64.453125
3071		-70.312500
3072		-60.546875
3073		-66.406250
3074		-56.640625
3075		-60.546875
3076		-52.734375
3077		-58.593750
3078		-48.828125
3079		-54.687500
3080		-46.875000
3081		-46.875000
3082		-42.968750
3083		-42.968750
3084		-35.156250
3085		-41.015625
3086		-33.203125
3087		-37.109375
3088		-27.343750
3089		-33.203125
3090		-23.437500
3091		-27.343750
3092		-19.531250
3093		-25.390625
3094		-15.625000
3095		-19.531250
3096		-11.718750
3097		-13.671875
3098		-7.812500
3099		-9.765625
3100		-3.906250
3101		-7.812500
3102		1.953125
3103		-3.906250
3104		5.859375
3105		0.000000
3106		9.765625
3107		3.906250
3108		13.671875
3109		7.812500
3110		17.578125
3111		11.718750
3112		21.484375
3113		17.578125
3114		23.437500
3115		23.437500
3116		27.343750
3117		27.343750
3118		33.203125
3119		27.343750
3120		37.109375
3121		31.250000
3122		41.015625
3123		35.156250
3124		44.921875
3125		39.062500
3126		46.875000
3127		42.968750
3128		52.734375
3129		48.828125
3130		54.687500
3131		50.781250
3132		56.640625
3133		56.640625
3134		60.546875
3135		56.640625
3136		64.453125
3137		60.546875
3138		70.312500
3139		64.453125
3140		72.265625
3141		68.359375
3142		76.171875
3143		70.312500
3144		78.125000
3145		74.218750
3146		82.031250
3147		78.125000
3148		83.984375
3149		82.031250
3150		85.937500
3151		82.031250
3152		89.843750
3153		83.984375
3154		93.750000
3155		87.890625
3156		95.703125
3157		89.843750
3158		99.609375
3159		91.796875
3160		103.515625
3161		95.703125
3162		103.515625
3163		97.656250
3164		103.515625
3165		103.515625
3166		107.421875
3167		105.468750
3168		111.328125
3169		105.468750
3170		113.281250
3171		107.421875
3172		115.234375
3173		109.375000
3174		117.187500
3175		111.328125
3176		119.140625
3177		113.281250
3178		121.093750
3179		115.234375
3180		123.046875
3181		119.140625
3182		123.046875
3183		121.093750
3184		125.000000
3185		121.093750
3186		128.906250
3187		123.046875
3188		130.859375
3189		123.046875
3190		130.859375
3191		125.000000
3192		132.812500
3193		125.000000
3194		132.812500
3195		126.953125
3196		134.765625
3197		130.859375
3198		132.812500
3199		130.859375
3200		134.765625
3201		130.859375
3202		136.718750
3203		130.859375
3204		138.671875
3205		132.812500
3206		140.625000
3207		132.812500
3208		138.671875
3209		132.812500
3210		140.625000
3211		134.765625
3212		140.625000
3213		134.765625
3214		140.625000
3215		136.718750
3216		140.625000
3217		136.718750
3218		140.625000
3219		134.765625
3220		142.578125
3221		134.765625
3222		142.578125
3223		134.765625
3224		142.578125
3225		136.718750
3226		142.578125
3227		134.765625
3228		142.578125
3229		134.765625
3230		142.578125
3231		136.718750
3232		140.625000
3233		136.718750
3234		140.625000
3235		134.765625
3236		140.625000
3237		132.812500
3238		140.625000
3239		132.812500
3240		140.625000
3241		132.812500
3242		140.625000
3243		130.859375
3244		138.671875
3245		130.859375
3246		138.671875
3247		130.859375
3248		136.718750
3249		130.859375
3250		134.765625
3251		128.906250
3252		134.765625
3253		126.953125
3254		134.765625
3255		125.000000
3256		132.812500
3257		123.046875
3258		132.812500
3259		123.046875
3260		130.859375
3261		121.093750
3262		130.859375
3263		121.093750
3264		126.953125
3265		121.093750
3266		123.046875
3267		117.187500
3268		121.093750
3269		115.234375
3270		121.093750
3271		113.281250
3272		119.140625
3273		111.328125
3274		117.187500
3275		109.375000
3276		115.234375
3277		107.421875
3278		113.281250
3279		105.468750
3280		111.328125
3281		103.515625
3282		109.375000
3283		101.562500
3284		105.468750
3285		97.656250
3286		103.515625
3287		93.750000
3288		101.562500
3289		91.796875
3290		99.609375
3291		89.843750
3292		97.656250
3293		85.937500
3294		95.703125
3295		82.031250
3296		91.796875
3297		82.031250
3298		87.890625
3299		78.125000
3300		83.984375
3301		76.171875
3302		80.078125
3303		70.312500
3304		80.078125
3305		66.406250
3306		76.171875
3307		64.453125
3308		72.265625
3309		60.546875
3310		70.312500
3311		56.640625
3312		66.406250
3313		54.687500
3314		64.453125
3315		52.734375
3316		56.640625
3317		48.828125
3318		52.734375
3319		42.968750
3320		50.781250
3321		39.062500
3322		46.875000
3323		35.156250
3324		44.921875
3325		31.250000
3326		41.015625
3327		27.343750
3328		37.109375
3329		23.437500
3330		33.203125
3331		21.484375
3332		29.296875
3333		17.578125
3334		23.437500
3335		11.718750
3336		19.531250
3337		7.812500
3338		17.578125
3339		3.906250
3340		13.671875
3341		-1.953125
3342		7.812500
3343		-3.906250
3344		3.906250
3345		-7.812500
3346		1.953125
3347		-11.718750
3348		-1.953125
3349		-13.671875
3350		-9.765625
3351		-19.531250
3352		-13.671875
3353		-25.390625
3354		-15.625000
3355		-29.296875
3356		-19.531250
3357		-35.156250
3358		-23.437500
3359		-37.109375
3360		-29.296875
3361		-42.968750
3362		-31.250000
3363		-46.875000
3364		-37.109375
3365		-46.875000
3366		-42.968750
3367		-52.734375
3368		-46.875000
3369		-58.593750
3370		-50.781250
3371		-62.500000
3372		-52.734375
3373		-66.406250
3374		-56.640625
3375		-70.312500
3376		-60.546875
3377		-74.218750
3378		-64.453125
3379		-78.125000
3380		-70.312500
3381		-80.078125
3382		-74.218750
3383		-83.984375
3384		-78.125000
3385		-87.890625
3386		-82.031250
3387		-93.750000
3388		-83.984375
3389		-95.703125
3390		-87.890625
3391		-101.562500
3392		-91.796875
3393		-105.468750
3394		-95.703125
3395		-107.421875
3396		-97.656250
3397		-111.328125
3398		-101.562500
3399		-111.328125
3400		-107.421875
3401		-115.234375
3402		-111.328125
3403		-121.093750
3404		-113.281250
3405		-123.046875
3406		-115.234375
3407		-126.953125
3408		-117.187500
3409		-128.906250
3410		-121.093750
3411		-132.812500
3412		-125.000000
3413		-134.765625
3414		-126.953125
3415		-136.718750
3416		-128.906250
3417		-138.671875
3418		-134.765625
3419		-142.578125
3420		-136.718750
3421		-144.531250
3422		-136.718750
3423		-148.437500
3424		-138.671875
3425		-150.390625
3426		-140.625000
3427		-152.343750
3428		-144.531250
3429		-154.296875
3430		-144.531250
3431		-154.296875
3432		-148.437500
3433		-154.296875
3434		-150.390625
3435		-156.250000
3436		-152.343750
3437		-160.156250
3438		-152.343750
3439		-162.109375
3440		-154.296875
3441		-162.109375
3442		-154.296875
3443		-164.062500
3444		-156.250000
3445		-166.015625
3446		-158.203125
3447		-166.015625
3448		-158.203125
3449		-166.015625
3450		-160.156250
3451		-164.062500
3452		-162.109375
3453		-167.968750
3454		-160.156250
3455		-167.968750
3456		-160.156250
3457		-167.968750
3458		-162.109375
3459		-169.921875
3460		-162.109375
3461		-169.921875
3462		-162.109375
3463		-169.921875
3464		-162.109375
3465		-167.968750
3466		-162.109375
3467		-166.015625
3468		-164.062500
3469		-166.015625
3470		-162.109375
3471		-167.968750
3472		-160.156250
3473		-166.015625
3474		-160.156250
3475		-166.015625
3476		-158.203125
3477		-166.015625
3478		-156.250000
3479		-164.062500
3480		-156.250000
3481		-164.062500
3482		-154.296875
3483		-158.203125
3484		-156.250000
3485		-158.203125
3486		-154.296875
3487		-158.203125
3488		-150.390625
3489		-156.250000
3490		-148.437500
3491		-154.296875
3492		-148.437500
3493		-152.343750
3494		-144.531250
3495		-150.390625
3496		-142.578125
3497		-148.437500
3498		-140.625000
3499		-148.437500
3500		-140.625000
3501		-142.578125
3502		-138.671875
3503		-140.625000
3504		-134.765625
3505		-138.671875
3506		-130.859375
3507		-136.718750
3508		-128.906250
3509		-134.765625
3510		-125.000000
3511		-130.859375
3512		-123.046875
3513		-126.953125
3514		-119.140625
3515		-125.000000
3516		-117.187500
3517		-119.140625
3518		-115.234375
3519		-117.187500
3520		-111.328125
3521		-113.281250
3522		-107.421875
3523		-111.328125
3524		-101.562500
3525		-107.421875
3526		-99.609375
3527		-105.468750
3528		-95.703125
3529		-101.562500
3530		-91.796875
3531		-97.656250
3532		-87.890625
3533		-93.750000
3534		-85.937500
3535		-87.890625
3536		-82.031250
3537		-83.984375
3538		-78.125000
3539		-82.031250
3540		-72.265625
3541		-78.125000
3542		-70.312500
3543		-76.171875
3544		-64.453125
3545		-70.312500
3546		-60.546875
3547		-64.453125
3548		-58.593750
3549		-62.500000
3550		-54.687500
3551		-56.640625
3552		-50.781250
3553		-50.781250
3554		-44.921875
3555		-50.781250
3556		-39.062500
3557		-44.921875
3558		-37.109375
3559		-41.015625
3560		-31.250000
3561		-37.109375
3562		-27.343750
3563		-31.250000
3564		-23.437500
3565		-29.296875
3566		-19.531250
3567		-23.437500
3568		-17.578125
3569		-17.578125
3570		-11.718750
3571		-15.625000
3572		-7.812500
3573		-13.671875
3574		-1.953125
3575		-7.812500
3576		1.953125
3577		-1.953125
3578		5.859375
3579		1.953125
3580		7.812500
3581		3.906250
3582		13.671875
3583		7.812500
3584		15.625000
3585		13.671875
3586		19.531250
3587		19.531250
3588		25.390625
3589		19.531250
3590		29.296875
3591		23.437500
3592		33.203125
3593		29.296875
3594		35.156250
3595		31.250000
3596		41.015625
3597		37.109375
3598		44.921875
3599		39.062500
3600		48.828125
3601		44.921875
3602		50.781250
3603		48.828125
3604		52.734375
3605		50.781250
3606		58.593750
3607		52.734375
3608		62.500000
3609		56.640625
3610		64.453125
3611		60.546875
3612		66.406250
3613		66.406250
3614		70.312500
3615		66.406250
3616		74.218750
3617		70.312500
3618		76.171875
3619		76.171875
3620		80.078125
3621		78.125000
3622		83.984375
3623		80.078125
3624		87.890625
3625		82.031250
3626		89.843750
3627		85.937500
3628		91.796875
3629		89.843750
3630		93.750000
3631		91.796875
3632		97.656250
3633		93.750000
3634		101.562500
3635		97.656250
3636		101.562500
3637		99.609375
3638		105.468750
3639		101.562500
3640		107.421875
3641		103.515625
3642		109.375000
3643		107.421875
3644		111.328125
3645		109.375000
3646		113.281250
3647		111.328125
3648		115.234375
3649		111.328125
3650		117.187500
3651		115.234375
3652		119.140625
3653		117.187500
3654		121.093750
3655		119.140625
3656		123.046875
3657		117.187500
3658		126.953125
3659		121.093750
3660		125.000000
3661		123.046875
3662		126.953125
3663		125.000000
3664		128.906250
3665		126.953125
3666		130.859375
3667		126.953125
3668		130.859375
3669		128.906250
3670		132.812500
3671		128.906250
3672		134.765625
3673		130.859375
3674		134.765625
3675		132.812500
3676		136.718750
3677		132.812500
3678		134.765625
3679		132.812500
3680		136.718750
3681		132.812500
3682		136.718750
3683		134.765625
3684		138.671875
3685		134.765625
3686		138.671875
3687		136.718750
3688		138.671875
3689		136.718750
3690		138.671875
3691		136.718750
3692		140.625000
3693		136.718750
3694		140.625000
3695		136.718750
3696		140.625000
3697		136.718750
3698		140.625000
3699		136.718750
3700		140.625000
3701		136.718750
3702		140.625000
3703		136.718750
3704		140.625000
3705		134.765625
3706		140.625000
3707		136.718750
3708		138.671875
3709		134.765625
3710		138.671875
3711		134.765625
3712		138.671875
3713		134.765625
3714		138.671875
3715		132.812500
3716		136.718750
3717		132.812500
3718		136.718750
3719		132.812500
3720		134.765625
3721		130.859375
3722		134.765625
3723		128.906250
3724		134.765625
3725		128.906250
3726		132.812500
3727		128.906250
3728		130.859375
3729		126.953125
3730		130.859375
3731		125.000000
3732		128.906250
3733		123.046875
3734		126.953125
3735		123.046875
3736		125.000000
3737		121.093750
3738		125.000000
3739		119.140625
3740		123.046875
3741		117.187500
3742		121.093750
3743		115.234375
3744		119.140625
3745		113.281250
3746		117.187500
3747		111.328125
3748		115.234375
3749		109.375000
3750		113.281250
3751		107.421875
3752		111.328125
3753		105.468750
3754		109.375000
3755		101.562500
3756		105.468750
3757		99.609375
3758		103.515625
3759		97.656250
3760		101.562500
3761		95.703125
3762		99.609375
3763		91.796875
3764		97.656250
3765		89.843750
3766		93.750000
3767		85.937500
3768		91.796875
3769		83.984375
3770		87.890625
3771		80.078125
3772		83.984375
3773		78.125000
3774		82.031250
3775		74.218750
3776		80.078125
3777		70.312500
3778		76.171875
3779		66.406250
3780		74.218750
3781		64.453125
3782		68.359375
3783		60.546875
3784		66.406250
3785		58.593750
3786		62.500000
3787		54.687500
3788		58.593750
3789		48.828125
3790		54.687500
3791		46.875000
3792		52.734375
3793		42.968750
3794		48.828125
3795		39.062500
3796		44.921875
3797		35.156250
3798		41.015625
3799		31.250000
3800		37.109375
3801		27.343750
3802		33.203125
3803		23.437500
3804		29.296875
3805		19.531250
3806		25.390625
3807		15.625000
3808		21.484375
3809		11.718750
3810		17.578125
3811		7.812500
3812		13.671875
3813		3.906250
3814		9.765625
3815		-1.953125
3816		5.859375
3817		-5.859375
3818		0.000000
3819		-7.812500
3820		-1.953125
3821		-11.718750
3822		-7.812500
3823		-17.578125
3824		-11.718750
3825		-21.484375
3826		-15.625000
3827		-25.390625
3828		-19.531250
3829		-29.296875
3830		-23.437500
3831		-35.156250
3832		-27.343750
3833		-37.109375
3834		-31.250000
3835		-41.015625
3836		-37.109375
3837		-44.921875
3838		-41.015625
3839		-50.781250
3840		-44.921875
3841		-54.687500
3842		-48.828125
3843		-58.593750
3844		-52.734375
3845		-62.500000
3846		-56.640625
3847		-66.406250
3848		-60.546875
3849		-70.312500
3850		-64.453125
3851		-74.218750
3852		-68.359375
3853		-78.125000
3854		-72.265625
3855		-82.031250
3856		-76.171875
3857		-85.937500
3858		-80.078125
3859		-89.843750
3860		-83.984375
3861		-93.750000
3862		-87.890625
3863		-95.703125
3864		-91.796875
3865		-99.609375
3866		-93.750000
3867		-103.515625
3868		-97.656250
3869		-107.421875
3870		-101.562500
3871		-111.328125
3872		-105.468750
3873		-115.234375
3874		-109.375000
3875		-117.187500
3876		-113.281250
3877		-121.093750
3878		-115.234375
3879		-123.046875
3880		-119.140625
3881		-126.953125
3882		-121.093750
3883		-128.906250
3884		-125.000000
3885		-132.812500
3886		-126.953125
3887		-134.765625
3888		-130.859375
3889		-136.718750
3890		-132.812500
3891		-140.625000
3892		-134.765625
3893		-142.578125
3894		-138.671875
3895		-144.531250
3896		-140.625000
3897		-146.484375
3898		-142.578125
3899		-148.437500
3900		-144.531250
3901		-150.390625
3902		-146.484375
3903		-152.343750
3904		-148.437500
3905		-154.296875
3906		-150.390625
3907		-156.250000
3908		-152.343750
3909		-158.203125
3910		-154.296875
3911		-158.203125
3912		-156.250000
3913		-160.156250
3914		-156.250000
3915		-162.109375
3916		-158.203125
3917		-162.109375
3918		-158.203125
3919		-164.062500
3920		-160.156250
3921		-164.062500
3922		-162.109375
3923		-166.015625
3924		-162.109375
3925		-166.015625
3926		-162.109375
3927		-166.015625
3928		-162.109375
3929		-166.015625
3930		-164.062500
3931		-166.015625
3932		-164.062500
3933		-167.968750
3934		-164.062500
3935		-167.968750
3936		-162.109375
3937		-166.015625
3938		-164.062500
3939		-166.015625
3940		-164.062500
3941		-167.968750
3942		-162.109375
3943		-166.015625
3944		-162.109375
3945		-166.015625
3946		-162.109375
3947		-166.015625
3948		-160.156250
3949		-164.062500
3950		-160.156250
3951		-162.109375
3952		-158.203125
3953		-162.109375
3954		-158.203125
3955		-160.156250
3956		-156.250000
3957		-158.203125
3958		-154.296875
3959		-156.250000
3960		-154.296875
3961		-156.250000
3962		-150.390625
3963		-154.296875
3964		-150.390625
3965		-152.343750
3966		-148.437500
3967		-150.390625
3968		-146.484375
3969		-148.437500
3970		-142.578125
3971		-146.484375
3972		-142.578125
3973		-142.578125
3974		-138.671875
3975		-142.578125
3976		-136.718750
3977		-138.671875
3978		-134.765625
3979		-134.765625
3980		-130.859375
3981		-132.812500
3982		-126.953125
3983		-130.859375
3984		-125.000000
3985		-128.906250
3986		-123.046875
3987		-125.000000
3988		-119.140625
3989		-121.093750
3990		-117.187500
3991		-117.187500
3992		-111.328125
3993		-115.234375
3994		-107.421875
3995		-113.281250
3996		-105.468750
3997		-109.375000
3998		-103.515625
3999		-103.515625
4000		-99.609375
4001		-101.562500
4002		-93.750000
4003		-97.656250
4004		-91.796875
4005		-93.750000
4006		-87.890625
4007		-89.843750
4008		-82.031250
4009		-85.937500
4010		-80.078125
4011		-82.031250
4012		-76.171875
4013		-80.078125
4014		-72.265625
4015		-74.218750
4016		-68.359375
4017		-70.312500
4018		-64.453125
4019		-66.406250
4020		-58.593750
4021		-62.500000
4022		-56.640625
4023		-58.593750
4024		-52.734375
4025		-52.734375
4026		-46.875000
4027		-48.828125
4028		-42.968750
4029		-46.875000
4030		-39.062500
4031		-41.015625
4032		-35.156250
4033		-37.109375
4034		-29.296875
4035		-33.203125
4036		-27.343750
4037		-29.296875
4038		-23.437500
4039		-25.390625
4040		-17.578125
4041		-19.531250
4042		-13.671875
4043		-17.578125
4044		-7.812500
4045		-13.671875
4046		-5.859375
4047		-9.765625
4048		0.000000
4049		-3.906250
4050		3.906250
4051		0.000000
4052		7.812500
4053		3.906250
4054		9.765625
4055		7.812500
4056		13.671875
4057		11.718750
4058		17.578125
4059		15.625000
4060		23.437500
4061		19.531250
4062		27.343750
4063		23.437500
4064		31.250000
4065		27.343750
4066		35.156250
4067		31.250000
4068		39.062500
4069		35.156250
4070		42.968750
4071		39.062500
4072		44.921875
4073		42.968750
4074		48.828125
4075		46.875000
4076		54.687500
4077		48.828125
4078		56.640625
4079		52.734375
4080		60.546875
4081		56.640625
4082		64.453125
4083		60.546875
4084		66.406250
4085		62.500000
4086		70.312500
4087		66.406250
4088		72.265625
4089		70.312500
4090		76.171875
4091		74.218750
4092		80.078125
4093		76.171875
4094		82.031250
4095		80.078125
4096		85.937500
4097		82.031250
4098		89.843750
4099		83.984375
4100		91.796875
4101		87.890625
4102		93.750000
4103		89.843750
4104		97.656250
4105		93.750000
4106		97.656250
4107		97.656250
4108		101.562500
4109		99.609375
4110		103.515625
4111		101.562500
4112		105.468750
4113		103.515625
4114		107.421875
4115		107.421875
4116		109.375000
4117		109.375000
4118		113.281250
4119		111.328125
4120		115.234375
4121		113.281250
4122		117.187500
4123		115.234375
4124		119.140625
4125		117.187500
4126		121.093750
4127		119.140625
4128		121.093750
4129		119.140625
4130		123.046875
4131		121.093750
4132		125.000000
4133		123.046875
4134		126.953125
4135		125.000000
4136		128.906250
4137		126.953125
4138		130.859375
4139		126.953125
4140		130.859375
4141		128.906250
4142		132.812500
4143		130.859375
4144		132.812500
4145		130.859375
4146		134.765625
4147		132.812500
4148		134.765625
4149		132.812500
4150		136.718750
4151		134.765625
4152		136.718750
4153		134.765625
4154		138.671875
4155		134.765625
4156		138.671875
4157		136.718750
4158		138.671875
4159		136.718750
4160		138.671875
4161		136.718750
4162		140.625000
4163		138.671875
4164		140.625000
4165		138.671875
4166		140.625000
4167		138.671875
4168		140.625000
4169		138.671875
4170		140.625000
4171		138.671875
4172		140.625000
4173		138.671875
4174		140.625000
4175		138.671875
4176		140.625000
4177		138.671875
4178		140.625000
4179		138.671875
4180		140.625000
4181		138.671875
4182		140.625000
4183		136.718750
4184		138.671875
4185		136.718750
4186		138.671875
4187		136.718750
4188		138.671875
4189		134.765625
4190		138.671875
4191		134.765625
4192		136.718750
4193		132.812500
4194		136.718750
4195		132.812500
4196		134.765625
4197		130.859375
4198		134.765625
4199		130.859375
4200		132.812500
4201		128.906250
4202		132.812500
4203		128.906250
4204		130.859375
4205		126.953125
4206		128.906250
4207		125.000000
4208		128.906250
4209		121.093750
4210		128.906250
4211		119.140625
4212		128.906250
4213		117.187500
4214		126.953125
4215		117.187500
4216		125.000000
4217		115.234375
4218		119.140625
4219		115.234375
4220		117.187500
4221		113.281250
4222		115.234375
4223		111.328125
4224		113.281250
4225		107.421875
4226		111.328125
4227		105.468750
4228		113.281250
4229		101.562500
4230		109.375000
4231		99.609375
4232		107.421875
4233		99.609375
4234		103.515625
4235		95.703125
4236		99.609375
4237		93.750000
4238		97.656250
4239		89.843750
4240		93.750000
4241		87.890625
4242		91.796875
4243		82.031250
4244		89.843750
4245		78.125000
4246		87.890625
4247		76.171875
4248		85.937500
4249		76.171875
4250		80.078125
4251		72.265625
4252		76.171875
4253		68.359375
4254		74.218750
4255		64.453125
4256		70.312500
4257		62.500000
4258		66.406250
4259		54.687500
4260		62.500000
4261		52.734375
4262		64.453125
4263		48.828125
4264		58.593750
4265		46.875000
4266		56.640625
4267		44.921875
4268		48.828125
4269		41.015625
4270		44.921875
4271		37.109375
4272		41.015625
4273		33.203125
4274		37.109375
4275		29.296875
4276		33.203125
4277		23.437500
4278		31.250000
4279		17.578125
4280		29.296875
4281		13.671875
4282		23.437500
4283		13.671875
4284		17.578125
4285		7.812500
4286		13.671875
4287		3.906250
4288		9.765625
4289		0.000000
4290		5.859375
4291		-3.906250
4292		1.953125
4293		-9.765625
4294		-1.953125
4295		-13.671875
4296		-3.906250
4297		-19.531250
4298		-7.812500
4299		-19.531250
4300		-11.718750
4301		-23.437500
4302		-19.531250
4303		-29.296875
4304		-23.437500
4305		-31.250000
4306		-25.390625
4307		-37.109375
4308		-31.250000
4309		-41.015625
4310		-35.156250
4311		-46.875000
4312		-37.109375
4313		-50.781250
4314		-41.015625
4315		-56.640625
4316		-44.921875
4317		-56.640625
4318		-52.734375
4319		-60.546875
4320		-56.640625
4321		-64.453125
4322		-60.546875
4323		-68.359375
4324		-64.453125
4325		-72.265625
4326		-68.359375
4327		-80.078125
4328		-70.312500
4329		-83.984375
4330		-72.265625
4331		-87.890625
4332		-76.171875
4333		-87.890625
4334		-82.031250
4335		-91.796875
4336		-87.890625
4337		-95.703125
4338		-89.843750
4339		-99.609375
4340		-93.750000
4341		-101.562500
4342		-97.656250
4343		-105.468750
4344		-101.562500
4345		-113.281250
4346		-101.562500
4347		-115.234375
4348		-103.515625
4349		-117.187500
4350		-107.421875
4351		-119.140625
4352		-115.234375
4353		-121.093750
4354		-117.187500
4355		-125.000000
4356		-121.093750
4357		-126.953125
4358		-123.046875
4359		-130.859375
4360		-126.953125
4361		-136.718750
4362		-126.953125
4363		-138.671875
4364		-128.906250
4365		-140.625000
4366		-130.859375
4367		-140.625000
4368		-136.718750
4369		-142.578125
4370		-138.671875
4371		-144.531250
4372		-142.578125
4373		-146.484375
4374		-144.531250
4375		-148.437500
4376		-146.484375
4377		-154.296875
4378		-146.484375
4379		-156.250000
4380		-146.484375
4381		-158.203125
4382		-148.437500
4383		-158.203125
4384		-150.390625
4385		-158.203125
4386		-154.296875
4387		-158.203125
4388		-156.250000
4389		-160.156250
4390		-158.203125
4391		-162.109375
4392		-158.203125
4393		-162.109375
4394		-160.156250
4395		-162.109375
4396		-160.156250
4397		-166.015625
4398		-158.203125
4399		-166.015625
4400		-158.203125
4401		-164.062500
4402		-162.109375
4403		-164.062500
4404		-162.109375
4405		-164.062500
4406		-162.109375
4407		-166.015625
4408		-162.109375
4409		-166.015625
4410		-162.109375
4411		-164.062500
4412		-162.109375
4413		-166.015625
4414		-160.156250
4415		-166.015625
4416		-160.156250
4417		-164.062500
4418		-160.156250
4419		-164.062500
4420		-160.156250
4421		-162.109375
4422		-160.156250
4423		-162.109375
4424		-158.203125
4425		-160.156250
4426		-158.203125
4427		-160.156250
4428		-154.296875
4429		-158.203125
4430		-156.250000
4431		-160.156250
4432		-152.343750
4433		-156.250000
4434		-152.343750
4435		-154.296875
4436		-150.390625
4437		-152.343750
4438		-148.437500
4439		-150.390625
4440		-146.484375
4441		-148.437500
4442		-144.531250
4443		-146.484375
4444		-142.578125
4445		-144.531250
4446		-140.625000
4447		-142.578125
4448		-138.671875
4449		-138.671875
4450		-134.765625
4451		-136.718750
4452		-132.812500
4453		-134.765625
4454		-128.906250
4455		-130.859375
4456		-126.953125
4457		-128.906250
4458		-125.000000
4459		-125.000000
4460		-121.093750
4461		-123.046875
4462		-117.187500
4463		-119.140625
4464		-113.281250
4465		-115.234375
4466		-111.328125
4467		-113.281250
4468		-107.421875
4469		-109.375000
4470		-103.515625
4471		-105.468750
4472		-101.562500
4473		-101.562500
4474		-97.656250
4475		-99.609375
4476		-93.750000
4477		-95.703125
4478		-89.843750
4479		-91.796875
4480		-85.937500
4481		-87.890625
4482		-82.031250
4483		-83.984375
4484		-78.125000
4485		-80.078125
4486		-74.218750
4487		-76.171875
4488		-70.312500
4489		-72.265625
4490		-66.406250
4491		-68.359375
4492		-62.500000
4493		-64.453125
4494		-58.593750
4495		-60.546875
4496		-52.734375
4497		-56.640625
4498		-50.781250
4499		-50.781250
4500		-46.875000
4501		-46.875000
4502		-41.015625
4503		-44.921875
4504		-37.109375
4505		-39.062500
4506		-33.203125
4507		-35.156250
4508		-29.296875
4509		-31.250000
4510		-25.390625
4511		-27.343750
4512		-19.531250
4513		-23.437500
4514		-15.625000
4515		-19.531250
4516		-11.718750
4517		-13.671875
4518		-7.812500
4519		-9.765625
4520		-3.906250
4521		-5.859375
4522		0.000000
4523		-1.953125
4524		3.906250
4525		1.953125
4526		7.812500
4527		7.812500
4528		11.718750
4529		11.718750
4530		15.625000
4531		13.671875
4532		19.531250
4533		19.531250
4534		23.437500
4535		23.437500
4536		29.296875
4537		25.390625
4538		31.250000
4539		31.250000
4540		35.156250
4541		33.203125
4542		39.062500
4543		39.062500
4544		42.968750
4545		41.015625
4546		46.875000
4547		44.921875
4548		52.734375
4549		46.875000
4550		52.734375
4551		52.734375
4552		58.593750
4553		54.687500
4554		62.500000
4555		58.593750
4556		64.453125
4557		62.500000
4558		68.359375
4559		66.406250
4560		70.312500
4561		70.312500
4562		74.218750
4563		70.312500
4564		78.125000
4565		74.218750
4566		80.078125
4567		78.125000
4568		83.984375
4569		82.031250
4570		85.937500
4571		83.984375
4572		89.843750
4573		87.890625
4574		91.796875
4575		89.843750
4576		93.750000
4577		93.750000
4578		97.656250
4579		95.703125
4580		101.562500
4581		97.656250
4582		103.515625
4583		101.562500
4584		105.468750
4585		103.515625
4586		107.421875
4587		105.468750
4588		109.375000
4589		107.421875
4590		111.328125
4591		109.375000
4592		113.281250
4593		111.328125
4594		115.234375
4595		113.281250
4596		117.187500
4597		113.281250
4598		121.093750
4599		117.187500
4600		121.093750
4601		119.140625
4602		123.046875
4603		121.093750
4604		125.000000
4605		121.093750
4606		126.953125
4607		125.000000
4608		126.953125
4609		126.953125
4610		128.906250
4611		126.953125
4612		130.859375
4613		126.953125
4614		132.812500
4615		128.906250
4616		132.812500
4617		130.859375
4618		134.765625
4619		130.859375
4620		136.718750
4621		130.859375
4622		136.718750
4623		134.765625
4624		136.718750
4625		134.765625
4626		136.718750
4627		134.765625
4628		138.671875
4629		134.765625
4630		140.625000
4631		134.765625
4632		140.625000
4633		136.718750
4634		140.625000
4635		136.718750
4636		140.625000
4637		136.718750
4638		140.625000
4639		136.718750
4640		140.625000
4641		138.671875
4642		140.625000
4643		138.671875
4644		140.625000
4645		138.671875
4646		140.625000
4647		134.765625
4648		142.578125
4649		136.718750
4650		142.578125
4651		138.671875
4652		140.625000
4653		136.718750
4654		140.625000
4655		136.718750
4656		140.625000
4657		136.718750
4658		138.671875
4659		136.718750
4660		138.671875
4661		134.765625
4662		138.671875
4663		132.812500
4664		138.671875
4665		132.812500
4666		136.718750
4667		132.812500
4668		134.765625
4669		130.859375
4670		134.765625
4671		130.859375
4672		134.765625
4673		128.906250
4674		132.812500
4675		128.906250
4676		130.859375
4677		126.953125
4678		130.859375
4679		125.000000
4680		128.906250
4681		125.000000
4682		126.953125
4683		123.046875
4684		125.000000
4685		121.093750
4686		125.000000
4687		119.140625
4688		123.046875
4689		117.187500
4690		121.093750
4691		115.234375
4692		119.140625
4693		113.281250
4694		117.187500
4695		111.328125
4696		115.234375
4697		109.375000
4698		113.281250
4699		107.421875
4700		111.328125
4701		105.468750
4702		107.421875
4703		101.562500
4704		105.468750
4705		99.609375
4706		103.515625
4707		97.656250
4708		101.562500
4709		93.750000
4710		97.656250
4711		91.796875
4712		95.703125
4713		87.890625
4714		93.750000
4715		85.937500
4716		89.843750
4717		83.984375
4718		87.890625
4719		80.078125
4720		83.984375
4721		76.171875
4722		82.031250
4723		74.218750
4724		78.125000
4725		70.312500
4726		74.218750
4727		66.406250
4728		72.265625
4729		64.453125
4730		68.359375
4731		60.546875
4732		64.453125
4733		56.640625
4734		60.546875
4735		52.734375
4736		58.593750
4737		48.828125
4738		54.687500
4739		44.921875
4740		50.781250
4741		41.015625
4742		46.875000
4743		37.109375
4744		42.968750
4745		35.156250
4746		39.062500
4747		31.250000
4748		35.156250
4749		27.343750
4750		31.250000
4751		23.437500
4752		27.343750
4753		19.531250
4754		23.437500
4755		15.625000
4756		19.531250
4757		11.718750
4758		15.625000
4759		5.859375
4760		11.718750
4761		1.953125
4762		7.812500
4763		-1.953125
4764		3.906250
4765		-5.859375
4766		0.000000
4767		-9.765625
4768		-3.906250
4769		-13.671875
4770		-7.812500
4771		-17.578125
4772		-13.671875
4773		-21.484375
4774		-17.578125
4775		-25.390625
4776		-21.484375
4777		-31.250000
4778		-25.390625
4779		-35.156250
4780		-29.296875
4781		-39.062500
4782		-33.203125
4783		-42.968750
4784		-37.109375
4785		-46.875000
4786		-41.015625
4787		-50.781250
4788		-46.875000
4789		-54.687500
4790		-48.828125
4791		-58.593750
4792		-54.687500
4793		-62.500000
4794		-58.593750
4795		-66.406250
4796		-62.500000
4797		-72.265625
4798		-66.406250
4799		-74.218750
4800		-70.312500
4801		-78.125000
4802		-74.218750
4803		-82.031250
4804		-78.125000
4805		-85.937500
4806		-82.031250
4807		-89.843750
4808		-85.937500
4809		-93.750000
4810		-87.890625
4811		-97.656250
4812		-91.796875
4813		-101.562500
4814		-95.703125
4815		-105.468750
4816		-97.656250
4817		-107.421875
4818		-103.515625
4819		-111.328125
4820		-107.421875
4821		-115.234375
4822		-109.375000
4823		-117.187500
4824		-113.281250
4825		-121.093750
4826		-115.234375
4827		-123.046875
4828		-119.140625
4829		-126.953125
4830		-123.046875
4831		-130.859375
4832		-125.000000
4833		-134.765625
4834		-126.953125
4835		-134.765625
4836		-130.859375
4837		-136.718750
4838		-132.812500
4839		-140.625000
4840		-134.765625
4841		-142.578125
4842		-138.671875
4843		-144.531250
4844		-140.625000
4845		-146.484375
4846		-142.578125
4847		-148.437500
4848		-144.531250
4849		-152.343750
4850		-144.531250
4851		-152.343750
4852		-146.484375
4853		-154.296875
4854		-150.390625
4855		-156.250000
4856		-152.343750
4857		-156.250000
4858		-154.296875
4859		-158.203125
4860		-156.250000
4861		-160.156250
4862		-156.250000
4863		-160.156250
4864		-158.203125
4865		-164.062500
4866		-156.250000
4867		-164.062500
4868		-158.203125
4869		-164.062500
4870		-160.156250
4871		-164.062500
4872		-162.109375
4873		-164.062500
4874		-162.109375
4875		-164.062500
4876		-162.109375
4877		-166.015625
4878		-162.109375
4879		-166.015625
4880		-164.062500
4881		-167.968750
4882		-160.156250
4883		-167.968750
4884		-160.156250
4885		-166.015625
4886		-162.109375
4887		-164.062500
4888		-162.109375
4889		-164.062500
4890		-162.109375
4891		-164.062500
4892		-162.109375
4893		-164.062500
4894		-160.156250
4895		-162.109375
4896		-160.156250
4897		-162.109375
4898		-158.203125
4899		-162.109375
4900		-156.250000
4901		-160.156250
4902		-156.250000
4903		-158.203125
4904		-156.250000
4905		-156.250000
4906		-154.296875
4907		-156.250000
4908		-152.343750
4909		-154.296875
4910		-150.390625
4911		-152.343750
4912		-148.437500
4913		-150.390625
4914		-146.484375
4915		-150.390625
4916		-142.578125
4917		-148.437500
4918		-140.625000
4919		-144.531250
4920		-140.625000
4921		-142.578125
4922		-136.718750
4923		-138.671875
4924		-134.765625
4925		-136.718750
4926		-132.812500
4927		-134.765625
4928		-128.906250
4929		-130.859375
4930		-126.953125
4931		-128.906250
4932		-123.046875
4933		-126.953125
4934		-119.140625
4935		-123.046875
4936		-117.187500
4937		-119.140625
4938		-115.234375
4939		-115.234375
4940		-111.328125
4941		-113.281250
4942		-107.421875
4943		-109.375000
4944		-105.468750
4945		-105.468750
4946		-101.562500
4947		-101.562500
4948		-97.656250
4949		-99.609375
4950		-91.796875
4951		-95.703125
4952		-89.843750
4953		-91.796875
4954		-85.937500
4955		-87.890625
4956		-82.031250
4957		-83.984375
4958		-78.125000
4959		-80.078125
4960		-74.218750
4961		-76.171875
4962		-70.312500
4963		-72.265625
4964		-66.406250
4965		-68.359375
4966		-60.546875
4967		-64.453125
4968		-56.640625
4969		-60.546875
4970		-54.687500
4971		-54.687500
4972		-48.828125
4973		-50.781250
4974		-46.875000
4975		-46.875000
4976		-41.015625
4977		-42.968750
4978		-37.109375
4979		-39.062500
4980		-33.203125
4981		-35.156250
4982		-29.296875
4983		-31.250000
4984		-23.437500
4985		-27.343750
4986		-21.484375
4987		-21.484375
4988		-17.578125
4989		-17.578125
4990		-11.718750
4991		-13.671875
4992		-7.812500
4993		-9.765625
4994		-3.906250
4995		-5.859375
4996		0.000000
4997		-1.953125
4998		3.906250
4999		1.953125
5000		9.765625
5001		5.859375
5002		13.671875
5003		11.718750
5004		15.625000
5005		15.625000
5006		19.531250
5007		19.531250
5008		23.437500
5009		23.437500
5010		27.343750
5011		27.343750
5012		31.250000
5013		31.250000
5014		35.156250
5015		35.156250
5016		39.062500
5017		37.109375
5018		42.968750
5019		41.015625
5020		46.875000
5021		44.921875
5022		50.781250
5023		48.828125
5024		54.687500
5025		52.734375
5026		58.593750
5027		56.640625
5028		60.546875
5029		58.593750
5030		64.453125
5031		62.500000
5032		68.359375
5033		66.406250
5034		70.312500
5035		70.312500
5036		74.218750
5037		72.265625
5038		76.171875
5039		76.171875
5040		80.078125
5041		80.078125
5042		83.984375
5043		82.031250
5044		85.937500
5045		83.984375
5046		89.843750
5047		87.890625
5048		91.796875
5049		89.843750
5050		95.703125
5051		91.796875
5052		97.656250
5053		95.703125
5054		99.609375
5055		97.656250
5056		101.562500
5057		99.609375
5058		105.468750
5059		103.515625
5060		107.421875
5061		105.468750
5062		109.375000
5063		107.421875
5064		111.328125
5065		109.375000
5066		113.281250
5067		111.328125
5068		115.234375
5069		113.281250
5070		117.187500
5071		115.234375
5072		119.140625
5073		117.187500
5074		121.093750
5075		119.140625
5076		123.046875
5077		121.093750
5078		125.000000
5079		123.046875
5080		126.953125
5081		125.000000
5082		126.953125
5083		125.000000
5084		128.906250
5085		126.953125
5086		130.859375
5087		128.906250
5088		130.859375
5089		130.859375
5090		132.812500
5091		130.859375
5092		134.765625
5093		130.859375
5094		134.765625
5095		132.812500
5096		136.718750
5097		132.812500
5098		136.718750
5099		134.765625
5100		136.718750
5101		134.765625
5102		138.671875
5103		136.718750
5104		138.671875
5105		136.718750
5106		138.671875
5107		136.718750
5108		138.671875
5109		136.718750
5110		140.625000
5111		138.671875
5112		140.625000
5113		138.671875
5114		140.625000
5115		138.671875
5116		140.625000
5117		138.671875
5118		140.625000
5119		138.671875
5120		140.625000
5121		138.671875
5122		140.625000
5123		138.671875
5124		140.625000
5125		138.671875
5126		140.625000
5127		136.718750
5128		140.625000
5129		136.718750
5130		140.625000
5131		136.718750
5132		138.671875
5133		136.718750
5134		138.671875
5135		134.765625
5136		136.718750
5137		134.765625
5138		136.718750
5139		132.812500
5140		136.718750
5141		132.812500
5142		134.765625
5143		130.859375
5144		134.765625
5145		130.859375
5146		132.812500
5147		128.906250
5148		132.812500
5149		128.906250
5150		130.859375
5151		126.953125
5152		128.906250
5153		125.000000
5154		128.906250
5155		123.046875
5156		126.953125
5157		123.046875
5158		125.000000
5159		121.093750
5160		123.046875
5161		119.140625
5162		121.093750
5163		117.187500
5164		121.093750
5165		115.234375
5166		119.140625
5167		113.281250
5168		117.187500
5169		111.328125
5170		115.234375
5171		109.375000
5172		113.281250
5173		105.468750
5174		109.375000
5175		103.515625
5176		107.421875
5177		101.562500
5178		105.468750
5179		99.609375
5180		103.515625
5181		95.703125
5182		99.609375
5183		93.750000
5184		97.656250
5185		89.843750
5186		95.703125
5187		87.890625
5188		91.796875
5189		85.937500
5190		89.843750
5191		82.031250
5192		85.937500
5193		80.078125
5194		83.984375
5195		76.171875
5196		80.078125
5197		72.265625
5198		78.125000
5199		70.312500
5200		74.218750
5201		66.406250
5202		70.312500
5203		62.500000
5204		66.406250
5205		58.593750
5206		64.453125
5207		56.640625
5208		60.546875
5209		52.734375
5210		56.640625
5211		48.828125
5212		54.687500
5213		44.921875
5214		48.828125
5215		41.015625
5216		44.921875
5217		37.109375
5218		42.968750
5219		33.203125
5220		39.062500
5221		29.296875
5222		35.156250
5223		25.390625
5224		31.250000
5225		21.484375
5226		27.343750
5227		17.578125
5228		23.437500
5229		13.671875
5230		19.531250
5231		9.765625
5232		15.625000
5233		5.859375
5234		9.765625
5235		1.953125
5236		5.859375
5237		-1.953125
5238		1.953125
5239		-5.859375
5240		-1.953125
5241		-11.718750
5242		-5.859375
5243		-15.625000
5244		-9.765625
5245		-19.531250
5246		-13.671875
5247		-23.437500
5248		-17.578125
5249		-27.343750
5250		-23.437500
5251		-31.250000
5252		-27.343750
5253		-35.156250
5254		-31.250000
5255		-39.062500
5256		-35.156250
5257		-44.921875
5258		-39.062500
5259		-48.828125
5260		-42.968750
5261		-52.734375
5262		-46.875000
5263		-56.640625
5264		-50.781250
5265		-60.546875
5266		-54.687500
5267		-64.453125
5268		-58.593750
5269		-68.359375
5270		-62.500000
5271		-72.265625
5272		-66.406250
5273		-76.171875
5274		-70.312500
5275		-80.078125
5276		-74.218750
5277		-83.984375
5278		-78.125000
5279		-87.890625
5280		-82.031250
5281		-91.796875
5282		-85.937500
5283		-95.703125
5284		-89.843750
5285		-97.656250
5286		-93.750000
5287		-101.562500
5288		-97.656250
5289		-105.468750
5290		-101.562500
5291		-109.375000
5292		-103.515625
5293		-111.328125
5294		-107.421875
5295		-115.234375
5296		-111.328125
5297		-119.140625
5298		-113.281250
5299		-121.093750
5300		-117.187500
5301		-125.000000
5302		-121.093750
5303		-126.953125
5304		-123.046875
5305		-130.859375
5306		-126.953125
5307		-132.812500
5308		-128.906250
5309		-134.765625
5310		-130.859375
5311		-138.671875
5312		-134.765625
5313		-140.625000
5314		-136.718750
5315		-142.578125
5316		-138.671875
5317		-144.531250
5318		-142.578125
5319		-146.484375
5320		-144.531250
5321		-148.437500
5322		-146.484375
5323		-150.390625
5324		-148.437500
5325		-152.343750
5326		-150.390625
5327		-154.296875
5328		-150.390625
5329		-156.250000
5330		-152.343750
5331		-158.203125
5332		-154.296875
5333		-158.203125
5334		-156.250000
5335		-160.156250
5336		-158.203125
5337		-162.109375
5338		-158.203125
5339		-162.109375
5340		-160.156250
5341		-162.109375
5342		-160.156250
5343		-164.062500
5344		-162.109375
5345		-164.062500
5346		-162.109375
5347		-164.062500
5348		-162.109375
5349		-166.015625
5350		-162.109375
5351		-166.015625
5352		-162.109375
5353		-166.015625
5354		-162.109375
5355		-166.015625
5356		-164.062500
5357		-166.015625
5358		-164.062500
5359		-164.062500
5360		-162.109375
5361		-166.015625
5362		-162.109375
5363		-164.062500
5364		-160.156250
5365		-164.062500
5366		-162.109375
5367		-164.062500
5368		-160.156250
5369		-162.109375
5370		-160.156250
5371		-162.109375
5372		-158.203125
5373		-160.156250
5374		-158.203125
5375		-158.203125
5376		-156.250000
5377		-158.203125
5378		-154.296875
5379		-156.250000
5380		-152.343750
5381		-154.296875
5382		-150.390625
5383		-152.343750
5384		-150.390625
5385		-150.390625
5386		-146.484375
5387		-148.437500
5388		-144.531250
5389		-146.484375
5390		-142.578125
5391		-144.531250
5392		-140.625000
5393		-142.578125
5394		-138.671875
5395		-140.625000
5396		-136.718750
5397		-138.671875
5398		-132.812500
5399		-134.765625
5400		-130.859375
5401		-132.812500
5402		-128.906250
5403		-128.906250
5404		-125.000000
5405		-126.953125
5406		-123.046875
5407		-123.046875
5408		-119.140625
5409		-121.093750
5410		-115.234375
5411		-117.187500
5412		-113.281250
5413		-115.234375
5414		-109.375000
5415		-111.328125
5416		-105.468750
5417		-107.421875
5418		-103.515625
5419		-103.515625
5420		-99.609375
5421		-99.609375
5422		-95.703125
5423		-97.656250
5424		-91.796875
5425		-93.750000
5426		-87.890625
5427		-89.843750
5428		-83.984375
5429		-85.937500
5430		-80.078125
5431		-82.031250
5432		-76.171875
5433		-78.125000
5434		-72.265625
5435		-74.218750
5436		-68.359375
5437		-70.312500
5438		-64.453125
5439		-66.406250
5440		-60.546875
5441		-62.500000
5442		-56.640625
5443		-58.593750
5444		-52.734375
5445		-52.734375
5446		-48.828125
5447		-48.828125
5448		-44.921875
5449		-44.921875
5450		-39.062500
5451		-41.015625
5452		-35.156250
5453		-37.109375
5454		-31.250000
5455		-33.203125
5456		-27.343750
5457		-29.296875
5458		-23.437500
5459		-23.437500
5460		-19.531250
5461		-19.531250
5462		-15.625000
5463		-15.625000
5464		-9.765625
5465		-11.718750
5466		-5.859375
5467		-7.812500
5468		-1.953125
5469		-3.906250
5470		1.953125
5471		0.000000
5472		5.859375
5473		5.859375
5474		9.765625
5475		9.765625
5476		13.671875
5477		13.671875
5478		17.578125
5479		17.578125
5480		21.484375
5481		21.484375
5482		25.390625
5483		25.390625
5484		29.296875
5485		29.296875
5486		33.203125
5487		33.203125
5488		37.109375
5489		37.109375
5490		41.015625
5491		41.015625
5492		44.921875
5493		42.968750
5494		48.828125
5495		46.875000
5496		52.734375
5497		50.781250
5498		54.687500
5499		54.687500
5500		58.593750
5501		58.593750
5502		62.500000
5503		60.546875
5504		66.406250
5505		64.453125
5506		68.359375
5507		68.359375
5508		72.265625
5509		70.312500
5510		76.171875
5511		74.218750
5512		78.125000
5513		78.125000
5514		82.031250
5515		80.078125
5516		83.984375
5517		83.984375
5518		87.890625
5519		85.937500
5520		89.843750
5521		89.843750
5522		93.750000
5523		91.796875
5524		95.703125
5525		93.750000
5526		99.609375
5527		97.656250
5528		101.562500
5529		99.609375
5530		103.515625
5531		101.562500
5532		105.468750
5533		105.468750
5534		107.421875
5535		107.421875
5536		111.328125
5537		109.375000
5538		113.281250
5539		111.328125
5540		115.234375
5541		113.281250
5542		117.187500
5543		115.234375
5544		119.140625
5545		117.187500
5546		121.093750
5547		119.140625
5548		123.046875
5549		121.093750
5550		123.046875
5551		121.093750
5552		125.000000
5553		123.046875
5554		126.953125
5555		125.000000
5556		128.906250
5557		126.953125
5558		128.906250
5559		128.906250
5560		130.859375
5561		128.906250
5562		132.812500
5563		130.859375
5564		132.812500
5565		130.859375
5566		134.765625
5567		132.812500
5568		134.765625
5569		134.765625
5570		136.718750
5571		134.765625
5572		136.718750
5573		134.765625
5574		138.671875
5575		134.765625
5576		138.671875
5577		136.718750
5578		138.671875
5579		136.718750
5580		138.671875
5581		136.718750
5582		140.625000
5583		138.671875
5584		140.625000
5585		138.671875
5586		140.625000
5587		138.671875
5588		140.625000
5589		138.671875
5590		140.625000
5591		138.671875
5592		140.625000
5593		138.671875
5594		140.625000
5595		138.671875
5596		140.625000
5597		138.671875
5598		140.625000
5599		138.671875
5600		140.625000
5601		136.718750
5602		140.625000
5603		136.718750
5604		138.671875
5605		136.718750
5606		138.671875
5607		136.718750
5608		138.671875
5609		134.765625
5610		138.671875
5611		134.765625
5612		136.718750
5613		132.812500
5614		136.718750
5615		132.812500
5616		134.765625
5617		130.859375
5618		134.765625
5619		130.859375
5620		132.812500
5621		128.906250
5622		132.812500
5623		128.906250
5624		130.859375
5625		126.953125
5626		128.906250
5627		125.000000
5628		128.906250
5629		123.046875
5630		126.953125
5631		123.046875
5632		125.000000
5633		121.093750
5634		123.046875
5635		119.140625
5636		123.046875
5637		117.187500
5638		119.140625
5639		115.234375
5640		119.140625
5641		113.281250
5642		115.234375
5643		109.375000
5644		113.281250
5645		107.421875
5646		111.328125
5647		105.468750
5648		109.375000
5649		103.515625
5650		107.421875
5651		101.562500
5652		105.468750
5653		99.609375
5654		103.515625
5655		95.703125
5656		99.609375
5657		93.750000
5658		97.656250
5659		89.843750
5660		93.750000
5661		87.890625
5662		91.796875
5663		83.984375
5664		87.890625
5665		82.031250
5666		85.937500
5667		78.125000
5668		83.984375
5669		74.218750
5670		80.078125
5671		72.265625
5672		76.171875
5673		68.359375
5674		72.265625
5675		64.453125
5676		70.312500
5677		62.500000
5678		66.406250
5679		58.593750
5680		62.500000
5681		54.687500
5682		60.546875
5683		50.781250
5684		56.640625
5685		46.875000
5686		52.734375
5687		44.921875
5688		48.828125
5689		41.015625
5690		44.921875
5691		37.109375
5692		41.015625
5693		33.203125
5694		37.109375
5695		29.296875
5696		33.203125
5697		25.390625
5698		29.296875
5699		21.484375
5700		25.390625
5701		17.578125
5702		21.484375
5703		13.671875
5704		17.578125
5705		7.812500
5706		13.671875
5707		3.906250
5708		9.765625
5709		0.000000
5710		5.859375
5711		-3.906250
5712		1.953125
5713		-7.812500
5714		-1.953125
5715		-11.718750
5716		-5.859375
5717		-17.578125
5718		-9.765625
5719		-19.531250
5720		-15.625000
5721		-25.390625
5722		-19.531250
5723		-29.296875
5724		-23.437500
5725		-33.203125
5726		-27.343750
5727		-37.109375
5728		-31.250000
5729		-41.015625
5730		-35.156250
5731		-44.921875
5732		-39.062500
5733		-48.828125
5734		-44.921875
5735		-52.734375
5736		-48.828125
5737		-56.640625
5738		-52.734375
5739		-60.546875
5740		-56.640625
5741		-64.453125
5742		-60.546875
5743		-70.312500
5744		-64.453125
5745		-72.265625
5746		-68.359375
5747		-78.125000
5748		-72.265625
5749		-82.031250
5750		-76.171875
5751		-85.937500
5752		-80.078125
5753		-87.890625
5754		-83.984375
5755		-91.796875
5756		-87.890625
5757		-95.703125
5758		-89.843750
5759		-99.609375
5760		-93.750000
5761		-103.515625
5762		-97.656250
5763		-105.468750
5764		-101.562500
5765		-109.375000
5766		-105.468750
5767		-113.281250
5768		-107.421875
5769		-115.234375
5770		-111.328125
5771		-119.140625
5772		-115.234375
5773		-121.093750
5774		-117.187500
5775		-125.000000
5776		-121.093750
5777		-128.906250
5778		-123.046875
5779		-130.859375
5780		-126.953125
5781		-132.812500
5782		-128.906250
5783		-136.718750
5784		-132.812500
5785		-138.671875
5786		-134.765625
5787		-140.625000
5788		-136.718750
5789		-142.578125
5790		-140.625000
5791		-144.531250
5792		-142.578125
5793		-148.437500
5794		-144.531250
5795		-150.390625
5796		-146.484375
5797		-150.390625
5798		-148.437500
5799		-152.343750
5800		-150.390625
5801		-154.296875
5802		-152.343750
5803		-156.250000
5804		-152.343750
5805		-158.203125
5806		-154.296875
5807		-158.203125
5808		-156.250000
5809		-160.156250
5810		-158.203125
5811		-162.109375
5812		-158.203125
5813		-162.109375
5814		-160.156250
5815		-164.062500
5816		-160.156250
5817		-164.062500
5818		-162.109375
5819		-164.062500
5820		-162.109375
5821		-166.015625
5822		-162.109375
5823		-166.015625
5824		-162.109375
5825		-166.015625
5826		-164.062500
5827		-166.015625
5828		-164.062500
5829		-166.015625
5830		-164.062500
5831		-166.015625
5832		-164.062500
5833		-166.015625
5834		-162.109375
5835		-166.015625
5836		-162.109375
5837		-166.015625
5838		-162.109375
5839		-164.062500
5840		-162.109375
5841		-164.062500
5842		-160.156250
5843		-162.109375
5844		-160.156250
5845		-162.109375
5846		-158.203125
5847		-160.156250
5848		-158.203125
5849		-160.156250
5850		-156.250000
5851		-158.203125
5852		-154.296875
5853		-156.250000
5854		-152.343750
5855		-154.296875
5856		-152.343750
5857		-152.343750
5858		-150.390625
5859		-152.343750
5860		-148.437500
5861		-152.343750
5862		-144.531250
5863		-146.484375
5864		-142.578125
5865		-146.484375
5866		-138.671875
5867		-142.578125
5868		-138.671875
5869		-140.625000
5870		-136.718750
5871		-138.671875
5872		-132.812500
5873		-134.765625
5874		-130.859375
5875		-132.812500
5876		-128.906250
5877		-130.859375
5878		-123.046875
5879		-126.953125
5880		-121.093750
5881		-123.046875
5882		-119.140625
5883		-123.046875
5884		-115.234375
5885		-117.187500
5886		-111.328125
5887		-113.281250
5888		-109.375000
5889		-111.328125
5890		-105.468750
5891		-107.421875
5892		-101.562500
5893		-103.515625
5894		-97.656250
5895		-101.562500
5896		-95.703125
5897		-97.656250
5898		-91.796875
5899		-93.750000
5900		-87.890625
5901		-87.890625
5902		-83.984375
5903		-87.890625
5904		-80.078125
5905		-82.031250
5906		-76.171875
5907		-76.171875
5908		-70.312500
5909		-74.218750
5910		-68.359375
5911		-70.312500
5912		-62.500000
5913		-64.453125
5914		-60.546875
5915		-60.546875
5916		-52.734375
5917		-56.640625
5918		-50.781250
5919		-54.687500
5920		-46.875000
5921		-48.828125
5922		-42.968750
5923		-44.921875
5924		-39.062500
5925		-41.015625
5926		-33.203125
5927		-39.062500
5928		-27.343750
5929		-33.203125
5930		-27.343750
5931		-29.296875
5932		-21.484375
5933		-25.390625
5934		-17.578125
5935		-19.531250
5936		-11.718750
5937		-15.625000
5938		-9.765625
5939		-11.718750
5940		-5.859375
5941		-5.859375
5942		0.000000
5943		-3.906250
5944		3.906250
5945		0.000000
5946		7.812500
5947		5.859375
5948		9.765625
5949		7.812500
5950		17.578125
5951		9.765625
5952		19.531250
5953		15.625000
5954		23.437500
5955		21.484375
5956		27.343750
5957		25.390625
5958		31.250000
5959		27.343750
5960		37.109375
5961		33.203125
5962		39.062500
5963		37.109375
5964		42.968750
5965		41.015625
5966		46.875000
5967		41.015625
5968		50.781250
5969		46.875000
5970		54.687500
5971		50.781250
5972		56.640625
5973		54.687500
5974		60.546875
5975		56.640625
5976		64.453125
5977		60.546875
5978		68.359375
5979		62.500000
5980		70.312500
5981		68.359375
5982		72.265625
5983		70.312500
5984		80.078125
5985		74.218750
5986		80.078125
5987		74.218750
5988		83.984375
5989		82.031250
5990		85.937500
5991		83.984375
5992		89.843750
5993		85.937500
5994		93.750000
5995		87.890625
5996		95.703125
5997		91.796875
5998		95.703125
5999		95.703125
6000		101.562500
6001		93.750000
6002		103.515625
6003		97.656250
6004		105.468750
6005		103.515625
6006		107.421875
6007		105.468750
6008		109.375000
6009		105.468750
6010		113.281250
6011		107.421875
6012		115.234375
6013		109.375000
6014		115.234375
6015		113.281250
6016		117.187500
6017		113.281250
6018		121.093750
6019		117.187500
6020		125.000000
6021		119.140625
6022		123.046875
6023		121.093750
6024		125.000000
6025		121.093750
6026		126.953125
6027		121.093750
6028		130.859375
6029		125.000000
6030		128.906250
6031		126.953125
6032		130.859375
6033		126.953125
6034		134.765625
6035		126.953125
6036		134.765625
6037		126.953125
6038		134.765625
6039		132.812500
6040		134.765625
6041		132.812500
6042		136.718750
6043		130.859375
6044		140.625000
6045		130.859375
6046		138.671875
6047		134.765625
6048		138.671875
6049		134.765625
6050		140.625000
6051		134.765625
6052		142.578125
6053		134.765625
6054		144.531250
6055		138.671875
6056		140.625000
6057		138.671875
6058		140.625000
6059		136.718750
6060		142.578125
6061		134.765625
6062		144.531250
6063		136.718750
6064		144.531250
6065		138.671875
6066		140.625000
6067		134.765625
6068		144.531250
6069		136.718750
6070		144.531250
6071		134.765625
6072		144.531250
6073		138.671875
6074		140.625000
6075		136.718750
6076		140.625000
6077		134.765625
6078		142.578125
6079		134.765625
6080		140.625000
6081		136.718750
6082		138.671875
6083		132.812500
6084		138.671875
6085		130.859375
6086		140.625000
6087		130.859375
6088		138.671875
6089		132.812500
6090		134.765625
6091		130.859375
6092		134.765625
6093		126.953125
6094		134.765625
6095		125.000000
6096		134.765625
6097		126.953125
6098		132.812500
6099		126.953125
6100		128.906250
6101		121.093750
6102		130.859375
6103		121.093750
6104		126.953125
6105		121.093750
6106		126.953125
6107		119.140625
6108		123.046875
6109		115.234375
6110		121.093750
6111		113.281250
6112		121.093750
6113		113.281250
6114		119.140625
6115		111.328125
6116		115.234375
6117		105.468750
6118		115.234375
6119		105.468750
6120		115.234375
6121		103.515625
6122		111.328125
6123		103.515625
6124		107.421875
6125		99.609375
6126		103.515625
6127		95.703125
6128		101.562500
6129		93.750000
6130		101.562500
6131		91.796875
6132		97.656250
6133		89.843750
6134		93.750000
6135		85.937500
6136		93.750000
6137		80.078125
6138		89.843750
6139		80.078125
6140		85.937500
6141		76.171875
6142		82.031250
6143		72.265625
6144		78.125000
6145		70.312500
6146		78.125000
6147		68.359375
6148		74.218750
6149		64.453125
6150		68.359375
6151		60.546875
6152		66.406250
6153		56.640625
6154		62.500000
6155		52.734375
6156		58.593750
6157		50.781250
6158		54.687500
6159		46.875000
6160		50.781250
6161		42.968750
6162		46.875000
6163		37.109375
6164		44.921875
6165		35.156250
6166		41.015625
6167		29.296875
6168		37.109375
6169		27.343750
6170		33.203125
6171		23.437500
6172		29.296875
6173		19.531250
6174		25.390625
6175		15.625000
6176		21.484375
6177		11.718750
6178		17.578125
6179		7.812500
6180		11.718750
6181		3.906250
6182		7.812500
6183		0.000000
6184		3.906250
6185		-5.859375
6186		0.000000
6187		-9.765625
6188		-3.906250
6189		-13.671875
6190		-5.859375
6191		-17.578125
6192		-11.718750
6193		-21.484375
6194		-15.625000
6195		-25.390625
6196		-21.484375
6197		-29.296875
6198		-25.390625
6199		-35.156250
6200		-29.296875
6201		-37.109375
6202		-33.203125
6203		-42.968750
6204		-37.109375
6205		-46.875000
6206		-41.015625
6207		-50.781250
6208		-44.921875
6209		-54.687500
6210		-48.828125
6211		-60.546875
6212		-52.734375
6213		-64.453125
6214		-56.640625
6215		-68.359375
6216		-60.546875
6217		-72.265625
6218		-64.453125
6219		-76.171875
6220		-68.359375
6221		-80.078125
6222		-72.265625
6223		-82.031250
6224		-76.171875
6225		-85.937500
6226		-80.078125
6227		-89.843750
6228		-83.984375
6229		-93.750000
6230		-85.937500
6231		-97.656250
6232		-91.796875
6233		-101.562500
6234		-93.750000
6235		-103.515625
6236		-97.656250
6237		-109.375000
6238		-101.562500
6239		-109.375000
6240		-105.468750
6241		-113.281250
6242		-109.375000
6243		-119.140625
6244		-113.281250
6245		-121.093750
6246		-113.281250
6247		-123.046875
6248		-117.187500
6249		-126.953125
6250		-121.093750
6251		-130.859375
6252		-123.046875
6253		-132.812500
6254		-125.000000
6255		-134.765625
6256		-128.906250
6257		-136.718750
6258		-132.812500
6259		-138.671875
6260		-134.765625
6261		-142.578125
6262		-136.718750
6263		-144.531250
6264		-138.671875
6265		-146.484375
6266		-140.625000
6267		-148.437500
6268		-142.578125
6269		-150.390625
6270		-144.531250
6271		-152.343750
6272		-146.484375
6273		-154.296875
6274		-148.437500
6275		-154.296875
6276		-152.343750
6277		-158.203125
6278		-152.343750
6279		-158.203125
6280		-154.296875
6281		-160.156250
6282		-156.250000
6283		-162.109375
6284		-156.250000
6285		-162.109375
6286		-158.203125
6287		-162.109375
6288		-158.203125
6289		-164.062500
6290		-158.203125
6291		-164.062500
6292		-160.156250
6293		-164.062500
6294		-162.109375
6295		-166.015625
6296		-162.109375
6297		-166.015625
6298		-160.156250
6299		-167.968750
6300		-162.109375
6301		-167.968750
6302		-162.109375
6303		-166.015625
6304		-162.109375
6305		-166.015625
6306		-162.109375
6307		-166.015625
6308		-162.109375
6309		-164.062500
6310		-162.109375
6311		-166.015625
6312		-160.156250
6313		-164.062500
6314		-158.203125
6315		-164.062500
6316		-158.203125
6317		-164.062500
6318		-156.250000
6319		-162.109375
6320		-156.250000
6321		-160.156250
6322		-154.296875
6323		-160.156250
6324		-154.296875
6325		-156.250000
6326		-154.296875
6327		-154.296875
6328		-150.390625
6329		-154.296875
6330		-150.390625
6331		-152.343750
6332		-148.437500
6333		-150.390625
6334		-144.531250
6335		-148.437500
6336		-144.531250
6337		-146.484375
6338		-142.578125
6339		-144.531250
6340		-138.671875
6341		-140.625000
6342		-136.718750
6343		-138.671875
6344		-134.765625
6345		-136.718750
6346		-130.859375
6347		-132.812500
6348		-128.906250
6349		-130.859375
6350		-126.953125
6351		-128.906250
6352		-123.046875
6353		-125.000000
6354		-119.140625
6355		-121.093750
6356		-117.187500
6357		-119.140625
6358		-115.234375
6359		-115.234375
6360		-111.328125
6361		-113.281250
6362		-107.421875
6363		-109.375000
6364		-103.515625
6365		-105.468750
6366		-99.609375
6367		-101.562500
6368		-95.703125
6369		-99.609375
6370		-93.750000
6371		-93.750000
6372		-87.890625
6373		-91.796875
6374		-85.937500
6375		-85.937500
6376		-82.031250
6377		-83.984375
6378		-78.125000
6379		-80.078125
6380		-74.218750
6381		-76.171875
6382		-70.312500
6383		-72.265625
6384		-66.406250
6385		-70.312500
6386		-62.500000
6387		-64.453125
6388		-58.593750
6389		-60.546875
6390		-52.734375
6391		-54.687500
6392		-48.828125
6393		-50.781250
6394		-44.921875
6395		-46.875000
6396		-41.015625
6397		-42.968750
6398		-37.109375
6399		-39.062500
6400		-31.250000
6401		-35.156250
6402		-29.296875
6403		-29.296875
6404		-25.390625
6405		-27.343750
6406		-19.531250
6407		-21.484375
6408		-15.625000
6409		-17.578125
6410		-11.718750
6411		-13.671875
6412		-7.812500
6413		-9.765625
6414		-3.906250
6415		-5.859375
6416		0.000000
6417		-1.953125
6418		5.859375
6419		3.906250
6420		7.812500
6421		7.812500
6422		13.671875
6423		11.718750
6424		17.578125
6425		15.625000
6426		19.531250
6427		19.531250
6428		23.437500
6429		23.437500
6430		29.296875
6431		27.343750
6432		33.203125
6433		31.250000
6434		37.109375
6435		35.156250
6436		39.062500
6437		37.109375
6438		44.921875
6439		42.968750
6440		46.875000
6441		44.921875
6442		50.781250
6443		48.828125
6444		54.687500
6445		52.734375
6446		58.593750
6447		56.640625
6448		60.546875
6449		58.593750
6450		66.406250
6451		64.453125
6452		68.359375
6453		66.406250
6454		72.265625
6455		70.312500
6456		74.218750
6457		72.265625
6458		78.125000
6459		76.171875
6460		80.078125
6461		80.078125
6462		83.984375
6463		80.078125
6464		85.937500
6465		85.937500
6466		89.843750
6467		85.937500
6468		91.796875
6469		91.796875
6470		95.703125
6471		93.750000
6472		97.656250
6473		95.703125
6474		99.609375
6475		97.656250
6476		103.515625
6477		101.562500
6478		105.468750
6479		103.515625
6480		109.375000
6481		105.468750
6482		111.328125
6483		107.421875
6484		111.328125
6485		111.328125
6486		115.234375
6487		113.281250
6488		117.187500
6489		113.281250
6490		119.140625
6491		115.234375
6492		121.093750
6493		119.140625
6494		121.093750
6495		121.093750
6496		125.000000
6497		121.093750
6498		125.000000
6499		123.046875
6500		126.953125
6501		125.000000
6502		128.906250
6503		126.953125
6504		130.859375
6505		126.953125
6506		132.812500
6507		128.906250
6508		134.765625
6509		130.859375
6510		134.765625
6511		130.859375
6512		134.765625
6513		130.859375
6514		134.765625
6515		132.812500
6516		136.718750
6517		134.765625
6518		138.671875
6519		134.765625
6520		138.671875
6521		134.765625
6522		138.671875
6523		136.718750
6524		140.625000
6525		136.718750
6526		140.625000
6527		138.671875
6528		140.625000
6529		136.718750
6530		142.578125
6531		138.671875
6532		140.625000
6533		138.671875
6534		142.578125
6535		138.671875
6536		142.578125
6537		138.671875
6538		142.578125
6539		138.671875
6540		142.578125
6541		138.671875
6542		142.578125
6543		138.671875
6544		142.578125
6545		138.671875
6546		140.625000
6547		138.671875
6548		142.578125
6549		136.718750
6550		140.625000
6551		136.718750
6552		140.625000
6553		136.718750
6554		140.625000
6555		136.718750
6556		140.625000
6557		134.765625
6558		138.671875
6559		134.765625
6560		138.671875
6561		132.812500
6562		136.718750
6563		132.812500
6564		136.718750
6565		130.859375
6566		134.765625
6567		128.906250
6568		134.765625
6569		128.906250
6570		132.812500
6571		126.953125
6572		130.859375
6573		126.953125
6574		130.859375
6575		125.000000
6576		128.906250
6577		123.046875
6578		126.953125
6579		121.093750
6580		125.000000
6581		119.140625
6582		123.046875
6583		119.140625
6584		121.093750
6585		115.234375
6586		121.093750
6587		113.281250
6588		117.187500
6589		111.328125
6590		115.234375
6591		109.375000
6592		113.281250
6593		107.421875
6594		111.328125
6595		105.468750
6596		109.375000
6597		103.515625
6598		107.421875
6599		99.609375
6600		103.515625
6601		97.656250
6602		101.562500
6603		95.703125
6604		99.609375
6605		91.796875
6606		97.656250
6607		89.843750
6608		93.750000
6609		85.937500
6610		91.796875
6611		83.984375
6612		87.890625
6613		80.078125
6614		83.984375
6615		78.125000
6616		82.031250
6617		74.218750
6618		80.078125
6619		70.312500
6620		76.171875
6621		66.406250
6622		72.265625
6623		64.453125
6624		68.359375
6625		60.546875
6626		66.406250
6627		56.640625
6628		62.500000
6629		52.734375
6630		58.593750
6631		48.828125
6632		56.640625
6633		44.921875
6634		50.781250
6635		42.968750
6636		46.875000
6637		37.109375
6638		42.968750
6639		35.156250
6640		41.015625
6641		31.250000
6642		37.109375
6643		27.343750
6644		33.203125
6645		23.437500
6646		27.343750
6647		19.531250
6648		23.437500
6649		13.671875
6650		19.531250
6651		11.718750
6652		15.625000
6653		5.859375
6654		11.718750
6655		1.953125
6656		7.812500
6657		-1.953125
6658		3.906250
6659		-5.859375
6660		0.000000
6661		-9.765625
6662		-3.906250
6663		-15.625000
6664		-7.812500
6665		-17.578125
6666		-11.718750
6667		-21.484375
6668		-15.625000
6669		-25.390625
6670		-21.484375
6671		-29.296875
6672		-25.390625
6673		-35.156250
6674		-29.296875
6675		-39.062500
6676		-33.203125
6677		-42.968750
6678		-37.109375
6679		-46.875000
6680		-41.015625
6681		-50.781250
6682		-44.921875
6683		-54.687500
6684		-48.828125
6685		-58.593750
6686		-52.734375
6687		-62.500000
6688		-56.640625
6689		-68.359375
6690		-60.546875
6691		-70.312500
6692		-66.406250
6693		-74.218750
6694		-68.359375
6695		-78.125000
6696		-74.218750
6697		-82.031250
6698		-76.171875
6699		-85.937500
6700		-80.078125
6701		-89.843750
6702		-83.984375
6703		-93.750000
6704		-87.890625
6705		-97.656250
6706		-91.796875
6707		-99.609375
6708		-95.703125
6709		-105.468750
6710		-99.609375
6711		-107.421875
6712		-103.515625
6713		-109.375000
6714		-105.468750
6715		-113.281250
6716		-109.375000
6717		-117.187500
6718		-113.281250
6719		-119.140625
6720		-115.234375
6721		-123.046875
6722		-117.187500
6723		-125.000000
6724		-121.093750
6725		-128.906250
6726		-123.046875
6727		-130.859375
6728		-125.000000
6729		-134.765625
6730		-130.859375
6731		-136.718750
6732		-132.812500
6733		-138.671875
6734		-134.765625
6735		-142.578125
6736		-136.718750
6737		-144.531250
6738		-138.671875
6739		-146.484375
6740		-142.578125
6741		-148.437500
6742		-144.531250
6743		-150.390625
6744		-146.484375
6745		-152.343750
6746		-148.437500
6747		-156.250000
6748		-150.390625
6749		-156.250000
6750		-152.343750
6751		-156.250000
6752		-154.296875
6753		-158.203125
6754		-154.296875
6755		-160.156250
6756		-156.250000
6757		-160.156250
6758		-156.250000
6759		-162.109375
6760		-158.203125
6761		-162.109375
6762		-160.156250
6763		-164.062500
6764		-160.156250
6765		-166.015625
6766		-160.156250
6767		-164.062500
6768		-162.109375
6769		-166.015625
6770		-162.109375
6771		-166.015625
6772		-162.109375
6773		-166.015625
6774		-164.062500
6775		-166.015625
6776		-162.109375
6777		-167.968750
6778		-162.109375
6779		-166.015625
6780		-164.062500
6781		-166.015625
6782		-162.109375
6783		-166.015625
6784		-162.109375
6785		-166.015625
6786		-162.109375
6787		-164.062500
6788		-162.109375
6789		-164.062500
6790		-160.156250
6791		-162.109375
6792		-158.203125
6793		-162.109375
6794		-156.250000
6795		-160.156250
6796		-156.250000
6797		-158.203125
6798		-156.250000
6799		-158.203125
6800		-154.296875
6801		-156.250000
6802		-152.343750
6803		-154.296875
6804		-150.390625
6805		-152.343750
6806		-148.437500
6807		-150.390625
6808		-146.484375
6809		-148.437500
6810		-144.531250
6811		-146.484375
6812		-142.578125
6813		-144.531250
6814		-140.625000
6815		-142.578125
6816		-136.718750
6817		-140.625000
6818		-134.765625
6819		-136.718750
6820		-132.812500
6821		-134.765625
6822		-128.906250
6823		-130.859375
6824		-126.953125
6825		-128.906250
6826		-123.046875
6827		-125.000000
6828		-121.093750
6829		-121.093750
6830		-117.187500
6831		-119.140625
6832		-113.281250
6833		-117.187500
6834		-111.328125
6835		-111.328125
6836		-107.421875
6837		-109.375000
6838		-103.515625
6839		-105.468750
6840		-99.609375
6841		-101.562500
6842		-95.703125
6843		-97.656250
6844		-91.796875
6845		-95.703125
6846		-89.843750
6847		-89.843750
6848		-85.937500
6849		-87.890625
6850		-82.031250
6851		-83.984375
6852		-78.125000
6853		-78.125000
6854		-74.218750
6855		-76.171875
6856		-68.359375
6857		-72.265625
6858		-64.453125
6859		-66.406250
6860		-62.500000
6861		-62.500000
6862		-56.640625
6863		-58.593750
6864		-52.734375
6865		-54.687500
6866		-48.828125
6867		-50.781250
6868		-44.921875
6869		-46.875000
6870		-41.015625
6871		-42.968750
6872		-37.109375
6873		-37.109375
6874		-33.203125
6875		-33.203125
6876		-27.343750
6877		-29.296875
6878		-23.437500
6879		-25.390625
6880		-19.531250
6881		-21.484375
6882		-15.625000
6883		-17.578125
6884		-11.718750
6885		-13.671875
6886		-7.812500
6887		-9.765625
6888		-1.953125
6889		-5.859375
6890		0.000000
6891		0.000000
6892		5.859375
6893		3.906250
6894		9.765625
6895		7.812500
6896		13.671875
6897		11.718750
6898		17.578125
6899		15.625000
6900		21.484375
6901		19.531250
6902		25.390625
6903		23.437500
6904		29.296875
6905		27.343750
6906		33.203125
6907		31.250000
6908		37.109375
6909		35.156250
6910		41.015625
6911		39.062500
6912		44.921875
6913		42.968750
6914		46.875000
6915		46.875000
6916		50.781250
6917		48.828125
6918		54.687500
6919		52.734375
6920		58.593750
6921		56.640625
6922		62.500000
6923		60.546875
6924		66.406250
6925		64.453125
6926		70.312500
6927		66.406250
6928		72.265625
6929		68.359375
6930		74.218750
6931		72.265625
6932		78.125000
6933		76.171875
6934		82.031250
6935		80.078125
6936		83.984375
6937		82.031250
6938		87.890625
6939		83.984375
6940		89.843750
6941		87.890625
6942		91.796875
6943		91.796875
6944		95.703125
6945		93.750000
6946		97.656250
6947		95.703125
6948		99.609375
6949		99.609375
6950		103.515625
6951		101.562500
6952		105.468750
6953		103.515625
6954		107.421875
6955		105.468750
6956		109.375000
6957		107.421875
6958		111.328125
6959		109.375000
6960		113.281250
6961		111.328125
6962		117.187500
6963		113.281250
6964		117.187500
6965		117.187500
6966		119.140625
6967		117.187500
6968		123.046875
6969		119.140625
6970		123.046875
6971		121.093750
6972		125.000000
6973		123.046875
6974		126.953125
6975		125.000000
6976		128.906250
6977		125.000000
6978		130.859375
6979		125.000000
6980		130.859375
6981		128.906250
6982		130.859375
6983		128.906250
6984		134.765625
6985		130.859375
6986		134.765625
6987		130.859375
6988		134.765625
6989		132.812500
6990		134.765625
6991		132.812500
6992		136.718750
6993		134.765625
6994		138.671875
6995		134.765625
6996		138.671875
6997		134.765625
6998		138.671875
6999		136.718750
7000		138.671875
7001		136.718750
7002		140.625000
7003		136.718750
7004		140.625000
7005		136.718750
7006		140.625000
7007		136.718750
7008		140.625000
7009		136.718750
7010		140.625000
7011		136.718750
7012		140.625000
7013		136.718750
7014		140.625000
7015		136.718750
7016		140.625000
7017		136.718750
7018		140.625000
7019		136.718750
7020		140.625000
7021		136.718750
7022		140.625000
7023		136.718750
7024		140.625000
7025		134.765625
7026		140.625000
7027		134.765625
7028		138.671875
7029		134.765625
7030		138.671875
7031		134.765625
7032		136.718750
7033		130.859375
7034		136.718750
7035		130.859375
7036		134.765625
7037		130.859375
7038		134.765625
7039		130.859375
7040		132.812500
7041		128.906250
7042		132.812500
7043		126.953125
7044		130.859375
7045		125.000000
7046		130.859375
7047		125.000000
7048		126.953125
7049		123.046875
7050		126.953125
7051		121.093750
7052		126.953125
7053		119.140625
7054		123.046875
7055		117.187500
7056		121.093750
7057		115.234375
7058		119.140625
7059		113.281250
7060		117.187500
7061		111.328125
7062		115.234375
7063		109.375000
7064		113.281250
7065		107.421875
7066		111.328125
7067		105.468750
7068		109.375000
7069		101.562500
7070		107.421875
7071		99.609375
7072		105.468750
7073		97.656250
7074		101.562500
7075		95.703125
7076		99.609375
7077		91.796875
7078		97.656250
7079		89.843750
7080		93.750000
7081		87.890625
7082		91.796875
7083		83.984375
7084		87.890625
7085		82.031250
7086		85.937500
7087		78.125000
7088		83.984375
7089		74.218750
7090		80.078125
7091		70.312500
7092		76.171875
7093		68.359375
7094		72.265625
7095		64.453125
7096		70.312500
7097		62.500000
7098		66.406250
7099		58.593750
7100		62.500000
7101		54.687500
7102		58.593750
7103		50.781250
7104		56.640625
7105		46.875000
7106		52.734375
7107		42.968750
7108		48.828125
7109		39.062500
7110		44.921875
7111		35.156250
7112		41.015625
7113		31.250000
7114		37.109375
7115		27.343750
7116		33.203125
7117		23.437500
7118		29.296875
7119		19.531250
7120		25.390625
7121		15.625000
7122		21.484375
7123		11.718750
7124		17.578125
7125		7.812500
7126		13.671875
7127		3.906250
7128		9.765625
7129		-1.953125
7130		5.859375
7131		-3.906250
7132		1.953125
7133		-7.812500
7134		-3.906250
7135		-13.671875
7136		-5.859375
7137		-15.625000
7138		-11.718750
7139		-21.484375
7140		-13.671875
7141		-25.390625
7142		-19.531250
7143		-29.296875
7144		-23.437500
7145		-33.203125
7146		-27.343750
7147		-37.109375
7148		-31.250000
7149		-41.015625
7150		-35.156250
7151		-46.875000
7152		-41.015625
7153		-48.828125
7154		-44.921875
7155		-54.687500
7156		-48.828125
7157		-58.593750
7158		-52.734375
7159		-62.500000
7160		-56.640625
7161		-66.406250
7162		-60.546875
7163		-70.312500
7164		-64.453125
7165		-74.218750
7166		-68.359375
7167		-78.125000
7168		-72.265625
7169		-82.031250
7170		-74.218750
7171		-85.937500
7172		-80.078125
7173		-89.843750
7174		-82.031250
7175		-93.750000
7176		-85.937500
7177		-95.703125
7178		-89.843750
7179		-99.609375
7180		-93.750000
7181		-103.515625
7182		-97.656250
7183		-107.421875
7184		-101.562500
7185		-109.375000
7186		-105.468750
7187		-113.281250
7188		-107.421875
7189		-119.140625
7190		-111.328125
7191		-121.093750
7192		-113.281250
7193		-123.046875
7194		-117.187500
7195		-126.953125
7196		-121.093750
7197		-128.906250
7198		-123.046875
7199		-130.859375
7200		-126.953125
7201		-134.765625
7202		-128.906250
7203		-138.671875
7204		-130.859375
7205		-142.578125
7206		-132.812500
7207		-142.578125
7208		-134.765625
7209		-144.531250
7210		-136.718750
7211		-148.437500
7212		-140.625000
7213		-148.437500
7214		-144.531250
7215		-148.437500
7216		-146.484375
7217		-152.343750
7218		-148.437500
7219		-154.296875
7220		-146.484375
7221		-156.250000
7222		-148.437500
7223		-158.203125
7224		-150.390625
7225		-160.156250
7226		-152.343750
7227		-160.156250
7228		-154.296875
7229		-162.109375
7230		-156.250000
7231		-160.156250
7232		-156.250000
7233		-162.109375
7234		-158.203125
7235		-166.015625
7236		-158.203125
7237		-166.015625
7238		-158.203125
7239		-166.015625
7240		-158.203125
7241		-166.015625
7242		-160.156250
7243		-167.968750
7244		-160.156250
7245		-167.968750
7246		-160.156250
7247		-166.015625
7248		-160.156250
7249		-164.062500
7250		-162.109375
7251		-164.062500
7252		-162.109375
7253		-166.015625
7254		-160.156250
7255		-166.015625
7256		-160.156250
7257		-166.015625
7258		-158.203125
7259		-166.015625
7260		-158.203125
7261		-164.062500
7262		-156.250000
7263		-164.062500
7264		-156.250000
7265		-162.109375
7266		-156.250000
7267		-158.203125
7268		-156.250000
7269		-160.156250
7270		-152.343750
7271		-158.203125
7272		-150.390625
7273		-156.250000
7274		-148.437500
7275		-154.296875
7276		-146.484375
7277		-154.296875
7278		-144.531250
7279		-152.343750
7280		-144.531250
7281		-148.437500
7282		-142.578125
7283		-144.531250
7284		-142.578125
7285		-142.578125
7286		-138.671875
7287		-142.578125
7288		-134.765625
7289		-140.625000
7290		-130.859375
7291		-136.718750
7292		-130.859375
7293		-134.765625
7294		-126.953125
7295		-132.812500
7296		-125.000000
7297		-130.859375
7298		-121.093750
7299		-125.000000
7300		-121.093750
7301		-121.093750
7302		-117.187500
7303		-119.140625
7304		-111.328125
7305		-117.187500
7306		-109.375000
7307		-113.281250
7308		-105.468750
7309		-111.328125
7310		-101.562500
7311		-107.421875
7312		-97.656250
7313		-103.515625
7314		-95.703125
7315		-101.562500
7316		-93.750000
7317		-93.750000
7318		-89.843750
7319		-89.843750
7320		-83.984375
7321		-87.890625
7322		-80.078125
7323		-85.937500
7324		-76.171875
7325		-82.031250
7326		-70.312500
7327		-76.171875
7328		-68.359375
7329		-72.265625
7330		-64.453125
7331		-70.312500
7332		-62.500000
7333		-62.500000
7334		-58.593750
7335		-58.593750
7336		-52.734375
7337		-56.640625
7338		-48.828125
7339		-52.734375
7340		-42.968750
7341		-48.828125
7342		-39.062500
7343		-44.921875
7344		-35.156250
7345		-39.062500
7346		-31.250000
7347		-35.156250
7348		-27.343750
7349		-31.250000
7350		-25.390625
7351		-25.390625
7352		-19.531250
7353		-21.484375
7354		-13.671875
7355		-19.531250
7356		-9.765625
7357		-15.625000
7358		-5.859375
7359		-11.718750
7360		-1.953125
7361		-7.812500
7362		1.953125
7363		-3.906250
7364		5.859375
7365		1.953125
7366		7.812500
7367		7.812500
7368		11.718750
7369		11.718750
7370		17.578125
7371		13.671875
7372		23.437500
7373		17.578125
7374		27.343750
7375		21.484375
7376		29.296875
7377		25.390625
7378		35.156250
7379		29.296875
7380		39.062500
7381		33.203125
7382		41.015625
7383		39.062500
7384		42.968750
7385		42.968750
7386		46.875000
7387		44.921875
7388		52.734375
7389		48.828125
7390		56.640625
7391		50.781250
7392		60.546875
7393		54.687500
7394		62.500000
7395		58.593750
7396		68.359375
7397		62.500000
7398		70.312500
7399		64.453125
7400		72.265625
7401		70.312500
7402		74.218750
7403		74.218750
7404		80.078125
7405		74.218750
7406		82.031250
7407		76.171875
7408		85.937500
7409		80.078125
7410		89.843750
7411		83.984375
7412		91.796875
7413		85.937500
7414		93.750000
7415		87.890625
7416		95.703125
7417		93.750000
7418		97.656250
7419		95.703125
7420		99.609375
7421		97.656250
7422		105.468750
7423		99.609375
7424		107.421875
7425		101.562500
7426		109.375000
7427		103.515625
7428		111.328125
7429		105.468750
7430		113.281250
7431		107.421875
7432		117.187500
7433		113.281250
7434		117.187500
7435		115.234375
7436		119.140625
7437		115.234375
7438		121.093750
7439		115.234375
7440		125.000000
7441		119.140625
7442		125.000000
7443		119.140625
7444		126.953125
7445		121.093750
7446		128.906250
7447		123.046875
7448		130.859375
7449		125.000000
7450		130.859375
7451		128.906250
7452		130.859375
7453		128.906250
7454		132.812500
7455		128.906250
7456		134.765625
7457		128.906250
7458		136.718750
7459		128.906250
7460		138.671875
7461		130.859375
7462		138.671875
7463		132.812500
7464		138.671875
7465		132.812500
7466		140.625000
7467		134.765625
7468		138.671875
7469		136.718750
7470		138.671875
7471		134.765625
7472		142.578125
7473		134.765625
7474		142.578125
7475		136.718750
7476		142.578125
7477		136.718750
7478		144.531250
7479		136.718750
7480		144.531250
7481		136.718750
7482		144.531250
7483		136.718750
7484		144.531250
7485		138.671875
7486		140.625000
7487		136.718750
7488		144.531250
7489		136.718750
7490		144.531250
7491		136.718750
7492		144.531250
7493		134.765625
7494		142.578125
7495		134.765625
7496		142.578125
7497		134.765625
7498		142.578125
7499		134.765625
7500		142.578125
7501		136.718750
7502		138.671875
7503		134.765625
7504		138.671875
7505		132.812500
7506		140.625000
7507		130.859375
7508		138.671875
7509		128.906250
7510		136.718750
7511		128.906250
7512		136.718750
7513		128.906250
7514		134.765625
7515		126.953125
7516		134.765625
7517		126.953125
7518		132.812500
7519		126.953125
7520		128.906250
7521		123.046875
7522		128.906250
7523		121.093750
7524		128.906250
7525		119.140625
7526		128.906250
7527		117.187500
7528		125.000000
7529		115.234375
7530		123.046875
7531		113.281250
7532		121.093750
7533		113.281250
7534		121.093750
7535		111.328125
7536		115.234375
7537		109.375000
7538		113.281250
7539		105.468750
7540		113.281250
7541		103.515625
7542		111.328125
7543		101.562500
7544		109.375000
7545		99.609375
7546		105.468750
7547		95.703125
7548		103.515625
7549		93.750000
7550		101.562500
7551		91.796875
7552		97.656250
7553		89.843750
7554		93.750000
7555		83.984375
7556		91.796875
7557		82.031250
7558		89.843750
7559		78.125000
7560		87.890625
7561		76.171875
7562		83.984375
7563		70.312500
7564		80.078125
7565		68.359375
7566		78.125000
7567		68.359375
7568		76.171875
7569		64.453125
7570		68.359375
7571		60.546875
7572		66.406250
7573		56.640625
7574		64.453125
7575		50.781250
7576		60.546875
7577		46.875000
7578		56.640625
7579		44.921875
7580		52.734375
7581		41.015625
7582		50.781250
7583		37.109375
7584		44.921875
7585		35.156250
7586		41.015625
7587		31.250000
7588		37.109375
7589		25.390625
7590		33.203125
7591		21.484375
7592		31.250000
7593		15.625000
7594		27.343750
7595		13.671875
7596		23.437500
7597		9.765625
7598		19.531250
7599		5.859375
7600		13.671875
7601		3.906250
7602		9.765625
7603		0.000000
7604		3.906250
7605		-7.812500
7606		0.000000
7607		-11.718750
7608		-1.953125
7609		-15.625000
7610		-5.859375
7611		-17.578125
7612		-9.765625
7613		-23.437500
7614		-13.671875
7615		-27.343750
7616		-17.578125
7617		-29.296875
7618		-23.437500
7619		-33.203125
7620		-29.296875
7621		-37.109375
7622		-31.250000
7623		-44.921875
7624		-35.156250
7625		-46.875000
7626		-39.062500
7627		-50.781250
7628		-42.968750
7629		-56.640625
7630		-46.875000
7631		-60.546875
7632		-50.781250
7633		-64.453125
7634		-54.687500
7635		-66.406250
7636		-58.593750
7637		-70.312500
7638		-64.453125
7639		-76.171875
7640		-68.359375
7641		-80.078125
7642		-70.312500
7643		-83.984375
7644		-74.218750
7645		-85.937500
7646		-80.078125
7647		-89.843750
7648		-82.031250
7649		-95.703125
7650		-85.937500
7651		-95.703125
7652		-87.890625
7653		-99.609375
7654		-95.703125
7655		-105.468750
7656		-97.656250
7657		-107.421875
7658		-99.609375
7659		-113.281250
7660		-103.515625
7661		-115.234375
7662		-105.468750
7663		-117.187500
7664		-109.375000
7665		-121.093750
7666		-113.281250
7667		-123.046875
7668		-115.234375
7669		-125.000000
7670		-121.093750
7671		-128.906250
7672		-123.046875
7673		-132.812500
7674		-125.000000
7675		-136.718750
7676		-126.953125
7677		-138.671875
7678		-128.906250
7679		-140.625000
7680		-132.812500
7681		-142.578125
7682		-134.765625
7683		-146.484375
7684		-136.718750
7685		-146.484375
7686		-140.625000
7687		-146.484375
7688		-144.531250
7689		-152.343750
7690		-144.531250
7691		-152.343750
7692		-144.531250
7693		-156.250000
7694		-148.437500
7695		-156.250000
7696		-148.437500
7697		-158.203125
7698		-150.390625
7699		-160.156250
7700		-152.343750
7701		-160.156250
7702		-154.296875
7703		-160.156250
7704		-156.250000
7705		-160.156250
7706		-158.203125
7707		-164.062500
7708		-156.250000
7709		-164.062500
7710		-158.203125
7711		-166.015625
7712		-158.203125
7713		-166.015625
7714		-158.203125
7715		-166.015625
7716		-160.156250
7717		-167.968750
7718		-160.156250
7719		-166.015625
7720		-162.109375
7721		-164.062500
7722		-162.109375
7723		-167.968750
7724		-160.156250
7725		-167.968750
7726		-160.156250
7727		-166.015625
7728		-158.203125
7729		-166.015625
7730		-158.203125
7731		-166.015625
7732		-158.203125
7733		-166.015625
7734		-158.203125
7735		-162.109375
7736		-158.203125
7737		-160.156250
7738		-158.203125
7739		-162.109375
7740		-154.296875
7741		-162.109375
7742		-154.296875
7743		-160.156250
7744		-152.343750
7745		-158.203125
7746		-150.390625
7747		-158.203125
7748		-148.437500
7749		-154.296875
7750		-148.437500
7751		-152.343750
7752		-146.484375
7753		-148.437500
7754		-144.531250
7755		-146.484375
7756		-142.578125
7757		-146.484375
7758		-140.625000
7759		-146.484375
7760		-136.718750
7761		-142.578125
7762		-134.765625
7763		-140.625000
7764		-132.812500
7765		-136.718750
7766		-128.906250
7767		-134.765625
7768		-126.953125
7769		-132.812500
7770		-125.000000
7771		-126.953125
7772		-123.046875
7773		-125.000000
7774		-117.187500
7775		-123.046875
7776		-113.281250
7777		-121.093750
7778		-113.281250
7779		-117.187500
7780		-107.421875
7781		-113.281250
7782		-103.515625
7783		-109.375000
7784		-101.562500
7785		-105.468750
7786		-99.609375
7787		-101.562500
7788		-97.656250
7789		-97.656250
7790		-93.750000
7791		-95.703125
7792		-85.937500
7793		-91.796875
7794		-83.984375
7795		-89.843750
7796		-80.078125
7797		-85.937500
7798		-74.218750
7799		-82.031250
7800		-72.265625
7801		-76.171875
7802		-68.359375
7803		-70.312500
7804		-66.406250
7805		-66.406250
7806		-60.546875
7807		-62.500000
7808		-54.687500
7809		-60.546875
7810		-50.781250
7811		-56.640625
7812		-46.875000
7813		-52.734375
7814		-42.968750
7815		-48.828125
7816		-39.062500
7817		-42.968750
7818		-35.156250
7819		-39.062500
7820		-33.203125
7821		-33.203125
7822		-29.296875
7823		-29.296875
7824		-23.437500
7825		-27.343750
7826		-17.578125
7827		-21.484375
7828		-13.671875
7829		-19.531250
7830		-9.765625
7831		-15.625000
7832		-5.859375
7833		-11.718750
7834		0.000000
7835		-5.859375
7836		1.953125
7837		0.000000
7838		3.906250
7839		3.906250
7840		9.765625
7841		7.812500
7842		13.671875
7843		9.765625
7844		19.531250
7845		13.671875
7846		23.437500
7847		19.531250
7848		27.343750
7849		21.484375
7850		31.250000
7851		25.390625
7852		35.156250
7853		29.296875
7854		37.109375
7855		35.156250
7856		41.015625
7857		39.062500
7858		46.875000
7859		41.015625
7860		48.828125
7861		42.968750
7862		52.734375
7863		46.875000
7864		56.640625
7865		52.734375
7866		60.546875
7867		54.687500
7868		62.500000
7869		56.640625
7870		66.406250
7871		64.453125
7872		68.359375
7873		68.359375
7874		72.265625
7875		68.359375
7876		76.171875
7877		70.312500
7878		80.078125
7879		74.218750
7880		83.984375
7881		78.125000
7882		85.937500
7883		80.078125
7884		89.843750
7885		82.031250
7886		91.796875
7887		87.890625
7888		93.750000
7889		91.796875
7890		95.703125
7891		93.750000
7892		99.609375
7893		95.703125
7894		101.562500
7895		97.656250
7896		103.515625
7897		99.609375
7898		107.421875
7899		101.562500
7900		109.375000
7901		105.468750
7902		111.328125
7903		107.421875
7904		113.281250
7905		111.328125
7906		115.234375
7907		113.281250
7908		117.187500
7909		111.328125
7910		121.093750
7911		115.234375
7912		121.093750
7913		115.234375
7914		123.046875
7915		117.187500
7916		125.000000
7917		119.140625
7918		128.906250
7919		121.093750
7920		128.906250
7921		125.000000
7922		128.906250
7923		126.953125
7924		128.906250
7925		126.953125
7926		132.812500
7927		126.953125
7928		134.765625
7929		128.906250
7930		134.765625
7931		128.906250
7932		136.718750
7933		130.859375
7934		138.671875
7935		130.859375
7936		138.671875
7937		132.812500
7938		138.671875
7939		134.765625
7940		138.671875
7941		134.765625
7942		140.625000
7943		134.765625
7944		142.578125
7945		134.765625
7946		142.578125
7947		134.765625
7948		142.578125
7949		136.718750
7950		142.578125
7951		134.765625
7952		142.578125
7953		136.718750
7954		142.578125
7955		138.671875
7956		142.578125
7957		138.671875
7958		140.625000
7959		136.718750
7960		144.531250
7961		136.718750
7962		144.531250
7963		134.765625
7964		142.578125
7965		136.718750
7966		142.578125
7967		134.765625
7968		142.578125
7969		134.765625
7970		142.578125
7971		136.718750
7972		140.625000
7973		136.718750
7974		138.671875
7975		134.765625
7976		140.625000
7977		132.812500
7978		140.625000
7979		132.812500
7980		140.625000
7981		130.859375
7982		138.671875
7983		130.859375
7984		138.671875
7985		128.906250
7986		136.718750
7987		128.906250
7988		136.718750
7989		128.906250
7990		132.812500
7991		126.953125
7992		130.859375
7993		123.046875
7994		130.859375
7995		123.046875
7996		128.906250
7997		121.093750
7998		128.906250
7999		119.140625
8000		126.953125
8001		117.187500
8002		126.953125
8003		115.234375
8004		123.046875
8005		115.234375
8006		119.140625
8007		113.281250
8008		117.187500
8009		109.375000
8010		117.187500
8011		107.421875
8012		115.234375
8013		105.468750
8014		113.281250
8015		103.515625
8016		111.328125
8017		99.609375
8018		107.421875
8019		97.656250
8020		107.421875
8021		97.656250
8022		103.515625
8023		95.703125
8024		99.609375
8025		89.843750
8026		97.656250
8027		87.890625
8028		95.703125
8029		83.984375
8030		91.796875
8031		82.031250
8032		89.843750
8033		78.125000
8034		85.937500
8035		74.218750
8036		83.984375
8037		72.265625
8038		82.031250
8039		70.312500
8040		76.171875
8041		68.359375
8042		72.265625
8043		62.500000
8044		70.312500
8045		58.593750
8046		68.359375
8047		54.687500
8048		64.453125
8049		50.781250
8050		60.546875
8051		48.828125
8052		56.640625
8053		42.968750
8054		52.734375
8055		42.968750
8056		48.828125
8057		37.109375
8058		42.968750
8059		35.156250
8060		41.015625
8061		27.343750
8062		39.062500
8063		25.390625
8064		33.203125
8065		21.484375
8066		31.250000
8067		17.578125
8068		27.343750
8069		11.718750
8070		21.484375
8071		11.718750
8072		17.578125
8073		7.812500
8074		11.718750
8075		1.953125
8076		7.812500
8077		-3.906250
8078		7.812500
8079		-7.812500
8080		1.953125
8081		-11.718750
8082		-1.953125
8083		-15.625000
8084		-5.859375
8085		-19.531250
8086		-11.718750
8087		-23.437500
8088		-15.625000
8089		-25.390625
8090		-19.531250
8091		-29.296875
8092		-25.390625
8093		-37.109375
8094		-29.296875
8095		-39.062500
8096		-33.203125
8097		-44.921875
8098		-35.156250
8099		-48.828125
8100		-39.062500
8101		-52.734375
8102		-44.921875
8103		-56.640625
8104		-46.875000
8105		-58.593750
8106		-50.781250
8107		-62.500000
8108		-58.593750
8109		-68.359375
8110		-60.546875
8111		-72.265625
8112		-62.500000
8113		-76.171875
8114		-66.406250
8115		-80.078125
8116		-72.265625
8117		-83.984375
8118		-76.171875
8119		-87.890625
8120		-78.125000
8121		-91.796875
8122		-82.031250
8123		-93.750000
8124		-87.890625
8125		-97.656250
8126		-91.796875
8127		-101.562500
8128		-93.750000
8129		-105.468750
8130		-95.703125
8131		-109.375000
8132		-99.609375
8133		-111.328125
8134		-103.515625
8135		-115.234375
8136		-107.421875
8137		-119.140625
8138		-109.375000
8139		-119.140625
8140		-113.281250
8141		-123.046875
8142		-119.140625
8143		-126.953125
8144		-121.093750
8145		-130.859375
8146		-121.093750
8147		-134.765625
8148		-125.000000
8149		-136.718750
8150		-126.953125
8151		-138.671875
8152		-130.859375
8153		-142.578125
8154		-132.812500
8155		-142.578125
8156		-134.765625
8157		-144.531250
8158		-140.625000
8159		-146.484375
8160		-142.578125
8161		-150.390625
8162		-142.578125
8163		-152.343750
8164		-144.531250
8165		-154.296875
8166		-146.484375
8167		-156.250000
8168		-148.437500
8169		-156.250000
8170		-150.390625
8171		-158.203125
8172		-150.390625
8173		-158.203125
8174		-154.296875
8175		-160.156250
8176		-156.250000
8177		-162.109375
8178		-154.296875
8179		-164.062500
8180		-156.250000
8181		-164.062500
8182		-158.203125
8183		-166.015625
8184		-158.203125
8185		-166.015625
8186		-158.203125
8187		-166.015625
8188		-160.156250
8189		-166.015625
8190		-160.156250
8191		-164.062500
8192		-162.109375
8193		-167.968750
8194		-160.156250
8195		-167.968750
8196		-160.156250
8197		-167.968750
8198		-160.156250
8199		-167.968750
8200		-160.156250
8201		-167.968750
8202		-160.156250
8203		-166.015625
8204		-158.203125
8205		-166.015625
8206		-158.203125
8207		-164.062500
8208		-160.156250
8209		-162.109375
8210		-160.156250
8211		-164.062500
8212		-156.250000
8213		-162.109375
8214		-154.296875
8215		-162.109375
8216		-154.296875
8217		-160.156250
8218		-152.343750
8219		-158.203125
8220		-150.390625
8221		-156.250000
8222		-148.437500
8223		-154.296875
8224		-150.390625
8225		-150.390625
8226		-148.437500
8227		-150.390625
8228		-142.578125
8229		-150.390625
8230		-140.625000
8231		-148.437500
8232		-138.671875
8233		-144.531250
8234		-138.671875
8235		-142.578125
8236		-134.765625
8237		-140.625000
8238		-130.859375
8239		-138.671875
8240		-130.859375
8241		-132.812500
8242		-128.906250
8243		-130.859375
8244		-125.000000
8245		-128.906250
8246		-121.093750
8247		-126.953125
8248		-117.187500
8249		-123.046875
8250		-113.281250
8251		-119.140625
8252		-111.328125
8253		-117.187500
8254		-107.421875
8255		-113.281250
8256		-105.468750
8257		-109.375000
8258		-103.515625
8259		-103.515625
8260		-99.609375
8261		-101.562500
8262		-93.750000
8263		-99.609375
8264		-89.843750
8265		-95.703125
8266		-85.937500
8267		-91.796875
8268		-82.031250
8269		-87.890625
8270		-78.125000
8271		-83.984375
8272		-76.171875
8273		-82.031250
8274		-72.265625
8275		-74.218750
8276		-68.359375
8277		-70.312500
8278		-62.500000
8279		-68.359375
8280		-58.593750
8281		-64.453125
8282		-54.687500
8283		-60.546875
8284		-50.781250
8285		-56.640625
8286		-46.875000
8287		-52.734375
8288		-42.968750
8289		-46.875000
8290		-39.062500
8291		-41.015625
8292		-35.156250
8293		-37.109375
8294		-31.250000
8295		-33.203125
8296		-25.390625
8297		-31.250000
8298		-21.484375
8299		-27.343750
8300		-17.578125
8301		-23.437500
8302		-13.671875
8303		-17.578125
8304		-7.812500
8305		-13.671875
8306		-3.906250
8307		-9.765625
8308		-1.953125
8309		-3.906250
8310		1.953125
8311		0.000000
8312		7.812500
8313		1.953125
8314		11.718750
8315		7.812500
8316		17.578125
8317		9.765625
8318		19.531250
8319		13.671875
8320		23.437500
8321		17.578125
8322		27.343750
8323		23.437500
8324		31.250000
8325		27.343750
8326		33.203125
8327		31.250000
8328		37.109375
8329		33.203125
8330		42.968750
8331		37.109375
8332		46.875000
8333		41.015625
8334		50.781250
8335		44.921875
8336		54.687500
8337		48.828125
8338		58.593750
8339		52.734375
8340		60.546875
8341		56.640625
8342		62.500000
8343		60.546875
8344		66.406250
8345		62.500000
8346		70.312500
8347		64.453125
8348		74.218750
8349		68.359375
8350		78.125000
8351		72.265625
8352		82.031250
8353		74.218750
8354		83.984375
8355		78.125000
8356		85.937500
8357		80.078125
8358		87.890625
8359		85.937500
8360		89.843750
8361		89.843750
8362		95.703125
8363		89.843750
8364		97.656250
8365		91.796875
8366		101.562500
8367		95.703125
8368		103.515625
8369		97.656250
8370		105.468750
8371		99.609375
8372		107.421875
8373		101.562500
8374		109.375000
8375		107.421875
8376		109.375000
8377		109.375000
8378		111.328125
8379		109.375000
8380		117.187500
8381		111.328125
8382		119.140625
8383		111.328125
8384		121.093750
8385		115.234375
8386		123.046875
8387		115.234375
8388		125.000000
8389		119.140625
8390		125.000000
8391		119.140625
8392		126.953125
8393		123.046875
8394		126.953125
8395		123.046875
8396		130.859375
8397		123.046875
8398		132.812500
8399		125.000000
8400		132.812500
8401		126.953125
8402		134.765625
8403		126.953125
8404		134.765625
8405		128.906250
8406		136.718750
8407		130.859375
8408		136.718750
8409		132.812500
8410		136.718750
8411		134.765625
8412		136.718750
8413		132.812500
8414		140.625000
8415		132.812500
8416		140.625000
8417		134.765625
8418		140.625000
8419		134.765625
8420		142.578125
8421		134.765625
8422		142.578125
8423		136.718750
8424		142.578125
8425		138.671875
8426		142.578125
8427		138.671875
8428		140.625000
8429		134.765625
8430		142.578125
8431		136.718750
8432		144.531250
8433		136.718750
8434		142.578125
8435		136.718750
8436		142.578125
8437		134.765625
8438		142.578125
8439		134.765625
8440		142.578125
8441		134.765625
8442		142.578125
8443		136.718750
8444		138.671875
8445		134.765625
8446		138.671875
8447		132.812500
8448		140.625000
8449		132.812500
8450		140.625000
8451		132.812500
8452		138.671875
8453		130.859375
8454		138.671875
8455		128.906250
8456		136.718750
8457		128.906250
8458		136.718750
8459		130.859375
8460		132.812500
8461		128.906250
8462		132.812500
8463		125.000000
8464		132.812500
8465		123.046875
8466		132.812500
8467		123.046875
8468		130.859375
8469		121.093750
8470		128.906250
8471		119.140625
8472		126.953125
8473		117.187500
8474		125.000000
8475		117.187500
8476		123.046875
8477		115.234375
8478		119.140625
8479		111.328125
8480		119.140625
8481		111.328125
8482		119.140625
8483		107.421875
8484		115.234375
8485		105.468750
8486		115.234375
8487		103.515625
8488		111.328125
8489		101.562500
8490		109.375000
8491		99.609375
8492		107.421875
8493		97.656250
8494		101.562500
8495		95.703125
8496		99.609375
8497		89.843750
8498		99.609375
8499		87.890625
8500		95.703125
8501		83.984375
8502		93.750000
8503		82.031250
8504		91.796875
8505		80.078125
8506		87.890625
8507		76.171875
8508		83.984375
8509		74.218750
8510		80.078125
8511		72.265625
8512		76.171875
8513		66.406250
8514		72.265625
8515		62.500000
8516		70.312500
8517		58.593750
8518		68.359375
8519		56.640625
8520		64.453125
8521		52.734375
8522		62.500000
8523		48.828125
8524		58.593750
8525		46.875000
8526		54.687500
8527		42.968750
8528		48.828125
8529		39.062500
8530		44.921875
8531		33.203125
8532		42.968750
8533		29.296875
8534		39.062500
8535		25.390625
8536		35.156250
8537		21.484375
8538		33.203125
8539		17.578125
8540		27.343750
8541		13.671875
8542		23.437500
8543		11.718750
8544		17.578125
8545		7.812500
8546		13.671875
8547		1.953125
8548		9.765625
8549		-1.953125
8550		5.859375
8551		-5.859375
8552		3.906250
8553		-9.765625
8554		0.000000
8555		-13.671875
8556		-5.859375
8557		-19.531250
8558		-7.812500
8559		-21.484375
8560		-13.671875
8561		-25.390625
8562		-19.531250
8563		-31.250000
8564		-23.437500
8565		-35.156250
8566		-27.343750
8567		-39.062500
8568		-29.296875
8569		-42.968750
8570		-33.203125
8571		-48.828125
8572		-37.109375
8573		-50.781250
8574		-41.015625
8575		-54.687500
8576		-46.875000
8577		-58.593750
8578		-52.734375
8579		-62.500000
8580		-56.640625
8581		-66.406250
8582		-58.593750
8583		-72.265625
8584		-62.500000
8585		-76.171875
8586		-66.406250
8587		-80.078125
8588		-70.312500
8589		-83.984375
8590		-74.218750
8591		-87.890625
8592		-78.125000
8593		-87.890625
8594		-83.984375
8595		-93.750000
8596		-87.890625
8597		-95.703125
8598		-91.796875
8599		-101.562500
8600		-91.796875
8601		-103.515625
8602		-95.703125
8603		-109.375000
8604		-97.656250
8605		-111.328125
8606		-103.515625
8607		-115.234375
8608		-105.468750
8609		-117.187500
8610		-111.328125
8611		-119.140625
8612		-115.234375
8613		-123.046875
8614		-117.187500
8615		-126.953125
8616		-119.140625
8617		-130.859375
8618		-121.093750
8619		-132.812500
8620		-125.000000
8621		-136.718750
8622		-126.953125
8623		-138.671875
8624		-128.906250
8625		-140.625000
8626		-132.812500
8627		-140.625000
8628		-136.718750
8629		-144.531250
8630		-140.625000
8631		-148.437500
8632		-140.625000
8633		-150.390625
8634		-140.625000
8635		-152.343750
8636		-144.531250
8637		-154.296875
8638		-146.484375
8639		-156.250000
8640		-148.437500
8641		-156.250000
8642		-150.390625
8643		-158.203125
8644		-150.390625
8645		-158.203125
8646		-154.296875
8647		-160.156250
8648		-156.250000
8649		-164.062500
8650		-156.250000
8651		-164.062500
8652		-156.250000
8653		-164.062500
8654		-158.203125
8655		-166.015625
8656		-158.203125
8657		-166.015625
8658		-158.203125
8659		-167.968750
8660		-160.156250
8661		-166.015625
8662		-162.109375
8663		-166.015625
8664		-164.062500
8665		-167.968750
8666		-160.156250
8667		-167.968750
8668		-160.156250
8669		-167.968750
8670		-162.109375
8671		-167.968750
8672		-160.156250
8673		-167.968750
8674		-160.156250
8675		-167.968750
8676		-160.156250
8677		-166.015625
8678		-160.156250
8679		-164.062500
8680		-162.109375
8681		-164.062500
8682		-158.203125
8683		-164.062500
8684		-156.250000
8685		-164.062500
8686		-156.250000
8687		-162.109375
8688		-154.296875
8689		-162.109375
8690		-154.296875
8691		-160.156250
8692		-152.343750
8693		-158.203125
8694		-152.343750
8695		-154.296875
8696		-152.343750
8697		-152.343750
8698		-150.390625
8699		-152.343750
8700		-144.531250
8701		-150.390625
8702		-142.578125
8703		-148.437500
8704		-140.625000
8705		-146.484375
8706		-138.671875
8707		-144.531250
8708		-134.765625
8709		-142.578125
8710		-134.765625
8711		-138.671875
8712		-132.812500
8713		-134.765625
8714		-130.859375
8715		-132.812500
8716		-125.000000
8717		-130.859375
8718		-121.093750
8719		-126.953125
8720		-119.140625
8721		-125.000000
8722		-115.234375
8723		-123.046875
8724		-113.281250
8725		-119.140625
8726		-109.375000
8727		-115.234375
8728		-109.375000
8729		-109.375000
8730		-105.468750
8731		-105.468750
8732		-99.609375
8733		-103.515625
8734		-95.703125
8735		-101.562500
8736		-93.750000
8737		-95.703125
8738		-89.843750
8739		-93.750000
8740		-85.937500
8741		-89.843750
8742		-82.031250
8743		-85.937500
8744		-78.125000
8745		-80.078125
8746		-74.218750
8747		-76.171875
8748		-70.312500
8749		-74.218750
8750		-64.453125
8751		-70.312500
8752		-60.546875
8753		-66.406250
8754		-56.640625
8755		-62.500000
8756		-52.734375
8757		-58.593750
8758		-48.828125
8759		-52.734375
8760		-44.921875
8761		-48.828125
8762		-42.968750
8763		-42.968750
8764		-39.062500
8765		-39.062500
8766		-33.203125
8767		-37.109375
8768		-27.343750
8769		-33.203125
8770		-23.437500
8771		-29.296875
8772		-19.531250
8773		-25.390625
8774		-15.625000
8775		-19.531250
8776		-11.718750
8777		-17.578125
8778		-9.765625
8779		-9.765625
8780		-5.859375
8781		-5.859375
8782		0.000000
8783		-3.906250
8784		5.859375
8785		0.000000
8786		9.765625
8787		3.906250
8788		13.671875
8789		7.812500
8790		17.578125
8791		11.718750
8792		21.484375
8793		15.625000
8794		25.390625
8795		21.484375
8796		27.343750
8797		25.390625
8798		31.250000
8799		29.296875
8800		37.109375
8801		31.250000
8802		41.015625
8803		35.156250
8804		44.921875
8805		39.062500
8806		48.828125
8807		42.968750
8808		52.734375
8809		46.875000
8810		54.687500
8811		50.781250
8812		56.640625
8813		56.640625
8814		60.546875
8815		58.593750
8816		64.453125
8817		60.546875
8818		70.312500
8819		62.500000
8820		72.265625
8821		68.359375
8822		76.171875
8823		70.312500
8824		78.125000
8825		74.218750
8826		82.031250
8827		76.171875
8828		83.984375
8829		82.031250
8830		85.937500
8831		83.984375
8832		89.843750
8833		85.937500
8834		93.750000
8835		87.890625
8836		95.703125
8837		91.796875
8838		99.609375
8839		93.750000
8840		101.562500
8841		97.656250
8842		105.468750
8843		99.609375
8844		107.421875
8845		101.562500
8846		107.421875
8847		105.468750
8848		109.375000
8849		107.421875
8850		113.281250
8851		109.375000
8852		117.187500
8853		109.375000
8854		119.140625
8855		113.281250
8856		119.140625
8857		115.234375
8858		123.046875
8859		117.187500
8860		125.000000
8861		117.187500
8862		125.000000
8863		121.093750
8864		125.000000
8865		123.046875
8866		126.953125
8867		123.046875
8868		130.859375
8869		123.046875
8870		132.812500
8871		126.953125
8872		132.812500
8873		126.953125
8874		134.765625
8875		128.906250
8876		136.718750
8877		128.906250
8878		136.718750
8879		130.859375
8880		134.765625
8881		132.812500
8882		136.718750
8883		132.812500
8884		140.625000
8885		132.812500
8886		140.625000
8887		132.812500
8888		140.625000
8889		134.765625
8890		142.578125
8891		134.765625
8892		142.578125
8893		136.718750
8894		142.578125
8895		136.718750
8896		142.578125
8897		138.671875
8898		140.625000
8899		136.718750
8900		142.578125
8901		136.718750
8902		144.531250
8903		136.718750
8904		144.531250
8905		136.718750
8906		144.531250
8907		136.718750
8908		144.531250
8909		136.718750
8910		144.531250
8911		136.718750
8912		144.531250
8913		138.671875
8914		140.625000
8915		138.671875
8916		140.625000
8917		136.718750
8918		142.578125
8919		134.765625
8920		142.578125
8921		134.765625
8922		142.578125
8923		132.812500
8924		140.625000
8925		132.812500
8926		140.625000
8927		132.812500
8928		138.671875
8929		130.859375
8930		138.671875
8931		132.812500
8932		134.765625
8933		128.906250
8934		136.718750
8935		126.953125
8936		134.765625
8937		125.000000
8938		134.765625
8939		125.000000
8940		132.812500
8941		123.046875
8942		130.859375
8943		121.093750
8944		128.906250
8945		121.093750
8946		126.953125
8947		121.093750
8948		125.000000
8949		119.140625
8950		123.046875
8951		115.234375
8952		123.046875
8953		113.281250
8954		121.093750
8955		111.328125
8956		119.140625
8957		107.421875
8958		117.187500
8959		105.468750
8960		115.234375
8961		103.515625
8962		113.281250
8963		103.515625
8964		109.375000
8965		101.562500
8966		105.468750
8967		95.703125
8968		103.515625
8969		93.750000
8970		103.515625
8971		91.796875
8972		99.609375
8973		87.890625
8974		95.703125
8975		85.937500
8976		93.750000
8977		82.031250
8978		91.796875
8979		82.031250
8980		87.890625
8981		78.125000
8982		83.984375
8983		72.265625
8984		80.078125
8985		70.312500
8986		78.125000
8987		68.359375
8988		76.171875
8989		62.500000
8990		72.265625
8991		62.500000
8992		68.359375
8993		56.640625
8994		66.406250
8995		52.734375
8996		62.500000
8997		50.781250
8998		56.640625
8999		48.828125
9000		52.734375
9001		42.968750
9002		50.781250
9003		37.109375
9004		48.828125
9005		33.203125
9006		44.921875
9007		31.250000
9008		41.015625
9009		27.343750
9010		35.156250
9011		23.437500
9012		33.203125
9013		21.484375
9014		29.296875
9015		17.578125
9016		21.484375
9017		11.718750
9018		17.578125
9019		5.859375
9020		15.625000
9021		1.953125
9022		11.718750
9023		-1.953125
9024		7.812500
9025		-3.906250
9026		1.953125
9027		-9.765625
9028		0.000000
9029		-11.718750
9030		-5.859375
9031		-15.625000
9032		-9.765625
9033		-19.531250
9034		-13.671875
9035		-25.390625
9036		-17.578125
9037		-29.296875
9038		-21.484375
9039		-35.156250
9040		-23.437500
9041		-37.109375
9042		-29.296875
9043		-42.968750
9044		-33.203125
9045		-44.921875
9046		-37.109375
9047		-48.828125
9048		-41.015625
9049		-52.734375
9050		-46.875000
9051		-58.593750
9052		-50.781250
9053		-62.500000
9054		-52.734375
9055		-66.406250
9056		-58.593750
9057		-70.312500
9058		-60.546875
9059		-74.218750
9060		-64.453125
9061		-78.125000
9062		-68.359375
9063		-80.078125
9064		-74.218750
9065		-83.984375
9066		-78.125000
9067		-89.843750
9068		-82.031250
9069		-93.750000
9070		-83.984375
9071		-95.703125
9072		-87.890625
9073		-101.562500
9074		-91.796875
9075		-103.515625
9076		-95.703125
9077		-107.421875
9078		-97.656250
9079		-109.375000
9080		-101.562500
9081		-111.328125
9082		-105.468750
9083		-115.234375
9084		-109.375000
9085		-121.093750
9086		-111.328125
9087		-123.046875
9088		-113.281250
9089		-125.000000
9090		-117.187500
9091		-128.906250
9092		-121.093750
9093		-132.812500
9094		-123.046875
9095		-134.765625
9096		-125.000000
9097		-134.765625
9098		-126.953125
9099		-136.718750
9100		-132.812500
9101		-140.625000
9102		-136.718750
9103		-144.531250
9104		-134.765625
9105		-146.484375
9106		-138.671875
9107		-148.437500
9108		-140.625000
9109		-150.390625
9110		-142.578125
9111		-152.343750
9112		-144.531250
9113		-154.296875
9114		-146.484375
9115		-154.296875
9116		-150.390625
9117		-154.296875
9118		-152.343750
9119		-158.203125
9120		-150.390625
9121		-160.156250
9122		-152.343750
9123		-162.109375
9124		-152.343750
9125		-162.109375
9126		-154.296875
9127		-162.109375
9128		-156.250000
9129		-164.062500
9130		-156.250000
9131		-164.062500
9132		-158.203125
9133		-162.109375
9134		-160.156250
9135		-166.015625
9136		-158.203125
9137		-166.015625
9138		-158.203125
9139		-166.015625
9140		-158.203125
9141		-166.015625
9142		-158.203125
9143		-166.015625
9144		-160.156250
9145		-166.015625
9146		-158.203125
9147		-166.015625
9148		-158.203125
9149		-162.109375
9150		-160.156250
9151		-164.062500
9152		-158.203125
9153		-164.062500
9154		-156.250000
9155		-164.062500
9156		-156.250000
9157		-164.062500
9158		-154.296875
9159		-162.109375
9160		-154.296875
9161		-160.156250
9162		-152.343750
9163		-158.203125
9164		-152.343750
9165		-158.203125
9166		-152.343750
9167		-154.296875
9168		-150.390625
9169		-154.296875
9170		-146.484375
9171		-152.343750
9172		-144.531250
9173		-150.390625
9174		-142.578125
9175		-150.390625
9176		-142.578125
9177		-148.437500
9178		-138.671875
9179		-144.531250
9180		-136.718750
9181		-140.625000
9182		-134.765625
9183		-136.718750
9184		-134.765625
9185		-136.718750
9186		-128.906250
9187		-134.765625
9188		-125.000000
9189		-130.859375
9190		-123.046875
9191		-128.906250
9192		-121.093750
9193		-125.000000
9194		-117.187500
9195		-123.046875
9196		-115.234375
9197		-121.093750
9198		-111.328125
9199		-115.234375
9200		-109.375000
9201		-111.328125
9202		-105.468750
9203		-109.375000
9204		-99.609375
9205		-107.421875
9206		-97.656250
9207		-103.515625
9208		-93.750000
9209		-99.609375
9210		-89.843750
9211		-95.703125
9212		-85.937500
9213		-91.796875
9214		-82.031250
9215		-85.937500
9216		-80.078125
9217		-82.031250
9218		-78.125000
9219		-78.125000
9220		-70.312500
9221		-76.171875
9222		-68.359375
9223		-72.265625
9224		-62.500000
9225		-68.359375
9226		-58.593750
9227		-62.500000
9228		-54.687500
9229		-60.546875
9230		-50.781250
9231		-56.640625
9232		-46.875000
9233		-50.781250
9234		-44.921875
9235		-44.921875
9236		-41.015625
9237		-42.968750
9238		-35.156250
9239		-39.062500
9240		-31.250000
9241		-35.156250
9242		-25.390625
9243		-31.250000
9244		-21.484375
9245		-25.390625
9246		-17.578125
9247		-23.437500
9248		-13.671875
9249		-17.578125
9250		-11.718750
9251		-11.718750
9252		-7.812500
9253		-9.765625
9254		0.000000
9255		-5.859375
9256		3.906250
9257		-1.953125
9258		5.859375
9259		1.953125
9260		11.718750
9261		5.859375
9262		15.625000
9263		9.765625
9264		19.531250
9265		15.625000
9266		21.484375
9267		19.531250
9268		25.390625
9269		23.437500
9270		31.250000
9271		25.390625
9272		37.109375
9273		31.250000
9274		39.062500
9275		33.203125
9276		42.968750
9277		37.109375
9278		46.875000
9279		41.015625
9280		50.781250
9281		44.921875
9282		52.734375
9283		50.781250
9284		54.687500
9285		54.687500
9286		58.593750
9287		56.640625
9288		66.406250
9289		58.593750
9290		68.359375
9291		62.500000
9292		70.312500
9293		66.406250
9294		74.218750
9295		68.359375
9296		76.171875
9297		70.312500
9298		82.031250
9299		76.171875
9300		82.031250
9301		80.078125
9302		83.984375
9303		83.984375
9304		87.890625
9305		83.984375
9306		91.796875
9307		87.890625
9308		95.703125
9309		89.843750
9310		97.656250
9311		91.796875
9312		101.562500
9313		93.750000
9314		103.515625
9315		97.656250
9316		105.468750
9317		101.562500
9318		105.468750
9319		105.468750
9320		109.375000
9321		105.468750
9322		113.281250
9323		107.421875
9324		115.234375
9325		109.375000
9326		117.187500
9327		111.328125
9328		119.140625
9329		113.281250
9330		121.093750
9331		115.234375
9332		123.046875
9333		117.187500
9334		123.046875
9335		121.093750
9336		123.046875
9337		121.093750
9338		128.906250
9339		121.093750
9340		128.906250
9341		123.046875
9342		130.859375
9343		125.000000
9344		132.812500
9345		126.953125
9346		134.765625
9347		128.906250
9348		134.765625
9349		126.953125
9350		136.718750
9351		130.859375
9352		134.765625
9353		132.812500
9354		136.718750
9355		132.812500
9356		140.625000
9357		132.812500
9358		138.671875
9359		132.812500
9360		140.625000
9361		132.812500
9362		142.578125
9363		134.765625
9364		142.578125
9365		134.765625
9366		142.578125
9367		138.671875
9368		140.625000
9369		138.671875
9370		140.625000
9371		136.718750
9372		142.578125
9373		136.718750
9374		144.531250
9375		136.718750
9376		144.531250
9377		136.718750
9378		144.531250
9379		136.718750
9380		142.578125
9381		136.718750
9382		144.531250
9383		136.718750
9384		144.531250
9385		138.671875
9386		140.625000
9387		136.718750
9388		142.578125
9389		134.765625
9390		142.578125
9391		134.765625
9392		142.578125
9393		134.765625
9394		142.578125
9395		134.765625
9396		140.625000
9397		132.812500
9398		140.625000
9399		132.812500
9400		140.625000
9401		132.812500
9402		136.718750
9403		132.812500
9404		134.765625
9405		128.906250
9406		136.718750
9407		128.906250
9408		136.718750
9409		126.953125
9410		134.765625
9411		125.000000
9412		132.812500
9413		125.000000
9414		130.859375
9415		123.046875
9416		130.859375
9417		123.046875
9418		126.953125
9419		121.093750
9420		125.000000
9421		117.187500
9422		125.000000
9423		115.234375
9424		123.046875
9425		113.281250
9426		121.093750
9427		111.328125
9428		121.093750
9429		109.375000
9430		119.140625
9431		107.421875
9432		115.234375
9433		107.421875
9434		113.281250
9435		105.468750
9436		109.375000
9437		101.562500
9438		107.421875
9439		97.656250
9440		105.468750
9441		95.703125
9442		103.515625
9443		91.796875
9444		101.562500
9445		89.843750
9446		99.609375
9447		87.890625
9448		95.703125
9449		83.984375
9450		91.796875
9451		83.984375
9452		87.890625
9453		80.078125
9454		83.984375
9455		74.218750
9456		82.031250
9457		72.265625
9458		82.031250
9459		68.359375
9460		76.171875
9461		64.453125
9462		74.218750
9463		62.500000
9464		70.312500
9465		58.593750
9466		68.359375
9467		56.640625
9468		62.500000
9469		52.734375
9470		58.593750
9471		46.875000
9472		54.687500
9473		42.968750
9474		52.734375
9475		41.015625
9476		50.781250
9477		37.109375
9478		44.921875
9479		33.203125
9480		42.968750
9481		29.296875
9482		39.062500
9483		25.390625
9484		35.156250
9485		23.437500
9486		27.343750
9487		19.531250
9488		25.390625
9489		13.671875
9490		21.484375
9491		9.765625
9492		17.578125
9493		5.859375
9494		13.671875
9495		0.000000
9496		9.765625
9497		-3.906250
9498		5.859375
9499		-7.812500
9500		1.953125
9501		-9.765625
9502		-3.906250
9503		-13.671875
9504		-7.812500
9505		-19.531250
9506		-13.671875
9507		-23.437500
9508		-13.671875
9509		-27.343750
9510		-17.578125
9511		-31.250000
9512		-23.437500
9513		-37.109375
9514		-27.343750
9515		-41.015625
9516		-31.250000
9517		-42.968750
9518		-35.156250
9519		-46.875000
9520		-41.015625
9521		-52.734375
9522		-44.921875
9523		-56.640625
9524		-48.828125
9525		-60.546875
9526		-50.781250
9527		-64.453125
9528		-56.640625
9529		-68.359375
9530		-60.546875
9531		-72.265625
9532		-64.453125
9533		-76.171875
9534		-68.359375
9535		-78.125000
9536		-74.218750
9537		-82.031250
9538		-76.171875
9539		-87.890625
9540		-80.078125
9541		-91.796875
9542		-83.984375
9543		-95.703125
9544		-85.937500
9545		-99.609375
9546		-89.843750
9547		-101.562500
9548		-93.750000
9549		-105.468750
9550		-97.656250
9551		-107.421875
9552		-99.609375
9553		-111.328125
9554		-105.468750
9555		-115.234375
9556		-109.375000
9557		-119.140625
9558		-111.328125
9559		-123.046875
9560		-113.281250
9561		-125.000000
9562		-117.187500
9563		-128.906250
9564		-119.140625
9565		-130.859375
9566		-123.046875
9567		-132.812500
9568		-125.000000
9569		-134.765625
9570		-130.859375
9571		-136.718750
9572		-132.812500
9573		-142.578125
9574		-134.765625
9575		-144.531250
9576		-134.765625
9577		-144.531250
9578		-138.671875
9579		-148.437500
9580		-140.625000
9581		-150.390625
9582		-140.625000
9583		-152.343750
9584		-144.531250
9585		-152.343750
9586		-146.484375
9587		-154.296875
9588		-150.390625
9589		-158.203125
9590		-150.390625
9591		-158.203125
9592		-152.343750
9593		-160.156250
9594		-152.343750
9595		-162.109375
9596		-154.296875
9597		-162.109375
9598		-156.250000
9599		-164.062500
9600		-156.250000
9601		-164.062500
9602		-158.203125
9603		-164.062500
9604		-160.156250
9605		-166.015625
9606		-160.156250
9607		-166.015625
9608		-160.156250
9609		-167.968750
9610		-160.156250
9611		-167.968750
9612		-160.156250
9613		-167.968750
9614		-160.156250
9615		-167.968750
9616		-160.156250
9617		-167.968750
9618		-160.156250
9619		-164.062500
9620		-162.109375
9621		-164.062500
9622		-162.109375
9623		-167.968750
9624		-160.156250
9625		-166.015625
9626		-158.203125
9627		-166.015625
9628		-158.203125
9629		-164.062500
9630		-158.203125
9631		-164.062500
9632		-156.250000
9633		-164.062500
9634		-156.250000
9635		-162.109375
9636		-154.296875
9637		-158.203125
9638		-154.296875
9639		-158.203125
9640		-152.343750
9641		-156.250000
9642		-150.390625
9643		-156.250000
9644		-148.437500
9645		-154.296875
9646		-146.484375
9647		-152.343750
9648		-144.531250
9649		-150.390625
9650		-142.578125
9651		-148.437500
9652		-140.625000
9653		-142.578125
9654		-140.625000
9655		-140.625000
9656		-136.718750
9657		-140.625000
9658		-132.812500
9659		-138.671875
9660		-130.859375
9661		-136.718750
9662		-126.953125
9663		-132.812500
9664		-125.000000
9665		-128.906250
9666		-121.093750
9667		-126.953125
9668		-117.187500
9669		-123.046875
9670		-117.187500
9671		-119.140625
9672		-113.281250
9673		-115.234375
9674		-107.421875
9675		-113.281250
9676		-105.468750
9677		-111.328125
9678		-101.562500
9679		-107.421875
9680		-99.609375
9681		-103.515625
9682		-95.703125
9683		-101.562500
9684		-89.843750
9685		-95.703125
9686		-87.890625
9687		-89.843750
9688		-85.937500
9689		-87.890625
9690		-80.078125
9691		-85.937500
9692		-76.171875
9693		-82.031250
9694		-70.312500
9695		-76.171875
9696		-68.359375
9697		-74.218750
9698		-64.453125
9699		-70.312500
9700		-58.593750
9701		-64.453125
9702		-54.687500
9703		-58.593750
9704		-52.734375
9705		-54.687500
9706		-48.828125
9707		-50.781250
9708		-42.968750
9709		-48.828125
9710		-39.062500
9711		-44.921875
9712		-35.156250
9713		-39.062500
9714		-31.250000
9715		-35.156250
9716		-27.343750
9717		-31.250000
9718		-21.484375
9719		-27.343750
9720		-19.531250
9721		-21.484375
9722		-15.625000
9723		-17.578125
9724		-9.765625
9725		-13.671875
9726		-5.859375
9727		-11.718750
9728		-1.953125
9729		-7.812500
9730		3.906250
9731		-1.953125
9732		7.812500
9733		1.953125
9734		9.765625
9735		5.859375
9736		13.671875
9737		11.718750
9738		17.578125
9739		15.625000
9740		21.484375
9741		17.578125
9742		27.343750
9743		21.484375
9744		31.250000
9745		25.390625
9746		35.156250
9747		29.296875
9748		39.062500
9749		33.203125
9750		42.968750
9751		37.109375
9752		46.875000
9753		41.015625
9754		46.875000
9755		46.875000
9756		50.781250
9757		50.781250
9758		58.593750
9759		52.734375
9760		60.546875
9761		54.687500
9762		62.500000
9763		56.640625
9764		66.406250
9765		62.500000
9766		70.312500
9767		64.453125
9768		74.218750
9769		68.359375
9770		76.171875
9771		74.218750
9772		78.125000
9773		76.171875
9774		82.031250
9775		78.125000
9776		85.937500
9777		80.078125
9778		89.843750
9779		83.984375
9780		91.796875
9781		85.937500
9782		93.750000
9783		87.890625
9784		97.656250
9785		91.796875
9786		99.609375
9787		95.703125
9788		101.562500
9789		99.609375
9790		103.515625
9791		99.609375
9792		107.421875
9793		101.562500
9794		109.375000
9795		103.515625
9796		111.328125
9797		105.468750
9798		113.281250
9799		107.421875
9800		115.234375
9801		111.328125
9802		119.140625
9803		113.281250
9804		119.140625
9805		117.187500
9806		119.140625
9807		117.187500
9808		123.046875
9809		117.187500
9810		126.953125
9811		119.140625
9812		126.953125
9813		121.093750
9814		128.906250
9815		123.046875
9816		130.859375
9817		125.000000
9818		130.859375
9819		125.000000
9820		132.812500
9821		128.906250
9822		132.812500
9823		130.859375
9824		132.812500
9825		128.906250
9826		136.718750
9827		128.906250
9828		136.718750
9829		130.859375
9830		138.671875
9831		130.859375
9832		140.625000
9833		132.812500
9834		140.625000
9835		132.812500
9836		140.625000
9837		132.812500
9838		140.625000
9839		136.718750
9840		138.671875
9841		136.718750
9842		142.578125
9843		134.765625
9844		142.578125
9845		134.765625
9846		142.578125
9847		136.718750
9848		142.578125
9849		136.718750
9850		142.578125
9851		136.718750
9852		144.531250
9853		136.718750
9854		142.578125
9855		138.671875
9856		140.625000
9857		138.671875
9858		140.625000
9859		134.765625
9860		142.578125
9861		134.765625
9862		142.578125
9863		134.765625
9864		142.578125
9865		134.765625
9866		140.625000
9867		132.812500
9868		140.625000
9869		132.812500
9870		138.671875
9871		134.765625
9872		136.718750
9873		132.812500
9874		136.718750
9875		130.859375
9876		136.718750
9877		128.906250
9878		136.718750
9879		128.906250
9880		134.765625
9881		126.953125
9882		134.765625
9883		125.000000
9884		132.812500
9885		123.046875
9886		132.812500
9887		123.046875
9888		130.859375
9889		123.046875
9890		126.953125
9891		121.093750
9892		125.000000
9893		117.187500
9894		125.000000
9895		115.234375
9896		123.046875
9897		115.234375
9898		123.046875
9899		111.328125
9900		119.140625
9901		109.375000
9902		119.140625
9903		107.421875
9904		115.234375
9905		107.421875
9906		111.328125
9907		105.468750
9908		109.375000
9909		101.562500
9910		109.375000
9911		97.656250
9912		107.421875
9913		95.703125
9914		105.468750
9915		93.750000
9916		101.562500
9917		89.843750
9918		99.609375
9919		87.890625
9920		95.703125
9921		87.890625
9922		93.750000
9923		83.984375
9924		87.890625
9925		80.078125
9926		85.937500
9927		76.171875
9928		83.984375
9929		72.265625
9930		82.031250
9931		70.312500
9932		78.125000
9933		66.406250
9934		76.171875
9935		64.453125
9936		72.265625
9937		62.500000
9938		70.312500
9939		58.593750
9940		64.453125
9941		54.687500
9942		60.546875
9943		50.781250
9944		58.593750
9945		44.921875
9946		54.687500
9947		41.015625
9948		50.781250
9949		39.062500
9950		48.828125
9951		35.156250
9952		42.968750
9953		31.250000
9954		39.062500
9955		29.296875
9956		35.156250
9957		25.390625
9958		29.296875
9959		17.578125
9960		25.390625
9961		15.625000
9962		23.437500
9963		9.765625
9964		19.531250
9965		5.859375
9966		15.625000
9967		1.953125
9968		11.718750
9969		0.000000
9970		5.859375
9971		-3.906250
9972		3.906250
9973		-7.812500
9974		-1.953125
9975		-11.718750
9976		-5.859375
9977		-17.578125
9978		-7.812500
9979		-21.484375
9980		-13.671875
9981		-25.390625
9982		-17.578125
9983		-31.250000
9984		-21.484375
9985		-35.156250
9986		-25.390625
9987		-39.062500
9988		-29.296875
9989		-41.015625
9990		-35.156250
9991		-44.921875
9992		-39.062500
9993		-50.781250
9994		-42.968750
9995		-56.640625
9996		-44.921875
9997		-60.546875
9998		-50.781250
9999		-62.500000
10000		-54.687500
