Channel              :		CH1
Frequency            :		1.061kHz
Period               :		0.942ms
PK-PK                :		246.1mV
Probe attenuation    :		1X
Voltage per ADC value:		0.122070mV
Time interval        :		2.00000us

index		CH1_Voltage(mV)
1		52.734375
2		52.734375
3		42.968750
4		50.781250
5		41.015625
6		46.875000
7		39.062500
8		44.921875
9		35.156250
10		42.968750
11		33.203125
12		41.015625
13		29.296875
14		39.062500
15		27.343750
16		35.156250
17		23.437500
18		31.250000
19		21.484375
20		29.296875
21		19.531250
22		25.390625
23		17.578125
24		21.484375
25		11.718750
26		19.531250
27		9.765625
28		17.578125
29		5.859375
30		13.671875
31		1.953125
32		11.718750
33		0.000000
34		7.812500
35		-3.906250
36		5.859375
37		-5.859375
38		1.953125
39		-7.812500
40		-1.953125
41		-11.718750
42		-5.859375
43		-15.625000
44		-5.859375
45		-17.578125
46		-11.718750
47		-23.437500
48		-13.671875
49		-25.390625
50		-17.578125
51		-29.296875
52		-19.531250
53		-31.250000
54		-23.437500
55		-33.203125
56		-27.343750
57		-35.156250
58		-31.250000
59		-41.015625
60		-35.156250
61		-44.921875
62		-35.156250
63		-46.875000
64		-39.062500
65		-50.781250
66		-42.968750
67		-52.734375
68		-44.921875
69		-56.640625
70		-48.828125
71		-58.593750
72		-50.781250
73		-60.546875
74		-56.640625
75		-66.406250
76		-58.593750
77		-70.312500
78		-60.546875
79		-70.312500
80		-64.453125
81		-74.218750
82		-66.406250
83		-78.125000
84		-70.312500
85		-80.078125
86		-70.312500
87		-82.031250
88		-74.218750
89		-83.984375
90		-80.078125
91		-85.937500
92		-82.031250
93		-91.796875
94		-83.984375
95		-93.750000
96		-83.984375
97		-95.703125
98		-87.890625
99		-97.656250
100		-91.796875
101		-99.609375
102		-93.750000
103		-103.515625
104		-95.703125
105		-103.515625
106		-97.656250
107		-105.468750
108		-101.562500
109		-109.375000
110		-103.515625
111		-111.328125
112		-105.468750
113		-113.281250
114		-105.468750
115		-115.234375
116		-107.421875
117		-117.187500
118		-109.375000
119		-119.140625
120		-113.281250
121		-119.140625
122		-113.281250
123		-121.093750
124		-117.187500
125		-121.093750
126		-119.140625
127		-126.953125
128		-119.140625
129		-126.953125
130		-119.140625
131		-128.906250
132		-121.093750
133		-128.906250
134		-123.046875
135		-130.859375
136		-123.046875
137		-130.859375
138		-125.000000
139		-130.859375
140		-126.953125
141		-130.859375
142		-128.906250
143		-134.765625
144		-126.953125
145		-134.765625
146		-126.953125
147		-136.718750
148		-128.906250
149		-134.765625
150		-128.906250
151		-136.718750
152		-128.906250
153		-136.718750
154		-128.906250
155		-136.718750
156		-130.859375
157		-134.765625
158		-130.859375
159		-136.718750
160		-130.859375
161		-136.718750
162		-128.906250
163		-136.718750
164		-130.859375
165		-136.718750
166		-128.906250
167		-136.718750
168		-128.906250
169		-134.765625
170		-128.906250
171		-134.765625
172		-128.906250
173		-132.812500
174		-128.906250
175		-130.859375
176		-128.906250
177		-132.812500
178		-125.000000
179		-132.812500
180		-125.000000
181		-130.859375
182		-123.046875
183		-130.859375
184		-123.046875
185		-128.906250
186		-121.093750
187		-126.953125
188		-119.140625
189		-125.000000
190		-119.140625
191		-123.046875
192		-119.140625
193		-121.093750
194		-115.234375
195		-121.093750
196		-113.281250
197		-119.140625
198		-111.328125
199		-117.187500
200		-109.375000
201		-117.187500
202		-107.421875
203		-113.281250
204		-105.468750
205		-111.328125
206		-105.468750
207		-107.421875
208		-103.515625
209		-105.468750
210		-101.562500
211		-105.468750
212		-97.656250
213		-103.515625
214		-93.750000
215		-101.562500
216		-93.750000
217		-99.609375
218		-89.843750
219		-95.703125
220		-87.890625
221		-93.750000
222		-85.937500
223		-89.843750
224		-83.984375
225		-85.937500
226		-82.031250
227		-83.984375
228		-78.125000
229		-83.984375
230		-74.218750
231		-80.078125
232		-70.312500
233		-78.125000
234		-68.359375
235		-74.218750
236		-64.453125
237		-70.312500
238		-62.500000
239		-68.359375
240		-60.546875
241		-62.500000
242		-58.593750
243		-60.546875
244		-54.687500
245		-58.593750
246		-50.781250
247		-56.640625
248		-46.875000
249		-52.734375
250		-42.968750
251		-50.781250
252		-41.015625
253		-46.875000
254		-39.062500
255		-42.968750
256		-35.156250
257		-39.062500
258		-33.203125
259		-35.156250
260		-29.296875
261		-33.203125
262		-25.390625
263		-31.250000
264		-21.484375
265		-27.343750
266		-19.531250
267		-23.437500
268		-15.625000
269		-21.484375
270		-13.671875
271		-17.578125
272		-9.765625
273		-13.671875
274		-7.812500
275		-9.765625
276		-3.906250
277		-5.859375
278		0.000000
279		-5.859375
280		3.906250
281		-1.953125
282		5.859375
283		0.000000
284		9.765625
285		3.906250
286		11.718750
287		5.859375
288		15.625000
289		9.765625
290		17.578125
291		15.625000
292		19.531250
293		17.578125
294		23.437500
295		19.531250
296		27.343750
297		21.484375
298		31.250000
299		25.390625
300		33.203125
301		27.343750
302		35.156250
303		31.250000
304		37.109375
305		33.203125
306		41.015625
307		35.156250
308		42.968750
309		39.062500
310		44.921875
311		41.015625
312		48.828125
313		42.968750
314		50.781250
315		44.921875
316		52.734375
317		48.828125
318		56.640625
319		50.781250
320		58.593750
321		52.734375
322		60.546875
323		54.687500
324		62.500000
325		58.593750
326		64.453125
327		60.546875
328		66.406250
329		60.546875
330		70.312500
331		64.453125
332		72.265625
333		66.406250
334		74.218750
335		66.406250
336		76.171875
337		70.312500
338		78.125000
339		72.265625
340		78.125000
341		76.171875
342		80.078125
343		78.125000
344		80.078125
345		76.171875
346		83.984375
347		78.125000
348		85.937500
349		80.078125
350		87.890625
351		80.078125
352		89.843750
353		82.031250
354		89.843750
355		83.984375
356		91.796875
357		85.937500
358		91.796875
359		87.890625
360		91.796875
361		87.890625
362		95.703125
363		89.843750
364		95.703125
365		89.843750
366		95.703125
367		91.796875
368		97.656250
369		91.796875
370		97.656250
371		91.796875
372		99.609375
373		93.750000
374		101.562500
375		95.703125
376		99.609375
377		95.703125
378		101.562500
379		93.750000
380		101.562500
381		93.750000
382		103.515625
383		95.703125
384		103.515625
385		95.703125
386		103.515625
387		95.703125
388		103.515625
389		97.656250
390		103.515625
391		97.656250
392		103.515625
393		99.609375
394		101.562500
395		97.656250
396		103.515625
397		97.656250
398		103.515625
399		97.656250
400		103.515625
401		95.703125
402		103.515625
403		95.703125
404		103.515625
405		95.703125
406		103.515625
407		95.703125
408		101.562500
409		97.656250
410		99.609375
411		95.703125
412		99.609375
413		93.750000
414		101.562500
415		93.750000
416		99.609375
417		91.796875
418		99.609375
419		91.796875
420		97.656250
421		89.843750
422		97.656250
423		89.843750
424		95.703125
425		89.843750
426		93.750000
427		87.890625
428		91.796875
429		85.937500
430		93.750000
431		83.984375
432		91.796875
433		82.031250
434		91.796875
435		82.031250
436		89.843750
437		80.078125
438		87.890625
439		78.125000
440		85.937500
441		78.125000
442		85.937500
443		78.125000
444		82.031250
445		74.218750
446		80.078125
447		72.265625
448		80.078125
449		70.312500
450		78.125000
451		68.359375
452		76.171875
453		66.406250
454		74.218750
455		64.453125
456		72.265625
457		62.500000
458		70.312500
459		62.500000
460		66.406250
461		60.546875
462		64.453125
463		56.640625
464		64.453125
465		54.687500
466		60.546875
467		50.781250
468		60.546875
469		48.828125
470		56.640625
471		44.921875
472		54.687500
473		44.921875
474		52.734375
475		42.968750
476		48.828125
477		41.015625
478		44.921875
479		35.156250
480		42.968750
481		33.203125
482		41.015625
483		31.250000
484		39.062500
485		27.343750
486		35.156250
487		23.437500
488		33.203125
489		23.437500
490		31.250000
491		19.531250
492		27.343750
493		17.578125
494		23.437500
495		13.671875
496		19.531250
497		9.765625
498		17.578125
499		5.859375
500		15.625000
501		3.906250
502		13.671875
503		1.953125
504		9.765625
505		-1.953125
506		5.859375
507		-5.859375
508		3.906250
509		-5.859375
510		-1.953125
511		-9.765625
512		-3.906250
513		-13.671875
514		-5.859375
515		-17.578125
516		-9.765625
517		-21.484375
518		-11.718750
519		-23.437500
520		-15.625000
521		-27.343750
522		-19.531250
523		-29.296875
524		-23.437500
525		-31.250000
526		-25.390625
527		-35.156250
528		-29.296875
529		-39.062500
530		-33.203125
531		-42.968750
532		-35.156250
533		-46.875000
534		-37.109375
535		-48.828125
536		-41.015625
537		-52.734375
538		-42.968750
539		-56.640625
540		-46.875000
541		-56.640625
542		-48.828125
543		-60.546875
544		-54.687500
545		-62.500000
546		-58.593750
547		-68.359375
548		-58.593750
549		-70.312500
550		-62.500000
551		-72.265625
552		-64.453125
553		-74.218750
554		-68.359375
555		-80.078125
556		-70.312500
557		-82.031250
558		-74.218750
559		-82.031250
560		-76.171875
561		-85.937500
562		-80.078125
563		-89.843750
564		-83.984375
565		-93.750000
566		-83.984375
567		-95.703125
568		-85.937500
569		-97.656250
570		-89.843750
571		-99.609375
572		-91.796875
573		-101.562500
574		-95.703125
575		-103.515625
576		-95.703125
577		-105.468750
578		-101.562500
579		-107.421875
580		-103.515625
581		-111.328125
582		-103.515625
583		-113.281250
584		-105.468750
585		-115.234375
586		-107.421875
587		-117.187500
588		-109.375000
589		-119.140625
590		-111.328125
591		-121.093750
592		-113.281250
593		-119.140625
594		-117.187500
595		-121.093750
596		-117.187500
597		-125.000000
598		-119.140625
599		-126.953125
600		-119.140625
601		-128.906250
602		-121.093750
603		-130.859375
604		-123.046875
605		-130.859375
606		-123.046875
607		-130.859375
608		-125.000000
609		-130.859375
610		-125.000000
611		-130.859375
612		-128.906250
613		-132.812500
614		-126.953125
615		-134.765625
616		-126.953125
617		-134.765625
618		-128.906250
619		-136.718750
620		-128.906250
621		-136.718750
622		-128.906250
623		-138.671875
624		-130.859375
625		-136.718750
626		-130.859375
627		-134.765625
628		-132.812500
629		-134.765625
630		-132.812500
631		-136.718750
632		-130.859375
633		-136.718750
634		-130.859375
635		-138.671875
636		-130.859375
637		-136.718750
638		-130.859375
639		-136.718750
640		-128.906250
641		-136.718750
642		-128.906250
643		-134.765625
644		-128.906250
645		-132.812500
646		-128.906250
647		-132.812500
648		-126.953125
649		-132.812500
650		-126.953125
651		-130.859375
652		-125.000000
653		-130.859375
654		-125.000000
655		-130.859375
656		-123.046875
657		-128.906250
658		-121.093750
659		-126.953125
660		-121.093750
661		-125.000000
662		-121.093750
663		-123.046875
664		-119.140625
665		-123.046875
666		-115.234375
667		-121.093750
668		-113.281250
669		-119.140625
670		-113.281250
671		-119.140625
672		-111.328125
673		-115.234375
674		-107.421875
675		-113.281250
676		-105.468750
677		-111.328125
678		-105.468750
679		-107.421875
680		-103.515625
681		-105.468750
682		-99.609375
683		-105.468750
684		-97.656250
685		-103.515625
686		-95.703125
687		-101.562500
688		-91.796875
689		-97.656250
690		-89.843750
691		-97.656250
692		-87.890625
693		-93.750000
694		-85.937500
695		-87.890625
696		-83.984375
697		-85.937500
698		-80.078125
699		-83.984375
700		-76.171875
701		-83.984375
702		-74.218750
703		-80.078125
704		-70.312500
705		-76.171875
706		-68.359375
707		-74.218750
708		-66.406250
709		-70.312500
710		-62.500000
711		-66.406250
712		-60.546875
713		-62.500000
714		-58.593750
715		-60.546875
716		-54.687500
717		-58.593750
718		-50.781250
719		-56.640625
720		-46.875000
721		-52.734375
722		-44.921875
723		-48.828125
724		-41.015625
725		-44.921875
726		-37.109375
727		-42.968750
728		-37.109375
729		-37.109375
730		-33.203125
731		-35.156250
732		-27.343750
733		-33.203125
734		-25.390625
735		-31.250000
736		-21.484375
737		-27.343750
738		-17.578125
739		-23.437500
740		-15.625000
741		-19.531250
742		-11.718750
743		-15.625000
744		-9.765625
745		-11.718750
746		-7.812500
747		-9.765625
748		-3.906250
749		-7.812500
750		0.000000
751		-3.906250
752		3.906250
753		-1.953125
754		5.859375
755		0.000000
756		9.765625
757		3.906250
758		11.718750
759		7.812500
760		15.625000
761		11.718750
762		17.578125
763		15.625000
764		19.531250
765		17.578125
766		25.390625
767		19.531250
768		27.343750
769		21.484375
770		29.296875
771		25.390625
772		33.203125
773		27.343750
774		35.156250
775		29.296875
776		39.062500
777		33.203125
778		39.062500
779		37.109375
780		42.968750
781		41.015625
782		46.875000
783		41.015625
784		48.828125
785		42.968750
786		52.734375
787		46.875000
788		54.687500
789		48.828125
790		56.640625
791		50.781250
792		58.593750
793		52.734375
794		60.546875
795		56.640625
796		62.500000
797		58.593750
798		64.453125
799		60.546875
800		66.406250
801		60.546875
802		70.312500
803		64.453125
804		70.312500
805		66.406250
806		74.218750
807		68.359375
808		76.171875
809		70.312500
810		78.125000
811		72.265625
812		78.125000
813		76.171875
814		78.125000
815		76.171875
816		82.031250
817		76.171875
818		83.984375
819		78.125000
820		85.937500
821		80.078125
822		87.890625
823		82.031250
824		87.890625
825		82.031250
826		89.843750
827		83.984375
828		89.843750
829		85.937500
830		91.796875
831		87.890625
832		91.796875
833		87.890625
834		93.750000
835		87.890625
836		95.703125
837		87.890625
838		95.703125
839		89.843750
840		97.656250
841		89.843750
842		97.656250
843		91.796875
844		99.609375
845		93.750000
846		99.609375
847		95.703125
848		97.656250
849		93.750000
850		101.562500
851		93.750000
852		101.562500
853		95.703125
854		101.562500
855		95.703125
856		101.562500
857		95.703125
858		101.562500
859		95.703125
860		103.515625
861		95.703125
862		103.515625
863		97.656250
864		101.562500
865		97.656250
866		101.562500
867		95.703125
868		103.515625
869		95.703125
870		103.515625
871		95.703125
872		103.515625
873		95.703125
874		101.562500
875		95.703125
876		101.562500
877		93.750000
878		101.562500
879		97.656250
880		99.609375
881		95.703125
882		99.609375
883		93.750000
884		99.609375
885		91.796875
886		99.609375
887		91.796875
888		99.609375
889		91.796875
890		99.609375
891		91.796875
892		97.656250
893		89.843750
894		95.703125
895		89.843750
896		95.703125
897		89.843750
898		93.750000
899		87.890625
900		91.796875
901		83.984375
902		91.796875
903		83.984375
904		91.796875
905		82.031250
906		89.843750
907		82.031250
908		89.843750
909		80.078125
910		87.890625
911		78.125000
912		85.937500
913		78.125000
914		82.031250
915		76.171875
916		80.078125
917		74.218750
918		80.078125
919		70.312500
920		80.078125
921		70.312500
922		78.125000
923		66.406250
924		74.218750
925		66.406250
926		72.265625
927		64.453125
928		70.312500
929		64.453125
930		68.359375
931		60.546875
932		66.406250
933		56.640625
934		64.453125
935		54.687500
936		62.500000
937		52.734375
938		60.546875
939		50.781250
940		58.593750
941		46.875000
942		56.640625
943		44.921875
944		52.734375
945		42.968750
946		50.781250
947		42.968750
948		46.875000
949		37.109375
950		44.921875
951		35.156250
952		42.968750
953		31.250000
954		41.015625
955		29.296875
956		37.109375
957		27.343750
958		35.156250
959		23.437500
960		31.250000
961		19.531250
962		29.296875
963		19.531250
964		23.437500
965		17.578125
966		21.484375
967		11.718750
968		19.531250
969		7.812500
970		17.578125
971		5.859375
972		13.671875
973		1.953125
974		11.718750
975		0.000000
976		7.812500
977		-3.906250
978		3.906250
979		-3.906250
980		1.953125
981		-7.812500
982		-1.953125
983		-13.671875
984		-5.859375
985		-15.625000
986		-7.812500
987		-19.531250
988		-11.718750
989		-21.484375
990		-13.671875
991		-27.343750
992		-17.578125
993		-29.296875
994		-21.484375
995		-31.250000
996		-23.437500
997		-33.203125
998		-27.343750
999		-37.109375
1000		-31.250000
1001		-41.015625
1002		-33.203125
1003		-44.921875
1004		-37.109375
1005		-48.828125
1006		-39.062500
1007		-50.781250
1008		-41.015625
1009		-52.734375
1010		-44.921875
1011		-56.640625
1012		-48.828125
1013		-58.593750
1014		-52.734375
1015		-60.546875
1016		-56.640625
1017		-66.406250
1018		-58.593750
1019		-68.359375
1020		-60.546875
1021		-72.265625
1022		-62.500000
1023		-74.218750
1024		-66.406250
1025		-78.125000
1026		-68.359375
1027		-80.078125
1028		-72.265625
1029		-82.031250
1030		-76.171875
1031		-83.984375
1032		-80.078125
1033		-87.890625
1034		-82.031250
1035		-91.796875
1036		-83.984375
1037		-93.750000
1038		-85.937500
1039		-95.703125
1040		-87.890625
1041		-99.609375
1042		-89.843750
1043		-101.562500
1044		-93.750000
1045		-103.515625
1046		-95.703125
1047		-103.515625
1048		-99.609375
1049		-105.468750
1050		-101.562500
1051		-109.375000
1052		-101.562500
1053		-113.281250
1054		-103.515625
1055		-113.281250
1056		-107.421875
1057		-115.234375
1058		-109.375000
1059		-117.187500
1060		-109.375000
1061		-119.140625
1062		-111.328125
1063		-121.093750
1064		-115.234375
1065		-121.093750
1066		-117.187500
1067		-125.000000
1068		-119.140625
1069		-126.953125
1070		-117.187500
1071		-126.953125
1072		-121.093750
1073		-128.906250
1074		-121.093750
1075		-128.906250
1076		-123.046875
1077		-130.859375
1078		-125.000000
1079		-130.859375
1080		-125.000000
1081		-130.859375
1082		-126.953125
1083		-130.859375
1084		-128.906250
1085		-134.765625
1086		-126.953125
1087		-134.765625
1088		-128.906250
1089		-134.765625
1090		-128.906250
1091		-136.718750
1092		-128.906250
1093		-136.718750
1094		-128.906250
1095		-138.671875
1096		-128.906250
1097		-136.718750
1098		-130.859375
1099		-134.765625
1100		-132.812500
1101		-136.718750
1102		-130.859375
1103		-136.718750
1104		-130.859375
1105		-136.718750
1106		-130.859375
1107		-136.718750
1108		-128.906250
1109		-136.718750
1110		-128.906250
1111		-134.765625
1112		-128.906250
1113		-134.765625
1114		-128.906250
1115		-132.812500
1116		-128.906250
1117		-132.812500
1118		-126.953125
1119		-132.812500
1120		-126.953125
1121		-132.812500
1122		-125.000000
1123		-130.859375
1124		-125.000000
1125		-130.859375
1126		-123.046875
1127		-128.906250
1128		-121.093750
1129		-126.953125
1130		-119.140625
1131		-125.000000
1132		-121.093750
1133		-123.046875
1134		-119.140625
1135		-123.046875
1136		-115.234375
1137		-121.093750
1138		-115.234375
1139		-121.093750
1140		-113.281250
1141		-119.140625
1142		-109.375000
1143		-117.187500
1144		-109.375000
1145		-115.234375
1146		-107.421875
1147		-111.328125
1148		-105.468750
1149		-107.421875
1150		-103.515625
1151		-107.421875
1152		-101.562500
1153		-105.468750
1154		-97.656250
1155		-103.515625
1156		-95.703125
1157		-101.562500
1158		-93.750000
1159		-99.609375
1160		-91.796875
1161		-97.656250
1162		-87.890625
1163		-93.750000
1164		-85.937500
1165		-89.843750
1166		-83.984375
1167		-85.937500
1168		-82.031250
1169		-85.937500
1170		-78.125000
1171		-82.031250
1172		-76.171875
1173		-80.078125
1174		-72.265625
1175		-76.171875
1176		-70.312500
1177		-76.171875
1178		-66.406250
1179		-70.312500
1180		-62.500000
1181		-70.312500
1182		-62.500000
1183		-64.453125
1184		-58.593750
1185		-60.546875
1186		-54.687500
1187		-60.546875
1188		-50.781250
1189		-56.640625
1190		-46.875000
1191		-52.734375
1192		-42.968750
1193		-50.781250
1194		-42.968750
1195		-46.875000
1196		-39.062500
1197		-44.921875
1198		-35.156250
1199		-39.062500
1200		-33.203125
1201		-35.156250
1202		-29.296875
1203		-33.203125
1204		-25.390625
1205		-31.250000
1206		-23.437500
1207		-27.343750
1208		-19.531250
1209		-23.437500
1210		-17.578125
1211		-21.484375
1212		-13.671875
1213		-19.531250
1214		-9.765625
1215		-13.671875
1216		-7.812500
1217		-9.765625
1218		-5.859375
1219		-7.812500
1220		0.000000
1221		-5.859375
1222		1.953125
1223		-3.906250
1224		5.859375
1225		1.953125
1226		7.812500
1227		3.906250
1228		11.718750
1229		5.859375
1230		13.671875
1231		9.765625
1232		15.625000
1233		13.671875
1234		19.531250
1235		17.578125
1236		23.437500
1237		19.531250
1238		25.390625
1239		19.531250
1240		29.296875
1241		23.437500
1242		31.250000
1243		27.343750
1244		35.156250
1245		31.250000
1246		37.109375
1247		33.203125
1248		39.062500
1249		37.109375
1250		41.015625
1251		39.062500
1252		44.921875
1253		41.015625
1254		48.828125
1255		42.968750
1256		50.781250
1257		44.921875
1258		52.734375
1259		46.875000
1260		54.687500
1261		50.781250
1262		58.593750
1263		52.734375
1264		60.546875
1265		54.687500
1266		60.546875
1267		58.593750
1268		62.500000
1269		58.593750
1270		66.406250
1271		62.500000
1272		68.359375
1273		64.453125
1274		70.312500
1275		66.406250
1276		72.265625
1277		66.406250
1278		74.218750
1279		70.312500
1280		76.171875
1281		70.312500
1282		78.125000
1283		74.218750
1284		78.125000
1285		76.171875
1286		82.031250
1287		76.171875
1288		83.984375
1289		78.125000
1290		83.984375
1291		78.125000
1292		87.890625
1293		80.078125
1294		87.890625
1295		82.031250
1296		89.843750
1297		83.984375
1298		89.843750
1299		85.937500
1300		89.843750
1301		87.890625
1302		91.796875
1303		87.890625
1304		95.703125
1305		87.890625
1306		95.703125
1307		89.843750
1308		95.703125
1309		89.843750
1310		97.656250
1311		91.796875
1312		99.609375
1313		89.843750
1314		99.609375
1315		93.750000
1316		99.609375
1317		95.703125
1318		99.609375
1319		95.703125
1320		101.562500
1321		93.750000
1322		101.562500
1323		95.703125
1324		103.515625
1325		95.703125
1326		103.515625
1327		95.703125
1328		103.515625
1329		95.703125
1330		103.515625
1331		95.703125
1332		103.515625
1333		99.609375
1334		101.562500
1335		99.609375
1336		101.562500
1337		97.656250
1338		103.515625
1339		95.703125
1340		103.515625
1341		95.703125
1342		103.515625
1343		95.703125
1344		103.515625
1345		95.703125
1346		103.515625
1347		95.703125
1348		103.515625
1349		97.656250
1350		101.562500
1351		97.656250
1352		99.609375
1353		93.750000
1354		101.562500
1355		93.750000
1356		101.562500
1357		93.750000
1358		99.609375
1359		91.796875
1360		99.609375
1361		91.796875
1362		97.656250
1363		89.843750
1364		97.656250
1365		89.843750
1366		95.703125
1367		91.796875
1368		93.750000
1369		87.890625
1370		93.750000
1371		85.937500
1372		93.750000
1373		83.984375
1374		93.750000
1375		83.984375
1376		89.843750
1377		82.031250
1378		89.843750
1379		82.031250
1380		87.890625
1381		80.078125
1382		87.890625
1383		80.078125
1384		83.984375
1385		78.125000
1386		82.031250
1387		76.171875
1388		82.031250
1389		72.265625
1390		80.078125
1391		72.265625
1392		78.125000
1393		68.359375
1394		76.171875
1395		68.359375
1396		76.171875
1397		64.453125
1398		74.218750
1399		64.453125
1400		70.312500
1401		62.500000
1402		68.359375
1403		60.546875
1404		64.453125
1405		56.640625
1406		64.453125
1407		54.687500
1408		62.500000
1409		52.734375
1410		58.593750
1411		48.828125
1412		58.593750
1413		46.875000
1414		54.687500
1415		44.921875
1416		52.734375
1417		44.921875
1418		48.828125
1419		41.015625
1420		46.875000
1421		37.109375
1422		44.921875
1423		33.203125
1424		42.968750
1425		31.250000
1426		41.015625
1427		29.296875
1428		37.109375
1429		25.390625
1430		35.156250
1431		21.484375
1432		31.250000
1433		21.484375
1434		27.343750
1435		19.531250
1436		23.437500
1437		15.625000
1438		21.484375
1439		11.718750
1440		19.531250
1441		7.812500
1442		15.625000
1443		5.859375
1444		13.671875
1445		1.953125
1446		9.765625
1447		-1.953125
1448		7.812500
1449		-3.906250
1450		3.906250
1451		-5.859375
1452		0.000000
1453		-7.812500
1454		-3.906250
1455		-13.671875
1456		-5.859375
1457		-15.625000
1458		-7.812500
1459		-19.531250
1460		-11.718750
1461		-23.437500
1462		-13.671875
1463		-25.390625
1464		-17.578125
1465		-29.296875
1466		-21.484375
1467		-31.250000
1468		-25.390625
1469		-33.203125
1470		-29.296875
1471		-39.062500
1472		-31.250000
1473		-42.968750
1474		-33.203125
1475		-44.921875
1476		-37.109375
1477		-46.875000
1478		-39.062500
1479		-50.781250
1480		-42.968750
1481		-54.687500
1482		-46.875000
1483		-54.687500
1484		-50.781250
1485		-58.593750
1486		-54.687500
1487		-62.500000
1488		-56.640625
1489		-68.359375
1490		-56.640625
1491		-70.312500
1492		-62.500000
1493		-72.265625
1494		-64.453125
1495		-76.171875
1496		-68.359375
1497		-78.125000
1498		-70.312500
1499		-80.078125
1500		-72.265625
1501		-82.031250
1502		-78.125000
1503		-83.984375
1504		-80.078125
1505		-89.843750
1506		-82.031250
1507		-91.796875
1508		-83.984375
1509		-93.750000
1510		-85.937500
1511		-97.656250
1512		-89.843750
1513		-99.609375
1514		-91.796875
1515		-99.609375
1516		-93.750000
1517		-103.515625
1518		-95.703125
1519		-103.515625
1520		-99.609375
1521		-107.421875
1522		-101.562500
1523		-111.328125
1524		-103.515625
1525		-113.281250
1526		-105.468750
1527		-115.234375
1528		-107.421875
1529		-117.187500
1530		-109.375000
1531		-119.140625
1532		-111.328125
1533		-119.140625
1534		-113.281250
1535		-119.140625
1536		-115.234375
1537		-121.093750
1538		-117.187500
1539		-125.000000
1540		-119.140625
1541		-126.953125
1542		-121.093750
1543		-126.953125
1544		-121.093750
1545		-128.906250
1546		-123.046875
1547		-128.906250
1548		-123.046875
1549		-130.859375
1550		-125.000000
1551		-130.859375
1552		-126.953125
1553		-130.859375
1554		-128.906250
1555		-134.765625
1556		-128.906250
1557		-134.765625
1558		-126.953125
1559		-136.718750
1560		-128.906250
1561		-136.718750
1562		-128.906250
1563		-136.718750
1564		-128.906250
1565		-136.718750
1566		-130.859375
1567		-136.718750
1568		-130.859375
1569		-134.765625
1570		-132.812500
1571		-136.718750
1572		-132.812500
1573		-138.671875
1574		-130.859375
1575		-138.671875
1576		-130.859375
1577		-136.718750
1578		-130.859375
1579		-136.718750
1580		-130.859375
1581		-136.718750
1582		-128.906250
1583		-136.718750
1584		-128.906250
1585		-132.812500
1586		-130.859375
1587		-132.812500
1588		-130.859375
1589		-134.765625
1590		-126.953125
1591		-132.812500
1592		-126.953125
1593		-132.812500
1594		-125.000000
1595		-130.859375
1596		-125.000000
1597		-130.859375
1598		-123.046875
1599		-128.906250
1600		-123.046875
1601		-126.953125
1602		-121.093750
1603		-125.000000
1604		-121.093750
1605		-123.046875
1606		-119.140625
1607		-123.046875
1608		-117.187500
1609		-123.046875
1610		-115.234375
1611		-121.093750
1612		-113.281250
1613		-119.140625
1614		-111.328125
1615		-117.187500
1616		-109.375000
1617		-115.234375
1618		-107.421875
1619		-111.328125
1620		-107.421875
1621		-109.375000
1622		-105.468750
1623		-107.421875
1624		-101.562500
1625		-107.421875
1626		-97.656250
1627		-103.515625
1628		-95.703125
1629		-103.515625
1630		-93.750000
1631		-99.609375
1632		-91.796875
1633		-97.656250
1634		-87.890625
1635		-93.750000
1636		-87.890625
1637		-89.843750
1638		-85.937500
1639		-87.890625
1640		-80.078125
1641		-85.937500
1642		-78.125000
1643		-83.984375
1644		-74.218750
1645		-80.078125
1646		-72.265625
1647		-78.125000
1648		-70.312500
1649		-74.218750
1650		-66.406250
1651		-72.265625
1652		-64.453125
1653		-66.406250
1654		-62.500000
1655		-64.453125
1656		-58.593750
1657		-62.500000
1658		-54.687500
1659		-60.546875
1660		-50.781250
1661		-56.640625
1662		-48.828125
1663		-52.734375
1664		-44.921875
1665		-50.781250
1666		-42.968750
1667		-48.828125
1668		-39.062500
1669		-42.968750
1670		-37.109375
1671		-39.062500
1672		-35.156250
1673		-35.156250
1674		-29.296875
1675		-35.156250
1676		-25.390625
1677		-31.250000
1678		-23.437500
1679		-27.343750
1680		-19.531250
1681		-25.390625
1682		-15.625000
1683		-21.484375
1684		-13.671875
1685		-17.578125
1686		-11.718750
1687		-13.671875
1688		-7.812500
1689		-9.765625
1690		-3.906250
1691		-9.765625
1692		-1.953125
1693		-5.859375
1694		1.953125
1695		-3.906250
1696		5.859375
1697		0.000000
1698		7.812500
1699		1.953125
1700		11.718750
1701		5.859375
1702		13.671875
1703		11.718750
1704		15.625000
1705		13.671875
1706		19.531250
1707		15.625000
1708		23.437500
1709		17.578125
1710		27.343750
1711		21.484375
1712		29.296875
1713		23.437500
1714		31.250000
1715		25.390625
1716		35.156250
1717		29.296875
1718		37.109375
1719		31.250000
1720		39.062500
1721		37.109375
1722		41.015625
1723		39.062500
1724		44.921875
1725		39.062500
1726		48.828125
1727		42.968750
1728		50.781250
1729		44.921875
1730		52.734375
1731		46.875000
1732		54.687500
1733		50.781250
1734		56.640625
1735		52.734375
1736		58.593750
1737		56.640625
1738		60.546875
1739		58.593750
1740		64.453125
1741		58.593750
1742		66.406250
1743		60.546875
1744		68.359375
1745		62.500000
1746		70.312500
1747		64.453125
1748		72.265625
1749		66.406250
1750		74.218750
1751		68.359375
1752		76.171875
1753		72.265625
1754		76.171875
1755		74.218750
1756		78.125000
1757		74.218750
1758		82.031250
1759		76.171875
1760		83.984375
1761		76.171875
1762		83.984375
1763		78.125000
1764		85.937500
1765		80.078125
1766		87.890625
1767		82.031250
1768		89.843750
1769		82.031250
1770		89.843750
1771		85.937500
1772		89.843750
1773		87.890625
1774		91.796875
1775		85.937500
1776		93.750000
1777		87.890625
1778		95.703125
1779		87.890625
1780		95.703125
1781		89.843750
1782		95.703125
1783		89.843750
1784		97.656250
1785		91.796875
1786		99.609375
1787		93.750000
1788		97.656250
1789		95.703125
1790		97.656250
1791		93.750000
1792		99.609375
1793		93.750000
1794		101.562500
1795		93.750000
1796		101.562500
1797		93.750000
1798		101.562500
1799		95.703125
1800		101.562500
1801		95.703125
1802		101.562500
1803		95.703125
1804		101.562500
1805		97.656250
1806		101.562500
1807		95.703125
1808		103.515625
1809		95.703125
1810		103.515625
1811		95.703125
1812		101.562500
1813		95.703125
1814		101.562500
1815		95.703125
1816		103.515625
1817		95.703125
1818		101.562500
1819		95.703125
1820		101.562500
1821		95.703125
1822		99.609375
1823		95.703125
1824		99.609375
1825		93.750000
1826		99.609375
1827		93.750000
1828		99.609375
1829		91.796875
1830		99.609375
1831		91.796875
1832		97.656250
1833		89.843750
1834		97.656250
1835		89.843750
1836		97.656250
1837		89.843750
1838		93.750000
1839		89.843750
1840		93.750000
1841		85.937500
1842		93.750000
1843		85.937500
1844		93.750000
1845		83.984375
1846		91.796875
1847		82.031250
1848		89.843750
1849		82.031250
1850		87.890625
1851		80.078125
1852		87.890625
1853		80.078125
1854		85.937500
1855		78.125000
1856		82.031250
1857		76.171875
1858		80.078125
1859		74.218750
1860		82.031250
1861		72.265625
1862		78.125000
1863		70.312500
1864		76.171875
1865		68.359375
1866		74.218750
1867		66.406250
1868		72.265625
1869		64.453125
1870		72.265625
1871		64.453125
1872		68.359375
1873		60.546875
1874		66.406250
1875		56.640625
1876		64.453125
1877		54.687500
1878		62.500000
1879		52.734375
1880		60.546875
1881		50.781250
1882		58.593750
1883		46.875000
1884		56.640625
1885		46.875000
1886		52.734375
1887		44.921875
1888		50.781250
1889		42.968750
1890		46.875000
1891		39.062500
1892		44.921875
1893		35.156250
1894		42.968750
1895		33.203125
1896		41.015625
1897		29.296875
1898		37.109375
1899		27.343750
1900		35.156250
1901		23.437500
1902		33.203125
1903		21.484375
1904		29.296875
1905		19.531250
1906		25.390625
1907		17.578125
1908		21.484375
1909		11.718750
1910		19.531250
1911		9.765625
1912		19.531250
1913		5.859375
1914		15.625000
1915		1.953125
1916		11.718750
1917		0.000000
1918		9.765625
1919		-3.906250
1920		5.859375
1921		-3.906250
1922		0.000000
1923		-7.812500
1924		-1.953125
1925		-11.718750
1926		-5.859375
1927		-15.625000
1928		-5.859375
1929		-17.578125
1930		-9.765625
1931		-21.484375
1932		-13.671875
1933		-25.390625
1934		-15.625000
1935		-29.296875
1936		-19.531250
1937		-29.296875
1938		-23.437500
1939		-33.203125
1940		-27.343750
1941		-37.109375
1942		-31.250000
1943		-41.015625
1944		-31.250000
1945		-44.921875
1946		-35.156250
1947		-46.875000
1948		-39.062500
1949		-50.781250
1950		-41.015625
1951		-54.687500
1952		-44.921875
1953		-56.640625
1954		-48.828125
1955		-58.593750
1956		-52.734375
1957		-60.546875
1958		-56.640625
1959		-66.406250
1960		-58.593750
1961		-68.359375
1962		-60.546875
1963		-72.265625
1964		-62.500000
1965		-74.218750
1966		-66.406250
1967		-78.125000
1968		-68.359375
1969		-82.031250
1970		-72.265625
1971		-80.078125
1972		-74.218750
1973		-83.984375
1974		-80.078125
1975		-87.890625
1976		-82.031250
1977		-91.796875
1978		-82.031250
1979		-93.750000
1980		-85.937500
1981		-95.703125
1982		-87.890625
1983		-97.656250
1984		-91.796875
1985		-101.562500
1986		-93.750000
1987		-101.562500
1988		-95.703125
1989		-103.515625
1990		-99.609375
1991		-105.468750
1992		-101.562500
1993		-109.375000
1994		-103.515625
1995		-113.281250
1996		-105.468750
1997		-115.234375
1998		-107.421875
1999		-117.187500
2000		-107.421875
2001		-119.140625
2002		-111.328125
2003		-119.140625
2004		-111.328125
2005		-119.140625
2006		-115.234375
2007		-121.093750
2008		-117.187500
2009		-125.000000
2010		-119.140625
2011		-126.953125
2012		-119.140625
2013		-126.953125
2014		-121.093750
2015		-128.906250
2016		-121.093750
2017		-130.859375
2018		-123.046875
2019		-132.812500
2020		-125.000000
2021		-132.812500
2022		-126.953125
2023		-130.859375
2024		-128.906250
2025		-132.812500
2026		-128.906250
2027		-134.765625
2028		-128.906250
2029		-136.718750
2030		-128.906250
2031		-136.718750
2032		-130.859375
2033		-136.718750
2034		-130.859375
2035		-138.671875
2036		-130.859375
2037		-138.671875
2038		-130.859375
2039		-136.718750
2040		-132.812500
2041		-136.718750
2042		-132.812500
2043		-138.671875
2044		-132.812500
2045		-138.671875
2046		-130.859375
2047		-138.671875
2048		-130.859375
2049		-138.671875
2050		-130.859375
2051		-138.671875
2052		-130.859375
2053		-138.671875
2054		-130.859375
2055		-136.718750
2056		-130.859375
2057		-134.765625
2058		-130.859375
2059		-134.765625
2060		-128.906250
2061		-134.765625
2062		-128.906250
2063		-134.765625
2064		-126.953125
2065		-132.812500
2066		-125.000000
2067		-132.812500
2068		-125.000000
2069		-130.859375
2070		-125.000000
2071		-130.859375
2072		-123.046875
2073		-126.953125
2074		-123.046875
2075		-125.000000
2076		-121.093750
2077		-125.000000
2078		-117.187500
2079		-125.000000
2080		-117.187500
2081		-123.046875
2082		-113.281250
2083		-121.093750
2084		-113.281250
2085		-119.140625
2086		-111.328125
2087		-117.187500
2088		-109.375000
2089		-113.281250
2090		-107.421875
2091		-111.328125
2092		-107.421875
2093		-109.375000
2094		-101.562500
2095		-107.421875
2096		-99.609375
2097		-107.421875
2098		-97.656250
2099		-103.515625
2100		-95.703125
2101		-101.562500
2102		-93.750000
2103		-99.609375
2104		-89.843750
2105		-95.703125
2106		-89.843750
2107		-91.796875
2108		-87.890625
2109		-89.843750
2110		-83.984375
2111		-89.843750
2112		-80.078125
2113		-87.890625
2114		-78.125000
2115		-83.984375
2116		-76.171875
2117		-80.078125
2118		-72.265625
2119		-78.125000
2120		-68.359375
2121		-74.218750
2122		-66.406250
2123		-70.312500
2124		-64.453125
2125		-66.406250
2126		-60.546875
2127		-64.453125
2128		-56.640625
2129		-62.500000
2130		-54.687500
2131		-58.593750
2132		-50.781250
2133		-56.640625
2134		-46.875000
2135		-52.734375
2136		-44.921875
2137		-50.781250
2138		-41.015625
2139		-46.875000
2140		-39.062500
2141		-41.015625
2142		-37.109375
2143		-39.062500
2144		-31.250000
2145		-37.109375
2146		-29.296875
2147		-35.156250
2148		-25.390625
2149		-31.250000
2150		-23.437500
2151		-27.343750
2152		-19.531250
2153		-23.437500
2154		-15.625000
2155		-21.484375
2156		-13.671875
2157		-15.625000
2158		-9.765625
2159		-13.671875
2160		-7.812500
2161		-11.718750
2162		-3.906250
2163		-9.765625
2164		0.000000
2165		-3.906250
2166		3.906250
2167		-1.953125
2168		5.859375
2169		1.953125
2170		9.765625
2171		3.906250
2172		13.671875
2173		7.812500
2174		13.671875
2175		11.718750
2176		15.625000
2177		15.625000
2178		21.484375
2179		15.625000
2180		23.437500
2181		19.531250
2182		27.343750
2183		21.484375
2184		29.296875
2185		25.390625
2186		33.203125
2187		27.343750
2188		35.156250
2189		29.296875
2190		37.109375
2191		35.156250
2192		39.062500
2193		37.109375
2194		42.968750
2195		37.109375
2196		44.921875
2197		41.015625
2198		48.828125
2199		42.968750
2200		52.734375
2201		46.875000
2202		52.734375
2203		48.828125
2204		56.640625
2205		48.828125
2206		58.593750
2207		54.687500
2208		58.593750
2209		56.640625
2210		60.546875
2211		58.593750
2212		64.453125
2213		58.593750
2214		66.406250
2215		62.500000
2216		68.359375
2217		62.500000
2218		72.265625
2219		66.406250
2220		72.265625
2221		68.359375
2222		74.218750
2223		68.359375
2224		74.218750
2225		74.218750
2226		76.171875
2227		74.218750
2228		80.078125
2229		74.218750
2230		82.031250
2231		76.171875
2232		83.984375
2233		78.125000
2234		85.937500
2235		80.078125
2236		85.937500
2237		80.078125
2238		87.890625
2239		82.031250
2240		87.890625
2241		85.937500
2242		87.890625
2243		85.937500
2244		89.843750
2245		85.937500
2246		91.796875
2247		87.890625
2248		93.750000
2249		87.890625
2250		95.703125
2251		89.843750
2252		95.703125
2253		89.843750
2254		97.656250
2255		91.796875
2256		97.656250
2257		91.796875
2258		97.656250
2259		93.750000
2260		97.656250
2261		93.750000
2262		99.609375
2263		93.750000
2264		101.562500
2265		93.750000
2266		101.562500
2267		93.750000
2268		101.562500
2269		95.703125
2270		101.562500
2271		95.703125
2272		101.562500
2273		95.703125
2274		101.562500
2275		97.656250
2276		99.609375
2277		97.656250
2278		101.562500
2279		95.703125
2280		101.562500
2281		95.703125
2282		103.515625
2283		95.703125
2284		101.562500
2285		95.703125
2286		103.515625
2287		95.703125
2288		101.562500
2289		93.750000
2290		101.562500
2291		97.656250
2292		99.609375
2293		95.703125
2294		99.609375
2295		93.750000
2296		99.609375
2297		93.750000
2298		99.609375
2299		91.796875
2300		99.609375
2301		91.796875
2302		97.656250
2303		89.843750
2304		97.656250
2305		89.843750
2306		97.656250
2307		89.843750
2308		95.703125
2309		89.843750
2310		93.750000
2311		87.890625
2312		91.796875
2313		85.937500
2314		91.796875
2315		85.937500
2316		91.796875
2317		82.031250
2318		89.843750
2319		82.031250
2320		89.843750
2321		80.078125
2322		87.890625
2323		78.125000
2324		85.937500
2325		80.078125
2326		83.984375
2327		78.125000
2328		82.031250
2329		74.218750
2330		80.078125
2331		72.265625
2332		80.078125
2333		70.312500
2334		78.125000
2335		68.359375
2336		76.171875
2337		66.406250
2338		74.218750
2339		64.453125
2340		72.265625
2341		64.453125
2342		70.312500
2343		62.500000
2344		66.406250
2345		58.593750
2346		64.453125
2347		56.640625
2348		64.453125
2349		54.687500
2350		62.500000
2351		52.734375
2352		58.593750
2353		48.828125
2354		56.640625
2355		46.875000
2356		54.687500
2357		46.875000
2358		52.734375
2359		42.968750
2360		48.828125
2361		39.062500
2362		44.921875
2363		37.109375
2364		44.921875
2365		33.203125
2366		42.968750
2367		31.250000
2368		41.015625
2369		29.296875
2370		37.109375
2371		27.343750
2372		33.203125
2373		21.484375
2374		31.250000
2375		21.484375
2376		27.343750
2377		19.531250
2378		23.437500
2379		13.671875
2380		21.484375
2381		11.718750
2382		17.578125
2383		7.812500
2384		15.625000
2385		5.859375
2386		11.718750
2387		1.953125
2388		7.812500
2389		0.000000
2390		5.859375
2391		-1.953125
2392		1.953125
2393		-5.859375
2394		-1.953125
2395		-9.765625
2396		-3.906250
2397		-13.671875
2398		-5.859375
2399		-17.578125
2400		-9.765625
2401		-21.484375
2402		-11.718750
2403		-23.437500
2404		-15.625000
2405		-27.343750
2406		-17.578125
2407		-29.296875
2408		-21.484375
2409		-31.250000
2410		-25.390625
2411		-35.156250
2412		-29.296875
2413		-39.062500
2414		-31.250000
2415		-42.968750
2416		-35.156250
2417		-44.921875
2418		-37.109375
2419		-48.828125
2420		-39.062500
2421		-52.734375
2422		-44.921875
2423		-54.687500
2424		-46.875000
2425		-56.640625
2426		-50.781250
2427		-60.546875
2428		-54.687500
2429		-64.453125
2430		-56.640625
2431		-66.406250
2432		-58.593750
2433		-70.312500
2434		-62.500000
2435		-72.265625
2436		-64.453125
2437		-76.171875
2438		-66.406250
2439		-78.125000
2440		-70.312500
2441		-80.078125
2442		-74.218750
2443		-82.031250
2444		-78.125000
2445		-85.937500
2446		-80.078125
2447		-89.843750
2448		-82.031250
2449		-93.750000
2450		-83.984375
2451		-93.750000
2452		-87.890625
2453		-97.656250
2454		-89.843750
2455		-99.609375
2456		-91.796875
2457		-103.515625
2458		-93.750000
2459		-103.515625
2460		-97.656250
2461		-105.468750
2462		-101.562500
2463		-107.421875
2464		-103.515625
2465		-111.328125
2466		-103.515625
2467		-115.234375
2468		-105.468750
2469		-115.234375
2470		-109.375000
2471		-117.187500
2472		-109.375000
2473		-119.140625
2474		-111.328125
2475		-121.093750
2476		-113.281250
2477		-121.093750
2478		-117.187500
2479		-123.046875
2480		-119.140625
2481		-126.953125
2482		-119.140625
2483		-128.906250
2484		-119.140625
2485		-128.906250
2486		-121.093750
2487		-130.859375
2488		-123.046875
2489		-132.812500
2490		-125.000000
2491		-132.812500
2492		-125.000000
2493		-130.859375
2494		-128.906250
2495		-132.812500
2496		-128.906250
2497		-134.765625
2498		-128.906250
2499		-136.718750
2500		-128.906250
2501		-136.718750
2502		-130.859375
2503		-138.671875
2504		-130.859375
2505		-138.671875
2506		-130.859375
2507		-138.671875
2508		-130.859375
2509		-136.718750
2510		-132.812500
2511		-136.718750
2512		-134.765625
2513		-136.718750
2514		-132.812500
2515		-138.671875
2516		-132.812500
2517		-138.671875
2518		-130.859375
2519		-138.671875
2520		-132.812500
2521		-138.671875
2522		-130.859375
2523		-138.671875
2524		-130.859375
2525		-136.718750
2526		-130.859375
2527		-134.765625
2528		-132.812500
2529		-134.765625
2530		-130.859375
2531		-136.718750
2532		-128.906250
2533		-134.765625
2534		-128.906250
2535		-134.765625
2536		-126.953125
2537		-132.812500
2538		-126.953125
2539		-132.812500
2540		-125.000000
2541		-132.812500
2542		-125.000000
2543		-128.906250
2544		-123.046875
2545		-126.953125
2546		-123.046875
2547		-126.953125
2548		-119.140625
2549		-125.000000
2550		-117.187500
2551		-123.046875
2552		-117.187500
2553		-123.046875
2554		-115.234375
2555		-121.093750
2556		-113.281250
2557		-119.140625
2558		-111.328125
2559		-117.187500
2560		-111.328125
2561		-113.281250
2562		-109.375000
2563		-111.328125
2564		-105.468750
2565		-111.328125
2566		-103.515625
2567		-107.421875
2568		-99.609375
2569		-105.468750
2570		-97.656250
2571		-103.515625
2572		-95.703125
2573		-101.562500
2574		-91.796875
2575		-97.656250
2576		-91.796875
2577		-93.750000
2578		-89.843750
2579		-91.796875
2580		-85.937500
2581		-89.843750
2582		-83.984375
2583		-87.890625
2584		-80.078125
2585		-85.937500
2586		-76.171875
2587		-82.031250
2588		-74.218750
2589		-80.078125
2590		-70.312500
2591		-78.125000
2592		-68.359375
2593		-74.218750
2594		-66.406250
2595		-68.359375
2596		-64.453125
2597		-66.406250
2598		-58.593750
2599		-64.453125
2600		-56.640625
2601		-62.500000
2602		-54.687500
2603		-58.593750
2604		-48.828125
2605		-54.687500
2606		-48.828125
2607		-52.734375
2608		-44.921875
2609		-48.828125
2610		-42.968750
2611		-44.921875
2612		-39.062500
2613		-41.015625
2614		-37.109375
2615		-39.062500
2616		-31.250000
2617		-37.109375
2618		-27.343750
2619		-33.203125
2620		-23.437500
2621		-29.296875
2622		-21.484375
2623		-27.343750
2624		-17.578125
2625		-23.437500
2626		-15.625000
2627		-19.531250
2628		-13.671875
2629		-15.625000
2630		-9.765625
2631		-13.671875
2632		-5.859375
2633		-9.765625
2634		-1.953125
2635		-7.812500
2636		0.000000
2637		-3.906250
2638		3.906250
2639		-1.953125
2640		5.859375
2641		1.953125
2642		9.765625
2643		5.859375
2644		11.718750
2645		9.765625
2646		13.671875
2647		11.718750
2648		17.578125
2649		13.671875
2650		21.484375
2651		15.625000
2652		25.390625
2653		19.531250
2654		27.343750
2655		21.484375
2656		29.296875
2657		25.390625
2658		33.203125
2659		27.343750
2660		35.156250
2661		33.203125
2662		37.109375
2663		35.156250
2664		39.062500
2665		37.109375
2666		44.921875
2667		39.062500
2668		46.875000
2669		41.015625
2670		48.828125
2671		42.968750
2672		50.781250
2673		46.875000
2674		52.734375
2675		48.828125
2676		56.640625
2677		50.781250
2678		56.640625
2679		54.687500
2680		58.593750
2681		56.640625
2682		62.500000
2683		58.593750
2684		64.453125
2685		58.593750
2686		68.359375
2687		62.500000
2688		70.312500
2689		62.500000
2690		70.312500
2691		66.406250
2692		72.265625
2693		68.359375
2694		74.218750
2695		72.265625
2696		76.171875
2697		72.265625
2698		76.171875
2699		74.218750
2700		80.078125
2701		74.218750
2702		82.031250
2703		76.171875
2704		83.984375
2705		78.125000
2706		83.984375
2707		78.125000
2708		85.937500
2709		80.078125
2710		87.890625
2711		83.984375
2712		87.890625
2713		85.937500
2714		87.890625
2715		83.984375
2716		91.796875
2717		85.937500
2718		93.750000
2719		85.937500
2720		93.750000
2721		87.890625
2722		95.703125
2723		87.890625
2724		95.703125
2725		87.890625
2726		97.656250
2727		89.843750
2728		97.656250
2729		93.750000
2730		95.703125
2731		93.750000
2732		97.656250
2733		91.796875
2734		99.609375
2735		93.750000
2736		99.609375
2737		93.750000
2738		101.562500
2739		93.750000
2740		101.562500
2741		93.750000
2742		101.562500
2743		93.750000
2744		101.562500
2745		97.656250
2746		99.609375
2747		97.656250
2748		99.609375
2749		95.703125
2750		101.562500
2751		93.750000
2752		101.562500
2753		93.750000
2754		101.562500
2755		95.703125
2756		101.562500
2757		93.750000
2758		101.562500
2759		93.750000
2760		101.562500
2761		93.750000
2762		101.562500
2763		95.703125
2764		99.609375
2765		93.750000
2766		99.609375
2767		91.796875
2768		99.609375
2769		91.796875
2770		99.609375
2771		91.796875
2772		97.656250
2773		89.843750
2774		97.656250
2775		89.843750
2776		97.656250
2777		89.843750
2778		95.703125
2779		89.843750
2780		93.750000
2781		89.843750
2782		91.796875
2783		85.937500
2784		93.750000
2785		83.984375
2786		91.796875
2787		83.984375
2788		91.796875
2789		82.031250
2790		91.796875
2791		80.078125
2792		87.890625
2793		78.125000
2794		85.937500
2795		80.078125
2796		83.984375
2797		78.125000
2798		82.031250
2799		74.218750
2800		82.031250
2801		72.265625
2802		82.031250
2803		72.265625
2804		78.125000
2805		70.312500
2806		78.125000
2807		68.359375
2808		74.218750
2809		64.453125
2810		72.265625
2811		64.453125
2812		72.265625
2813		62.500000
2814		68.359375
2815		60.546875
2816		66.406250
2817		56.640625
2818		66.406250
2819		54.687500
2820		62.500000
2821		52.734375
2822		60.546875
2823		50.781250
2824		58.593750
2825		48.828125
2826		54.687500
2827		44.921875
2828		54.687500
2829		44.921875
2830		50.781250
2831		41.015625
2832		46.875000
2833		37.109375
2834		44.921875
2835		35.156250
2836		42.968750
2837		33.203125
2838		41.015625
2839		29.296875
2840		37.109375
2841		27.343750
2842		35.156250
2843		23.437500
2844		33.203125
2845		23.437500
2846		29.296875
2847		19.531250
2848		25.390625
2849		15.625000
2850		23.437500
2851		13.671875
2852		21.484375
2853		9.765625
2854		17.578125
2855		5.859375
2856		13.671875
2857		3.906250
2858		11.718750
2859		0.000000
2860		7.812500
2861		-1.953125
2862		5.859375
2863		-3.906250
2864		0.000000
2865		-7.812500
2866		-1.953125
2867		-11.718750
2868		-5.859375
2869		-15.625000
2870		-5.859375
2871		-19.531250
2872		-11.718750
2873		-21.484375
2874		-13.671875
2875		-25.390625
2876		-17.578125
2877		-29.296875
2878		-19.531250
2879		-29.296875
2880		-23.437500
2881		-33.203125
2882		-27.343750
2883		-39.062500
2884		-31.250000
2885		-41.015625
2886		-33.203125
2887		-42.968750
2888		-37.109375
2889		-46.875000
2890		-39.062500
2891		-50.781250
2892		-41.015625
2893		-54.687500
2894		-44.921875
2895		-54.687500
2896		-48.828125
2897		-58.593750
2898		-52.734375
2899		-62.500000
2900		-54.687500
2901		-66.406250
2902		-56.640625
2903		-68.359375
2904		-58.593750
2905		-72.265625
2906		-62.500000
2907		-74.218750
2908		-66.406250
2909		-76.171875
2910		-70.312500
2911		-80.078125
2912		-72.265625
2913		-82.031250
2914		-76.171875
2915		-83.984375
2916		-80.078125
2917		-87.890625
2918		-82.031250
2919		-91.796875
2920		-83.984375
2921		-93.750000
2922		-85.937500
2923		-95.703125
2924		-87.890625
2925		-97.656250
2926		-91.796875
2927		-101.562500
2928		-93.750000
2929		-101.562500
2930		-95.703125
2931		-103.515625
2932		-99.609375
2933		-107.421875
2934		-101.562500
2935		-111.328125
2936		-101.562500
2937		-113.281250
2938		-105.468750
2939		-113.281250
2940		-105.468750
2941		-115.234375
2942		-109.375000
2943		-117.187500
2944		-111.328125
2945		-119.140625
2946		-113.281250
2947		-119.140625
2948		-117.187500
2949		-121.093750
2950		-117.187500
2951		-125.000000
2952		-117.187500
2953		-126.953125
2954		-119.140625
2955		-128.906250
2956		-121.093750
2957		-128.906250
2958		-121.093750
2959		-128.906250
2960		-125.000000
2961		-132.812500
2962		-125.000000
2963		-130.859375
2964		-126.953125
2965		-132.812500
2966		-128.906250
2967		-134.765625
2968		-128.906250
2969		-134.765625
2970		-128.906250
2971		-136.718750
2972		-130.859375
2973		-134.765625
2974		-130.859375
2975		-136.718750
2976		-130.859375
2977		-138.671875
2978		-132.812500
2979		-138.671875
2980		-132.812500
2981		-136.718750
2982		-134.765625
2983		-138.671875
2984		-132.812500
2985		-140.625000
2986		-132.812500
2987		-138.671875
2988		-132.812500
2989		-138.671875
2990		-132.812500
2991		-136.718750
2992		-132.812500
2993		-136.718750
2994		-132.812500
2995		-138.671875
2996		-130.859375
2997		-136.718750
2998		-132.812500
2999		-134.765625
3000		-130.859375
3001		-136.718750
3002		-130.859375
3003		-134.765625
3004		-128.906250
3005		-134.765625
3006		-128.906250
3007		-132.812500
3008		-128.906250
3009		-130.859375
3010		-126.953125
3011		-130.859375
3012		-125.000000
3013		-128.906250
3014		-125.000000
3015		-126.953125
3016		-123.046875
3017		-125.000000
3018		-123.046875
3019		-126.953125
3020		-119.140625
3021		-123.046875
3022		-119.140625
3023		-121.093750
3024		-117.187500
3025		-119.140625
3026		-115.234375
3027		-117.187500
3028		-113.281250
3029		-115.234375
3030		-111.328125
3031		-113.281250
3032		-109.375000
3033		-111.328125
3034		-107.421875
3035		-111.328125
3036		-105.468750
3037		-107.421875
3038		-103.515625
3039		-105.468750
3040		-101.562500
3041		-103.515625
3042		-97.656250
3043		-101.562500
3044		-95.703125
3045		-97.656250
3046		-93.750000
3047		-95.703125
3048		-89.843750
3049		-91.796875
3050		-87.890625
3051		-89.843750
3052		-83.984375
3053		-87.890625
3054		-83.984375
3055		-85.937500
3056		-80.078125
3057		-82.031250
3058		-76.171875
3059		-80.078125
3060		-74.218750
3061		-76.171875
3062		-72.265625
3063		-74.218750
3064		-68.359375
3065		-70.312500
3066		-66.406250
3067		-68.359375
3068		-60.546875
3069		-64.453125
3070		-60.546875
3071		-60.546875
3072		-56.640625
3073		-58.593750
3074		-52.734375
3075		-54.687500
3076		-50.781250
3077		-52.734375
3078		-46.875000
3079		-48.828125
3080		-42.968750
3081		-46.875000
3082		-41.015625
3083		-44.921875
3084		-37.109375
3085		-39.062500
3086		-35.156250
3087		-37.109375
3088		-31.250000
3089		-33.203125
3090		-27.343750
3091		-29.296875
3092		-25.390625
3093		-27.343750
3094		-21.484375
3095		-23.437500
3096		-17.578125
3097		-19.531250
3098		-15.625000
3099		-17.578125
3100		-11.718750
3101		-13.671875
3102		-7.812500
3103		-11.718750
3104		-5.859375
3105		-7.812500
3106		-1.953125
3107		-3.906250
3108		0.000000
3109		-1.953125
3110		3.906250
3111		1.953125
3112		5.859375
3113		3.906250
3114		9.765625
3115		7.812500
3116		13.671875
3117		9.765625
3118		15.625000
3119		13.671875
3120		19.531250
3121		17.578125
3122		21.484375
3123		19.531250
3124		25.390625
3125		21.484375
3126		27.343750
3127		25.390625
3128		29.296875
3129		27.343750
3130		33.203125
3131		31.250000
3132		35.156250
3133		33.203125
3134		39.062500
3135		37.109375
3136		41.015625
3137		39.062500
3138		42.968750
3139		41.015625
3140		44.921875
3141		42.968750
3142		48.828125
3143		46.875000
3144		50.781250
3145		48.828125
3146		52.734375
3147		50.781250
3148		54.687500
3149		52.734375
3150		58.593750
3151		56.640625
3152		60.546875
3153		56.640625
3154		62.500000
3155		60.546875
3156		64.453125
3157		62.500000
3158		66.406250
3159		64.453125
3160		68.359375
3161		66.406250
3162		70.312500
3163		68.359375
3164		74.218750
3165		70.312500
3166		74.218750
3167		72.265625
3168		76.171875
3169		74.218750
3170		78.125000
3171		76.171875
3172		80.078125
3173		76.171875
3174		82.031250
3175		78.125000
3176		83.984375
3177		80.078125
3178		83.984375
3179		82.031250
3180		85.937500
3181		83.984375
3182		85.937500
3183		83.984375
3184		87.890625
3185		85.937500
3186		89.843750
3187		85.937500
3188		89.843750
3189		87.890625
3190		91.796875
3191		89.843750
3192		91.796875
3193		89.843750
3194		93.750000
3195		91.796875
3196		93.750000
3197		91.796875
3198		95.703125
3199		91.796875
3200		95.703125
3201		93.750000
3202		95.703125
3203		93.750000
3204		97.656250
3205		95.703125
3206		97.656250
3207		95.703125
3208		97.656250
3209		95.703125
3210		99.609375
3211		95.703125
3212		99.609375
3213		95.703125
3214		99.609375
3215		95.703125
3216		101.562500
3217		97.656250
3218		99.609375
3219		97.656250
3220		99.609375
3221		97.656250
3222		99.609375
3223		97.656250
3224		99.609375
3225		97.656250
3226		99.609375
3227		97.656250
3228		99.609375
3229		97.656250
3230		99.609375
3231		95.703125
3232		99.609375
3233		95.703125
3234		99.609375
3235		95.703125
3236		99.609375
3237		95.703125
3238		97.656250
3239		93.750000
3240		97.656250
3241		93.750000
3242		97.656250
3243		93.750000
3244		97.656250
3245		91.796875
3246		95.703125
3247		89.843750
3248		95.703125
3249		89.843750
3250		93.750000
3251		89.843750
3252		93.750000
3253		87.890625
3254		91.796875
3255		85.937500
3256		91.796875
3257		85.937500
3258		89.843750
3259		83.984375
3260		89.843750
3261		83.984375
3262		87.890625
3263		82.031250
3264		85.937500
3265		80.078125
3266		83.984375
3267		78.125000
3268		82.031250
3269		76.171875
3270		82.031250
3271		76.171875
3272		80.078125
3273		74.218750
3274		78.125000
3275		72.265625
3276		76.171875
3277		70.312500
3278		74.218750
3279		68.359375
3280		74.218750
3281		66.406250
3282		70.312500
3283		64.453125
3284		68.359375
3285		62.500000
3286		66.406250
3287		60.546875
3288		66.406250
3289		58.593750
3290		62.500000
3291		54.687500
3292		60.546875
3293		52.734375
3294		58.593750
3295		50.781250
3296		54.687500
3297		48.828125
3298		52.734375
3299		46.875000
3300		50.781250
3301		42.968750
3302		48.828125
3303		41.015625
3304		46.875000
3305		39.062500
3306		42.968750
3307		35.156250
3308		41.015625
3309		33.203125
3310		37.109375
3311		31.250000
3312		35.156250
3313		27.343750
3314		33.203125
3315		23.437500
3316		29.296875
3317		21.484375
3318		27.343750
3319		19.531250
3320		23.437500
3321		15.625000
3322		21.484375
3323		11.718750
3324		19.531250
3325		9.765625
3326		15.625000
3327		5.859375
3328		11.718750
3329		3.906250
3330		9.765625
3331		0.000000
3332		5.859375
3333		-1.953125
3334		3.906250
3335		-5.859375
3336		0.000000
3337		-9.765625
3338		-3.906250
3339		-11.718750
3340		-5.859375
3341		-15.625000
3342		-9.765625
3343		-19.531250
3344		-11.718750
3345		-21.484375
3346		-15.625000
3347		-23.437500
3348		-19.531250
3349		-27.343750
3350		-21.484375
3351		-31.250000
3352		-25.390625
3353		-35.156250
3354		-29.296875
3355		-37.109375
3356		-31.250000
3357		-41.015625
3358		-35.156250
3359		-42.968750
3360		-37.109375
3361		-46.875000
3362		-41.015625
3363		-50.781250
3364		-42.968750
3365		-54.687500
3366		-48.828125
3367		-56.640625
3368		-50.781250
3369		-58.593750
3370		-54.687500
3371		-62.500000
3372		-56.640625
3373		-64.453125
3374		-60.546875
3375		-68.359375
3376		-62.500000
3377		-70.312500
3378		-66.406250
3379		-74.218750
3380		-68.359375
3381		-76.171875
3382		-72.265625
3383		-80.078125
3384		-74.218750
3385		-82.031250
3386		-78.125000
3387		-85.937500
3388		-80.078125
3389		-87.890625
3390		-83.984375
3391		-89.843750
3392		-85.937500
3393		-93.750000
3394		-87.890625
3395		-95.703125
3396		-89.843750
3397		-97.656250
3398		-93.750000
3399		-101.562500
3400		-95.703125
3401		-103.515625
3402		-97.656250
3403		-105.468750
3404		-101.562500
3405		-107.421875
3406		-101.562500
3407		-109.375000
3408		-105.468750
3409		-111.328125
3410		-107.421875
3411		-113.281250
3412		-109.375000
3413		-115.234375
3414		-111.328125
3415		-117.187500
3416		-113.281250
3417		-119.140625
3418		-113.281250
3419		-121.093750
3420		-117.187500
3421		-123.046875
3422		-117.187500
3423		-123.046875
3424		-121.093750
3425		-125.000000
3426		-121.093750
3427		-126.953125
3428		-123.046875
3429		-128.906250
3430		-125.000000
3431		-128.906250
3432		-125.000000
3433		-130.859375
3434		-126.953125
3435		-130.859375
3436		-128.906250
3437		-132.812500
3438		-128.906250
3439		-132.812500
3440		-128.906250
3441		-134.765625
3442		-130.859375
3443		-134.765625
3444		-130.859375
3445		-134.765625
3446		-132.812500
3447		-136.718750
3448		-132.812500
3449		-136.718750
3450		-132.812500
3451		-136.718750
3452		-132.812500
3453		-136.718750
3454		-134.765625
3455		-136.718750
3456		-132.812500
3457		-136.718750
3458		-134.765625
3459		-136.718750
3460		-132.812500
3461		-136.718750
3462		-134.765625
3463		-136.718750
3464		-134.765625
3465		-136.718750
3466		-132.812500
3467		-136.718750
3468		-132.812500
3469		-134.765625
3470		-132.812500
3471		-136.718750
3472		-130.859375
3473		-134.765625
3474		-130.859375
3475		-132.812500
3476		-128.906250
3477		-132.812500
3478		-128.906250
3479		-130.859375
3480		-128.906250
3481		-130.859375
3482		-126.953125
3483		-130.859375
3484		-125.000000
3485		-126.953125
3486		-125.000000
3487		-126.953125
3488		-123.046875
3489		-126.953125
3490		-121.093750
3491		-123.046875
3492		-121.093750
3493		-123.046875
3494		-119.140625
3495		-121.093750
3496		-115.234375
3497		-119.140625
3498		-115.234375
3499		-117.187500
3500		-113.281250
3501		-115.234375
3502		-111.328125
3503		-113.281250
3504		-109.375000
3505		-111.328125
3506		-107.421875
3507		-109.375000
3508		-103.515625
3509		-107.421875
3510		-101.562500
3511		-105.468750
3512		-99.609375
3513		-101.562500
3514		-97.656250
3515		-99.609375
3516		-95.703125
3517		-97.656250
3518		-91.796875
3519		-93.750000
3520		-89.843750
3521		-91.796875
3522		-87.890625
3523		-89.843750
3524		-83.984375
3525		-87.890625
3526		-82.031250
3527		-83.984375
3528		-80.078125
3529		-82.031250
3530		-76.171875
3531		-78.125000
3532		-74.218750
3533		-76.171875
3534		-70.312500
3535		-72.265625
3536		-68.359375
3537		-70.312500
3538		-64.453125
3539		-66.406250
3540		-60.546875
3541		-64.453125
3542		-58.593750
3543		-60.546875
3544		-54.687500
3545		-56.640625
3546		-52.734375
3547		-54.687500
3548		-48.828125
3549		-50.781250
3550		-46.875000
3551		-48.828125
3552		-42.968750
3553		-44.921875
3554		-39.062500
3555		-41.015625
3556		-35.156250
3557		-39.062500
3558		-33.203125
3559		-35.156250
3560		-29.296875
3561		-33.203125
3562		-27.343750
3563		-29.296875
3564		-23.437500
3565		-25.390625
3566		-21.484375
3567		-23.437500
3568		-17.578125
3569		-19.531250
3570		-13.671875
3571		-15.625000
3572		-11.718750
3573		-13.671875
3574		-7.812500
3575		-9.765625
3576		-3.906250
3577		-5.859375
3578		-1.953125
3579		-3.906250
3580		1.953125
3581		0.000000
3582		3.906250
3583		1.953125
3584		7.812500
3585		3.906250
3586		11.718750
3587		7.812500
3588		13.671875
3589		11.718750
3590		17.578125
3591		13.671875
3592		19.531250
3593		17.578125
3594		23.437500
3595		19.531250
3596		25.390625
3597		23.437500
3598		27.343750
3599		25.390625
3600		31.250000
3601		29.296875
3602		33.203125
3603		31.250000
3604		37.109375
3605		35.156250
3606		39.062500
3607		37.109375
3608		41.015625
3609		39.062500
3610		44.921875
3611		42.968750
3612		46.875000
3613		44.921875
3614		48.828125
3615		46.875000
3616		52.734375
3617		50.781250
3618		54.687500
3619		50.781250
3620		56.640625
3621		54.687500
3622		58.593750
3623		56.640625
3624		60.546875
3625		58.593750
3626		62.500000
3627		60.546875
3628		66.406250
3629		62.500000
3630		66.406250
3631		64.453125
3632		70.312500
3633		66.406250
3634		72.265625
3635		68.359375
3636		74.218750
3637		70.312500
3638		74.218750
3639		72.265625
3640		78.125000
3641		74.218750
3642		78.125000
3643		76.171875
3644		80.078125
3645		78.125000
3646		82.031250
3647		80.078125
3648		83.984375
3649		80.078125
3650		83.984375
3651		82.031250
3652		85.937500
3653		83.984375
3654		87.890625
3655		85.937500
3656		87.890625
3657		85.937500
3658		89.843750
3659		87.890625
3660		91.796875
3661		87.890625
3662		91.796875
3663		89.843750
3664		93.750000
3665		89.843750
3666		93.750000
3667		91.796875
3668		95.703125
3669		91.796875
3670		97.656250
3671		93.750000
3672		95.703125
3673		93.750000
3674		97.656250
3675		95.703125
3676		97.656250
3677		93.750000
3678		97.656250
3679		95.703125
3680		99.609375
3681		95.703125
3682		99.609375
3683		95.703125
3684		99.609375
3685		97.656250
3686		99.609375
3687		97.656250
3688		99.609375
3689		97.656250
3690		101.562500
3691		97.656250
3692		99.609375
3693		97.656250
3694		99.609375
3695		97.656250
3696		99.609375
3697		97.656250
3698		99.609375
3699		95.703125
3700		99.609375
3701		95.703125
3702		99.609375
3703		95.703125
3704		99.609375
3705		95.703125
3706		99.609375
3707		95.703125
3708		99.609375
3709		93.750000
3710		99.609375
3711		93.750000
3712		97.656250
3713		93.750000
3714		97.656250
3715		91.796875
3716		95.703125
3717		91.796875
3718		95.703125
3719		91.796875
3720		95.703125
3721		89.843750
3722		93.750000
3723		87.890625
3724		93.750000
3725		87.890625
3726		91.796875
3727		87.890625
3728		91.796875
3729		85.937500
3730		89.843750
3731		83.984375
3732		87.890625
3733		82.031250
3734		87.890625
3735		82.031250
3736		85.937500
3737		80.078125
3738		83.984375
3739		78.125000
3740		82.031250
3741		78.125000
3742		82.031250
3743		76.171875
3744		80.078125
3745		74.218750
3746		78.125000
3747		70.312500
3748		76.171875
3749		70.312500
3750		74.218750
3751		68.359375
3752		72.265625
3753		66.406250
3754		70.312500
3755		64.453125
3756		68.359375
3757		60.546875
3758		66.406250
3759		60.546875
3760		64.453125
3761		56.640625
3762		62.500000
3763		54.687500
3764		60.546875
3765		52.734375
3766		56.640625
3767		48.828125
3768		54.687500
3769		46.875000
3770		52.734375
3771		44.921875
3772		50.781250
3773		42.968750
3774		46.875000
3775		41.015625
3776		44.921875
3777		37.109375
3778		42.968750
3779		35.156250
3780		39.062500
3781		31.250000
3782		37.109375
3783		29.296875
3784		33.203125
3785		25.390625
3786		31.250000
3787		23.437500
3788		29.296875
3789		21.484375
3790		25.390625
3791		17.578125
3792		21.484375
3793		15.625000
3794		19.531250
3795		11.718750
3796		17.578125
3797		7.812500
3798		13.671875
3799		5.859375
3800		11.718750
3801		1.953125
3802		7.812500
3803		0.000000
3804		3.906250
3805		-3.906250
3806		1.953125
3807		-5.859375
3808		-1.953125
3809		-9.765625
3810		-3.906250
3811		-13.671875
3812		-7.812500
3813		-15.625000
3814		-11.718750
3815		-19.531250
3816		-13.671875
3817		-21.484375
3818		-17.578125
3819		-25.390625
3820		-21.484375
3821		-29.296875
3822		-23.437500
3823		-31.250000
3824		-27.343750
3825		-35.156250
3826		-29.296875
3827		-39.062500
3828		-33.203125
3829		-41.015625
3830		-35.156250
3831		-44.921875
3832		-39.062500
3833		-48.828125
3834		-42.968750
3835		-50.781250
3836		-46.875000
3837		-54.687500
3838		-48.828125
3839		-56.640625
3840		-52.734375
3841		-60.546875
3842		-54.687500
3843		-62.500000
3844		-58.593750
3845		-66.406250
3846		-60.546875
3847		-68.359375
3848		-64.453125
3849		-72.265625
3850		-66.406250
3851		-74.218750
3852		-70.312500
3853		-78.125000
3854		-72.265625
3855		-80.078125
3856		-76.171875
3857		-83.984375
3858		-78.125000
3859		-85.937500
3860		-80.078125
3861		-87.890625
3862		-83.984375
3863		-91.796875
3864		-85.937500
3865		-93.750000
3866		-87.890625
3867		-97.656250
3868		-91.796875
3869		-99.609375
3870		-93.750000
3871		-101.562500
3872		-95.703125
3873		-103.515625
3874		-99.609375
3875		-105.468750
3876		-101.562500
3877		-107.421875
3878		-103.515625
3879		-109.375000
3880		-105.468750
3881		-111.328125
3882		-107.421875
3883		-113.281250
3884		-109.375000
3885		-117.187500
3886		-111.328125
3887		-117.187500
3888		-113.281250
3889		-119.140625
3890		-115.234375
3891		-123.046875
3892		-117.187500
3893		-123.046875
3894		-117.187500
3895		-125.000000
3896		-121.093750
3897		-126.953125
3898		-121.093750
3899		-126.953125
3900		-123.046875
3901		-128.906250
3902		-125.000000
3903		-130.859375
3904		-125.000000
3905		-130.859375
3906		-126.953125
3907		-130.859375
3908		-128.906250
3909		-134.765625
3910		-128.906250
3911		-134.765625
3912		-130.859375
3913		-134.765625
3914		-130.859375
3915		-134.765625
3916		-130.859375
3917		-134.765625
3918		-132.812500
3919		-136.718750
3920		-132.812500
3921		-136.718750
3922		-132.812500
3923		-136.718750
3924		-134.765625
3925		-136.718750
3926		-132.812500
3927		-138.671875
3928		-134.765625
3929		-138.671875
3930		-132.812500
3931		-136.718750
3932		-134.765625
3933		-138.671875
3934		-132.812500
3935		-136.718750
3936		-132.812500
3937		-136.718750
3938		-132.812500
3939		-136.718750
3940		-132.812500
3941		-134.765625
3942		-132.812500
3943		-136.718750
3944		-130.859375
3945		-134.765625
3946		-130.859375
3947		-132.812500
3948		-128.906250
3949		-132.812500
3950		-126.953125
3951		-132.812500
3952		-128.906250
3953		-130.859375
3954		-126.953125
3955		-130.859375
3956		-125.000000
3957		-126.953125
3958		-123.046875
3959		-126.953125
3960		-123.046875
3961		-125.000000
3962		-121.093750
3963		-123.046875
3964		-119.140625
3965		-123.046875
3966		-117.187500
3967		-121.093750
3968		-115.234375
3969		-119.140625
3970		-113.281250
3971		-117.187500
3972		-111.328125
3973		-113.281250
3974		-109.375000
3975		-113.281250
3976		-107.421875
3977		-111.328125
3978		-105.468750
3979		-107.421875
3980		-103.515625
3981		-105.468750
3982		-101.562500
3983		-103.515625
3984		-99.609375
3985		-101.562500
3986		-97.656250
3987		-99.609375
3988		-93.750000
3989		-95.703125
3990		-91.796875
3991		-93.750000
3992		-89.843750
3993		-91.796875
3994		-85.937500
3995		-89.843750
3996		-82.031250
3997		-87.890625
3998		-80.078125
3999		-83.984375
4000		-78.125000
4001		-82.031250
4002		-74.218750
4003		-78.125000
4004		-72.265625
4005		-76.171875
4006		-70.312500
4007		-72.265625
4008		-66.406250
4009		-68.359375
4010		-62.500000
4011		-66.406250
4012		-58.593750
4013		-64.453125
4014		-56.640625
4015		-60.546875
4016		-52.734375
4017		-56.640625
4018		-50.781250
4019		-52.734375
4020		-46.875000
4021		-50.781250
4022		-44.921875
4023		-46.875000
4024		-41.015625
4025		-42.968750
4026		-39.062500
4027		-41.015625
4028		-35.156250
4029		-39.062500
4030		-31.250000
4031		-35.156250
4032		-27.343750
4033		-33.203125
4034		-25.390625
4035		-29.296875
4036		-21.484375
4037		-25.390625
4038		-19.531250
4039		-21.484375
4040		-15.625000
4041		-17.578125
4042		-13.671875
4043		-15.625000
4044		-7.812500
4045		-11.718750
4046		-5.859375
4047		-9.765625
4048		-3.906250
4049		-5.859375
4050		0.000000
4051		-1.953125
4052		3.906250
4053		0.000000
4054		5.859375
4055		1.953125
4056		9.765625
4057		5.859375
4058		11.718750
4059		9.765625
4060		15.625000
4061		13.671875
4062		17.578125
4063		15.625000
4064		19.531250
4065		17.578125
4066		23.437500
4067		21.484375
4068		25.390625
4069		25.390625
4070		29.296875
4071		27.343750
4072		31.250000
4073		29.296875
4074		35.156250
4075		33.203125
4076		37.109375
4077		35.156250
4078		39.062500
4079		39.062500
4080		42.968750
4081		41.015625
4082		44.921875
4083		42.968750
4084		46.875000
4085		46.875000
4086		50.781250
4087		48.828125
4088		52.734375
4089		50.781250
4090		54.687500
4091		52.734375
4092		56.640625
4093		54.687500
4094		60.546875
4095		56.640625
4096		62.500000
4097		58.593750
4098		64.453125
4099		62.500000
4100		66.406250
4101		64.453125
4102		68.359375
4103		66.406250
4104		70.312500
4105		68.359375
4106		72.265625
4107		70.312500
4108		74.218750
4109		72.265625
4110		76.171875
4111		72.265625
4112		78.125000
4113		76.171875
4114		80.078125
4115		76.171875
4116		80.078125
4117		78.125000
4118		82.031250
4119		80.078125
4120		83.984375
4121		82.031250
4122		85.937500
4123		83.984375
4124		85.937500
4125		83.984375
4126		87.890625
4127		85.937500
4128		89.843750
4129		87.890625
4130		89.843750
4131		87.890625
4132		91.796875
4133		89.843750
4134		91.796875
4135		89.843750
4136		93.750000
4137		91.796875
4138		93.750000
4139		91.796875
4140		95.703125
4141		91.796875
4142		95.703125
4143		93.750000
4144		97.656250
4145		93.750000
4146		97.656250
4147		93.750000
4148		97.656250
4149		95.703125
4150		97.656250
4151		95.703125
4152		99.609375
4153		95.703125
4154		99.609375
4155		97.656250
4156		99.609375
4157		97.656250
4158		99.609375
4159		97.656250
4160		99.609375
4161		93.750000
4162		103.515625
4163		93.750000
4164		103.515625
4165		93.750000
4166		103.515625
4167		97.656250
4168		99.609375
4169		97.656250
4170		99.609375
4171		97.656250
4172		99.609375
4173		95.703125
4174		99.609375
4175		95.703125
4176		99.609375
4177		93.750000
4178		101.562500
4179		91.796875
4180		101.562500
4181		91.796875
4182		101.562500
4183		91.796875
4184		99.609375
4185		93.750000
4186		95.703125
4187		93.750000
4188		95.703125
4189		91.796875
4190		95.703125
4191		91.796875
4192		93.750000
4193		89.843750
4194		93.750000
4195		85.937500
4196		95.703125
4197		85.937500
4198		93.750000
4199		83.984375
4200		93.750000
4201		85.937500
4202		87.890625
4203		83.984375
4204		87.890625
4205		82.031250
4206		85.937500
4207		82.031250
4208		83.984375
4209		80.078125
4210		83.984375
4211		74.218750
4212		85.937500
4213		74.218750
4214		82.031250
4215		72.265625
4216		82.031250
4217		74.218750
4218		76.171875
4219		72.265625
4220		76.171875
4221		70.312500
4222		74.218750
4223		68.359375
4224		72.265625
4225		64.453125
4226		70.312500
4227		60.546875
4228		68.359375
4229		56.640625
4230		68.359375
4231		54.687500
4232		66.406250
4233		54.687500
4234		64.453125
4235		54.687500
4236		58.593750
4237		52.734375
4238		56.640625
4239		48.828125
4240		54.687500
4241		46.875000
4242		52.734375
4243		44.921875
4244		48.828125
4245		39.062500
4246		48.828125
4247		37.109375
4248		46.875000
4249		35.156250
4250		42.968750
4251		35.156250
4252		39.062500
4253		31.250000
4254		37.109375
4255		29.296875
4256		33.203125
4257		25.390625
4258		31.250000
4259		23.437500
4260		27.343750
4261		17.578125
4262		27.343750
4263		13.671875
4264		25.390625
4265		11.718750
4266		21.484375
4267		11.718750
4268		19.531250
4269		7.812500
4270		13.671875
4271		5.859375
4272		9.765625
4273		1.953125
4274		5.859375
4275		-1.953125
4276		3.906250
4277		-3.906250
4278		0.000000
4279		-9.765625
4280		0.000000
4281		-13.671875
4282		-3.906250
4283		-15.625000
4284		-5.859375
4285		-17.578125
4286		-11.718750
4287		-19.531250
4288		-15.625000
4289		-23.437500
4290		-17.578125
4291		-25.390625
4292		-21.484375
4293		-29.296875
4294		-25.390625
4295		-35.156250
4296		-27.343750
4297		-39.062500
4298		-27.343750
4299		-42.968750
4300		-31.250000
4301		-42.968750
4302		-37.109375
4303		-44.921875
4304		-41.015625
4305		-48.828125
4306		-42.968750
4307		-50.781250
4308		-46.875000
4309		-54.687500
4310		-50.781250
4311		-58.593750
4312		-52.734375
4313		-62.500000
4314		-52.734375
4315		-66.406250
4316		-56.640625
4317		-68.359375
4318		-58.593750
4319		-70.312500
4320		-64.453125
4321		-72.265625
4322		-68.359375
4323		-76.171875
4324		-70.312500
4325		-78.125000
4326		-72.265625
4327		-82.031250
4328		-76.171875
4329		-85.937500
4330		-76.171875
4331		-89.843750
4332		-80.078125
4333		-91.796875
4334		-82.031250
4335		-91.796875
4336		-87.890625
4337		-93.750000
4338		-89.843750
4339		-95.703125
4340		-91.796875
4341		-99.609375
4342		-95.703125
4343		-101.562500
4344		-97.656250
4345		-103.515625
4346		-99.609375
4347		-109.375000
4348		-99.609375
4349		-111.328125
4350		-101.562500
4351		-111.328125
4352		-105.468750
4353		-111.328125
4354		-107.421875
4355		-115.234375
4356		-109.375000
4357		-115.234375
4358		-111.328125
4359		-117.187500
4360		-113.281250
4361		-119.140625
4362		-115.234375
4363		-121.093750
4364		-117.187500
4365		-125.000000
4366		-117.187500
4367		-125.000000
4368		-119.140625
4369		-125.000000
4370		-121.093750
4371		-126.953125
4372		-123.046875
4373		-128.906250
4374		-125.000000
4375		-128.906250
4376		-125.000000
4377		-130.859375
4378		-126.953125
4379		-132.812500
4380		-126.953125
4381		-132.812500
4382		-126.953125
4383		-134.765625
4384		-128.906250
4385		-132.812500
4386		-130.859375
4387		-134.765625
4388		-130.859375
4389		-134.765625
4390		-132.812500
4391		-134.765625
4392		-132.812500
4393		-136.718750
4394		-132.812500
4395		-136.718750
4396		-132.812500
4397		-136.718750
4398		-132.812500
4399		-136.718750
4400		-132.812500
4401		-136.718750
4402		-132.812500
4403		-136.718750
4404		-132.812500
4405		-136.718750
4406		-132.812500
4407		-136.718750
4408		-132.812500
4409		-134.765625
4410		-132.812500
4411		-134.765625
4412		-132.812500
4413		-134.765625
4414		-130.859375
4415		-132.812500
4416		-130.859375
4417		-132.812500
4418		-128.906250
4419		-132.812500
4420		-128.906250
4421		-130.859375
4422		-126.953125
4423		-130.859375
4424		-126.953125
4425		-128.906250
4426		-125.000000
4427		-128.906250
4428		-125.000000
4429		-126.953125
4430		-123.046875
4431		-125.000000
4432		-121.093750
4433		-123.046875
4434		-119.140625
4435		-123.046875
4436		-119.140625
4437		-121.093750
4438		-117.187500
4439		-119.140625
4440		-115.234375
4441		-117.187500
4442		-113.281250
4443		-115.234375
4444		-111.328125
4445		-113.281250
4446		-109.375000
4447		-111.328125
4448		-107.421875
4449		-109.375000
4450		-105.468750
4451		-107.421875
4452		-103.515625
4453		-105.468750
4454		-99.609375
4455		-101.562500
4456		-97.656250
4457		-99.609375
4458		-95.703125
4459		-97.656250
4460		-93.750000
4461		-93.750000
4462		-89.843750
4463		-91.796875
4464		-87.890625
4465		-89.843750
4466		-83.984375
4467		-85.937500
4468		-82.031250
4469		-83.984375
4470		-78.125000
4471		-82.031250
4472		-76.171875
4473		-78.125000
4474		-74.218750
4475		-76.171875
4476		-70.312500
4477		-72.265625
4478		-68.359375
4479		-70.312500
4480		-64.453125
4481		-68.359375
4482		-60.546875
4483		-64.453125
4484		-58.593750
4485		-60.546875
4486		-56.640625
4487		-58.593750
4488		-52.734375
4489		-54.687500
4490		-48.828125
4491		-50.781250
4492		-46.875000
4493		-48.828125
4494		-42.968750
4495		-44.921875
4496		-39.062500
4497		-42.968750
4498		-37.109375
4499		-39.062500
4500		-33.203125
4501		-35.156250
4502		-31.250000
4503		-33.203125
4504		-27.343750
4505		-29.296875
4506		-25.390625
4507		-25.390625
4508		-21.484375
4509		-23.437500
4510		-17.578125
4511		-19.531250
4512		-15.625000
4513		-15.625000
4514		-9.765625
4515		-13.671875
4516		-7.812500
4517		-11.718750
4518		-5.859375
4519		-7.812500
4520		-1.953125
4521		-3.906250
4522		1.953125
4523		-1.953125
4524		3.906250
4525		1.953125
4526		7.812500
4527		5.859375
4528		9.765625
4529		7.812500
4530		13.671875
4531		9.765625
4532		15.625000
4533		13.671875
4534		19.531250
4535		17.578125
4536		23.437500
4537		19.531250
4538		25.390625
4539		23.437500
4540		27.343750
4541		25.390625
4542		31.250000
4543		29.296875
4544		33.203125
4545		31.250000
4546		37.109375
4547		33.203125
4548		39.062500
4549		37.109375
4550		41.015625
4551		39.062500
4552		44.921875
4553		41.015625
4554		46.875000
4555		44.921875
4556		48.828125
4557		46.875000
4558		50.781250
4559		48.828125
4560		54.687500
4561		52.734375
4562		56.640625
4563		54.687500
4564		58.593750
4565		54.687500
4566		60.546875
4567		58.593750
4568		62.500000
4569		60.546875
4570		64.453125
4571		62.500000
4572		68.359375
4573		64.453125
4574		68.359375
4575		66.406250
4576		70.312500
4577		68.359375
4578		74.218750
4579		70.312500
4580		74.218750
4581		72.265625
4582		78.125000
4583		74.218750
4584		78.125000
4585		76.171875
4586		80.078125
4587		78.125000
4588		82.031250
4589		78.125000
4590		83.984375
4591		80.078125
4592		83.984375
4593		82.031250
4594		85.937500
4595		83.984375
4596		87.890625
4597		83.984375
4598		89.843750
4599		85.937500
4600		89.843750
4601		85.937500
4602		89.843750
4603		87.890625
4604		91.796875
4605		89.843750
4606		93.750000
4607		89.843750
4608		93.750000
4609		91.796875
4610		95.703125
4611		91.796875
4612		95.703125
4613		93.750000
4614		95.703125
4615		93.750000
4616		97.656250
4617		93.750000
4618		97.656250
4619		95.703125
4620		97.656250
4621		95.703125
4622		99.609375
4623		95.703125
4624		99.609375
4625		95.703125
4626		99.609375
4627		97.656250
4628		99.609375
4629		97.656250
4630		99.609375
4631		97.656250
4632		99.609375
4633		97.656250
4634		101.562500
4635		97.656250
4636		99.609375
4637		97.656250
4638		99.609375
4639		97.656250
4640		101.562500
4641		97.656250
4642		99.609375
4643		95.703125
4644		99.609375
4645		95.703125
4646		99.609375
4647		95.703125
4648		99.609375
4649		95.703125
4650		99.609375
4651		95.703125
4652		97.656250
4653		93.750000
4654		97.656250
4655		93.750000
4656		97.656250
4657		93.750000
4658		95.703125
4659		91.796875
4660		95.703125
4661		91.796875
4662		95.703125
4663		89.843750
4664		93.750000
4665		89.843750
4666		93.750000
4667		87.890625
4668		91.796875
4669		87.890625
4670		89.843750
4671		85.937500
4672		89.843750
4673		83.984375
4674		87.890625
4675		83.984375
4676		87.890625
4677		82.031250
4678		85.937500
4679		80.078125
4680		83.984375
4681		80.078125
4682		82.031250
4683		78.125000
4684		80.078125
4685		76.171875
4686		80.078125
4687		74.218750
4688		78.125000
4689		72.265625
4690		76.171875
4691		70.312500
4692		74.218750
4693		68.359375
4694		72.265625
4695		66.406250
4696		70.312500
4697		64.453125
4698		68.359375
4699		62.500000
4700		66.406250
4701		60.546875
4702		64.453125
4703		58.593750
4704		62.500000
4705		54.687500
4706		60.546875
4707		52.734375
4708		58.593750
4709		50.781250
4710		54.687500
4711		48.828125
4712		52.734375
4713		46.875000
4714		50.781250
4715		42.968750
4716		46.875000
4717		41.015625
4718		44.921875
4719		37.109375
4720		42.968750
4721		35.156250
4722		41.015625
4723		33.203125
4724		37.109375
4725		29.296875
4726		35.156250
4727		27.343750
4728		31.250000
4729		23.437500
4730		29.296875
4731		21.484375
4732		25.390625
4733		17.578125
4734		23.437500
4735		15.625000
4736		19.531250
4737		11.718750
4738		17.578125
4739		9.765625
4740		13.671875
4741		5.859375
4742		11.718750
4743		3.906250
4744		7.812500
4745		0.000000
4746		5.859375
4747		-1.953125
4748		1.953125
4749		-5.859375
4750		-1.953125
4751		-9.765625
4752		-3.906250
4753		-11.718750
4754		-7.812500
4755		-15.625000
4756		-9.765625
4757		-17.578125
4758		-13.671875
4759		-21.484375
4760		-15.625000
4761		-25.390625
4762		-19.531250
4763		-27.343750
4764		-23.437500
4765		-33.203125
4766		-25.390625
4767		-35.156250
4768		-29.296875
4769		-37.109375
4770		-33.203125
4771		-41.015625
4772		-35.156250
4773		-42.968750
4774		-39.062500
4775		-46.875000
4776		-42.968750
4777		-50.781250
4778		-44.921875
4779		-52.734375
4780		-48.828125
4781		-56.640625
4782		-50.781250
4783		-60.546875
4784		-52.734375
4785		-62.500000
4786		-54.687500
4787		-64.453125
4788		-60.546875
4789		-68.359375
4790		-62.500000
4791		-72.265625
4792		-66.406250
4793		-74.218750
4794		-70.312500
4795		-78.125000
4796		-72.265625
4797		-80.078125
4798		-76.171875
4799		-83.984375
4800		-78.125000
4801		-85.937500
4802		-80.078125
4803		-87.890625
4804		-83.984375
4805		-89.843750
4806		-85.937500
4807		-93.750000
4808		-87.890625
4809		-95.703125
4810		-91.796875
4811		-97.656250
4812		-93.750000
4813		-99.609375
4814		-95.703125
4815		-103.515625
4816		-97.656250
4817		-105.468750
4818		-97.656250
4819		-107.421875
4820		-101.562500
4821		-109.375000
4822		-105.468750
4823		-111.328125
4824		-107.421875
4825		-113.281250
4826		-109.375000
4827		-115.234375
4828		-111.328125
4829		-117.187500
4830		-113.281250
4831		-119.140625
4832		-115.234375
4833		-121.093750
4834		-115.234375
4835		-123.046875
4836		-117.187500
4837		-123.046875
4838		-119.140625
4839		-125.000000
4840		-121.093750
4841		-126.953125
4842		-123.046875
4843		-128.906250
4844		-125.000000
4845		-128.906250
4846		-125.000000
4847		-130.859375
4848		-126.953125
4849		-132.812500
4850		-126.953125
4851		-132.812500
4852		-126.953125
4853		-132.812500
4854		-128.906250
4855		-134.765625
4856		-130.859375
4857		-134.765625
4858		-130.859375
4859		-134.765625
4860		-130.859375
4861		-134.765625
4862		-132.812500
4863		-136.718750
4864		-132.812500
4865		-136.718750
4866		-132.812500
4867		-138.671875
4868		-130.859375
4869		-138.671875
4870		-132.812500
4871		-136.718750
4872		-132.812500
4873		-136.718750
4874		-132.812500
4875		-136.718750
4876		-132.812500
4877		-134.765625
4878		-132.812500
4879		-134.765625
4880		-132.812500
4881		-134.765625
4882		-132.812500
4883		-136.718750
4884		-128.906250
4885		-134.765625
4886		-130.859375
4887		-132.812500
4888		-130.859375
4889		-132.812500
4890		-128.906250
4891		-130.859375
4892		-128.906250
4893		-130.859375
4894		-126.953125
4895		-128.906250
4896		-125.000000
4897		-128.906250
4898		-125.000000
4899		-126.953125
4900		-123.046875
4901		-126.953125
4902		-121.093750
4903		-125.000000
4904		-119.140625
4905		-123.046875
4906		-119.140625
4907		-121.093750
4908		-117.187500
4909		-119.140625
4910		-115.234375
4911		-117.187500
4912		-113.281250
4913		-115.234375
4914		-111.328125
4915		-113.281250
4916		-109.375000
4917		-113.281250
4918		-105.468750
4919		-111.328125
4920		-105.468750
4921		-107.421875
4922		-103.515625
4923		-105.468750
4924		-101.562500
4925		-103.515625
4926		-97.656250
4927		-101.562500
4928		-95.703125
4929		-97.656250
4930		-93.750000
4931		-95.703125
4932		-91.796875
4933		-93.750000
4934		-85.937500
4935		-91.796875
4936		-85.937500
4937		-89.843750
4938		-83.984375
4939		-85.937500
4940		-80.078125
4941		-82.031250
4942		-78.125000
4943		-80.078125
4944		-74.218750
4945		-78.125000
4946		-72.265625
4947		-74.218750
4948		-68.359375
4949		-72.265625
4950		-66.406250
4951		-68.359375
4952		-62.500000
4953		-66.406250
4954		-60.546875
4955		-62.500000
4956		-56.640625
4957		-58.593750
4958		-54.687500
4959		-56.640625
4960		-50.781250
4961		-52.734375
4962		-48.828125
4963		-50.781250
4964		-44.921875
4965		-46.875000
4966		-41.015625
4967		-42.968750
4968		-39.062500
4969		-41.015625
4970		-35.156250
4971		-37.109375
4972		-31.250000
4973		-33.203125
4974		-29.296875
4975		-31.250000
4976		-25.390625
4977		-27.343750
4978		-21.484375
4979		-23.437500
4980		-19.531250
4981		-21.484375
4982		-15.625000
4983		-17.578125
4984		-13.671875
4985		-15.625000
4986		-9.765625
4987		-11.718750
4988		-5.859375
4989		-9.765625
4990		-3.906250
4991		-5.859375
4992		0.000000
4993		-1.953125
4994		3.906250
4995		0.000000
4996		5.859375
4997		3.906250
4998		9.765625
4999		5.859375
5000		11.718750
5001		9.765625
5002		15.625000
5003		11.718750
5004		17.578125
5005		15.625000
5006		21.484375
5007		17.578125
5008		23.437500
5009		21.484375
5010		25.390625
5011		25.390625
5012		29.296875
5013		27.343750
5014		33.203125
5015		29.296875
5016		35.156250
5017		33.203125
5018		37.109375
5019		35.156250
5020		41.015625
5021		39.062500
5022		42.968750
5023		41.015625
5024		44.921875
5025		42.968750
5026		46.875000
5027		46.875000
5028		50.781250
5029		48.828125
5030		52.734375
5031		50.781250
5032		54.687500
5033		52.734375
5034		58.593750
5035		54.687500
5036		58.593750
5037		56.640625
5038		62.500000
5039		60.546875
5040		64.453125
5041		62.500000
5042		66.406250
5043		64.453125
5044		68.359375
5045		66.406250
5046		70.312500
5047		68.359375
5048		72.265625
5049		70.312500
5050		74.218750
5051		72.265625
5052		76.171875
5053		74.218750
5054		78.125000
5055		76.171875
5056		78.125000
5057		78.125000
5058		82.031250
5059		78.125000
5060		82.031250
5061		80.078125
5062		83.984375
5063		82.031250
5064		85.937500
5065		82.031250
5066		85.937500
5067		83.984375
5068		87.890625
5069		85.937500
5070		89.843750
5071		87.890625
5072		89.843750
5073		87.890625
5074		91.796875
5075		89.843750
5076		91.796875
5077		89.843750
5078		93.750000
5079		91.796875
5080		93.750000
5081		91.796875
5082		95.703125
5083		93.750000
5084		95.703125
5085		93.750000
5086		97.656250
5087		93.750000
5088		97.656250
5089		95.703125
5090		97.656250
5091		95.703125
5092		99.609375
5093		95.703125
5094		99.609375
5095		97.656250
5096		99.609375
5097		97.656250
5098		99.609375
5099		97.656250
5100		99.609375
5101		97.656250
5102		99.609375
5103		97.656250
5104		99.609375
5105		97.656250
5106		101.562500
5107		97.656250
5108		101.562500
5109		97.656250
5110		99.609375
5111		97.656250
5112		101.562500
5113		97.656250
5114		99.609375
5115		95.703125
5116		101.562500
5117		95.703125
5118		99.609375
5119		95.703125
5120		99.609375
5121		95.703125
5122		99.609375
5123		95.703125
5124		97.656250
5125		95.703125
5126		97.656250
5127		93.750000
5128		97.656250
5129		93.750000
5130		97.656250
5131		91.796875
5132		95.703125
5133		91.796875
5134		95.703125
5135		89.843750
5136		93.750000
5137		89.843750
5138		93.750000
5139		87.890625
5140		91.796875
5141		87.890625
5142		91.796875
5143		85.937500
5144		89.843750
5145		85.937500
5146		87.890625
5147		83.984375
5148		87.890625
5149		82.031250
5150		85.937500
5151		80.078125
5152		83.984375
5153		80.078125
5154		83.984375
5155		78.125000
5156		80.078125
5157		76.171875
5158		80.078125
5159		74.218750
5160		78.125000
5161		72.265625
5162		76.171875
5163		70.312500
5164		74.218750
5165		68.359375
5166		72.265625
5167		66.406250
5168		70.312500
5169		64.453125
5170		68.359375
5171		62.500000
5172		66.406250
5173		60.546875
5174		64.453125
5175		58.593750
5176		62.500000
5177		54.687500
5178		60.546875
5179		52.734375
5180		58.593750
5181		50.781250
5182		54.687500
5183		48.828125
5184		52.734375
5185		44.921875
5186		50.781250
5187		42.968750
5188		46.875000
5189		41.015625
5190		44.921875
5191		37.109375
5192		42.968750
5193		35.156250
5194		39.062500
5195		33.203125
5196		37.109375
5197		29.296875
5198		35.156250
5199		27.343750
5200		31.250000
5201		23.437500
5202		29.296875
5203		21.484375
5204		25.390625
5205		17.578125
5206		23.437500
5207		15.625000
5208		19.531250
5209		11.718750
5210		17.578125
5211		9.765625
5212		13.671875
5213		5.859375
5214		11.718750
5215		3.906250
5216		7.812500
5217		0.000000
5218		3.906250
5219		-3.906250
5220		1.953125
5221		-5.859375
5222		0.000000
5223		-9.765625
5224		-3.906250
5225		-11.718750
5226		-7.812500
5227		-15.625000
5228		-9.765625
5229		-19.531250
5230		-13.671875
5231		-21.484375
5232		-17.578125
5233		-25.390625
5234		-19.531250
5235		-29.296875
5236		-23.437500
5237		-31.250000
5238		-27.343750
5239		-35.156250
5240		-29.296875
5241		-37.109375
5242		-33.203125
5243		-41.015625
5244		-35.156250
5245		-44.921875
5246		-39.062500
5247		-46.875000
5248		-41.015625
5249		-50.781250
5250		-44.921875
5251		-52.734375
5252		-48.828125
5253		-56.640625
5254		-50.781250
5255		-60.546875
5256		-54.687500
5257		-62.500000
5258		-56.640625
5259		-64.453125
5260		-60.546875
5261		-68.359375
5262		-62.500000
5263		-70.312500
5264		-66.406250
5265		-74.218750
5266		-68.359375
5267		-76.171875
5268		-72.265625
5269		-80.078125
5270		-74.218750
5271		-82.031250
5272		-78.125000
5273		-85.937500
5274		-80.078125
5275		-87.890625
5276		-83.984375
5277		-89.843750
5278		-85.937500
5279		-93.750000
5280		-87.890625
5281		-95.703125
5282		-91.796875
5283		-97.656250
5284		-93.750000
5285		-99.609375
5286		-95.703125
5287		-103.515625
5288		-97.656250
5289		-105.468750
5290		-101.562500
5291		-107.421875
5292		-103.515625
5293		-109.375000
5294		-105.468750
5295		-111.328125
5296		-107.421875
5297		-113.281250
5298		-109.375000
5299		-115.234375
5300		-111.328125
5301		-117.187500
5302		-113.281250
5303		-119.140625
5304		-115.234375
5305		-121.093750
5306		-117.187500
5307		-123.046875
5308		-119.140625
5309		-123.046875
5310		-119.140625
5311		-125.000000
5312		-121.093750
5313		-126.953125
5314		-123.046875
5315		-126.953125
5316		-123.046875
5317		-128.906250
5318		-125.000000
5319		-130.859375
5320		-126.953125
5321		-130.859375
5322		-126.953125
5323		-132.812500
5324		-128.906250
5325		-132.812500
5326		-128.906250
5327		-132.812500
5328		-130.859375
5329		-134.765625
5330		-130.859375
5331		-134.765625
5332		-130.859375
5333		-134.765625
5334		-132.812500
5335		-134.765625
5336		-132.812500
5337		-134.765625
5338		-132.812500
5339		-136.718750
5340		-132.812500
5341		-136.718750
5342		-132.812500
5343		-136.718750
5344		-132.812500
5345		-136.718750
5346		-132.812500
5347		-136.718750
5348		-132.812500
5349		-134.765625
5350		-132.812500
5351		-134.765625
5352		-132.812500
5353		-134.765625
5354		-130.859375
5355		-134.765625
5356		-130.859375
5357		-132.812500
5358		-130.859375
5359		-132.812500
5360		-128.906250
5361		-132.812500
5362		-128.906250
5363		-130.859375
5364		-126.953125
5365		-130.859375
5366		-126.953125
5367		-128.906250
5368		-125.000000
5369		-128.906250
5370		-125.000000
5371		-126.953125
5372		-123.046875
5373		-125.000000
5374		-121.093750
5375		-123.046875
5376		-119.140625
5377		-123.046875
5378		-119.140625
5379		-121.093750
5380		-117.187500
5381		-119.140625
5382		-115.234375
5383		-117.187500
5384		-113.281250
5385		-115.234375
5386		-111.328125
5387		-113.281250
5388		-109.375000
5389		-111.328125
5390		-107.421875
5391		-109.375000
5392		-105.468750
5393		-107.421875
5394		-101.562500
5395		-105.468750
5396		-99.609375
5397		-101.562500
5398		-97.656250
5399		-99.609375
5400		-95.703125
5401		-97.656250
5402		-93.750000
5403		-95.703125
5404		-91.796875
5405		-91.796875
5406		-87.890625
5407		-89.843750
5408		-83.984375
5409		-87.890625
5410		-82.031250
5411		-83.984375
5412		-80.078125
5413		-82.031250
5414		-76.171875
5415		-78.125000
5416		-74.218750
5417		-76.171875
5418		-70.312500
5419		-74.218750
5420		-68.359375
5421		-70.312500
5422		-66.406250
5423		-66.406250
5424		-62.500000
5425		-64.453125
5426		-58.593750
5427		-62.500000
5428		-56.640625
5429		-58.593750
5430		-52.734375
5431		-54.687500
5432		-50.781250
5433		-52.734375
5434		-46.875000
5435		-48.828125
5436		-42.968750
5437		-44.921875
5438		-41.015625
5439		-42.968750
5440		-37.109375
5441		-39.062500
5442		-35.156250
5443		-37.109375
5444		-31.250000
5445		-33.203125
5446		-27.343750
5447		-29.296875
5448		-25.390625
5449		-27.343750
5450		-21.484375
5451		-23.437500
5452		-17.578125
5453		-19.531250
5454		-15.625000
5455		-17.578125
5456		-11.718750
5457		-13.671875
5458		-9.765625
5459		-9.765625
5460		-5.859375
5461		-7.812500
5462		-1.953125
5463		-3.906250
5464		0.000000
5465		0.000000
5466		3.906250
5467		1.953125
5468		5.859375
5469		3.906250
5470		9.765625
5471		7.812500
5472		11.718750
5473		9.765625
5474		15.625000
5475		13.671875
5476		19.531250
5477		17.578125
5478		21.484375
5479		19.531250
5480		25.390625
5481		23.437500
5482		27.343750
5483		25.390625
5484		29.296875
5485		27.343750
5486		33.203125
5487		31.250000
5488		35.156250
5489		33.203125
5490		39.062500
5491		37.109375
5492		41.015625
5493		39.062500
5494		42.968750
5495		41.015625
5496		46.875000
5497		44.921875
5498		48.828125
5499		46.875000
5500		50.781250
5501		48.828125
5502		52.734375
5503		50.781250
5504		56.640625
5505		54.687500
5506		58.593750
5507		56.640625
5508		60.546875
5509		58.593750
5510		62.500000
5511		60.546875
5512		64.453125
5513		62.500000
5514		66.406250
5515		64.453125
5516		68.359375
5517		66.406250
5518		70.312500
5519		68.359375
5520		72.265625
5521		70.312500
5522		74.218750
5523		72.265625
5524		76.171875
5525		74.218750
5526		78.125000
5527		76.171875
5528		80.078125
5529		78.125000
5530		82.031250
5531		80.078125
5532		83.984375
5533		82.031250
5534		83.984375
5535		82.031250
5536		85.937500
5537		83.984375
5538		87.890625
5539		85.937500
5540		89.843750
5541		85.937500
5542		89.843750
5543		87.890625
5544		91.796875
5545		89.843750
5546		91.796875
5547		89.843750
5548		93.750000
5549		89.843750
5550		93.750000
5551		91.796875
5552		95.703125
5553		93.750000
5554		95.703125
5555		93.750000
5556		95.703125
5557		93.750000
5558		97.656250
5559		95.703125
5560		97.656250
5561		95.703125
5562		99.609375
5563		95.703125
5564		99.609375
5565		97.656250
5566		99.609375
5567		97.656250
5568		99.609375
5569		97.656250
5570		101.562500
5571		97.656250
5572		101.562500
5573		97.656250
5574		101.562500
5575		97.656250
5576		101.562500
5577		97.656250
5578		101.562500
5579		97.656250
5580		101.562500
5581		97.656250
5582		101.562500
5583		97.656250
5584		101.562500
5585		97.656250
5586		101.562500
5587		97.656250
5588		101.562500
5589		97.656250
5590		99.609375
5591		97.656250
5592		99.609375
5593		97.656250
5594		99.609375
5595		95.703125
5596		99.609375
5597		95.703125
5598		97.656250
5599		95.703125
5600		97.656250
5601		93.750000
5602		97.656250
5603		93.750000
5604		95.703125
5605		91.796875
5606		95.703125
5607		91.796875
5608		95.703125
5609		89.843750
5610		93.750000
5611		89.843750
5612		91.796875
5613		87.890625
5614		91.796875
5615		85.937500
5616		89.843750
5617		85.937500
5618		87.890625
5619		83.984375
5620		87.890625
5621		82.031250
5622		85.937500
5623		82.031250
5624		83.984375
5625		80.078125
5626		83.984375
5627		78.125000
5628		82.031250
5629		76.171875
5630		80.078125
5631		74.218750
5632		78.125000
5633		72.265625
5634		76.171875
5635		70.312500
5636		74.218750
5637		68.359375
5638		72.265625
5639		66.406250
5640		70.312500
5641		64.453125
5642		68.359375
5643		62.500000
5644		66.406250
5645		60.546875
5646		64.453125
5647		58.593750
5648		62.500000
5649		54.687500
5650		58.593750
5651		52.734375
5652		58.593750
5653		50.781250
5654		54.687500
5655		48.828125
5656		52.734375
5657		44.921875
5658		50.781250
5659		42.968750
5660		46.875000
5661		41.015625
5662		44.921875
5663		37.109375
5664		42.968750
5665		35.156250
5666		39.062500
5667		33.203125
5668		37.109375
5669		29.296875
5670		33.203125
5671		27.343750
5672		31.250000
5673		23.437500
5674		29.296875
5675		21.484375
5676		25.390625
5677		17.578125
5678		23.437500
5679		15.625000
5680		19.531250
5681		11.718750
5682		17.578125
5683		9.765625
5684		13.671875
5685		5.859375
5686		9.765625
5687		3.906250
5688		7.812500
5689		0.000000
5690		3.906250
5691		-3.906250
5692		1.953125
5693		-5.859375
5694		-1.953125
5695		-9.765625
5696		-3.906250
5697		-11.718750
5698		-7.812500
5699		-15.625000
5700		-11.718750
5701		-19.531250
5702		-13.671875
5703		-21.484375
5704		-17.578125
5705		-25.390625
5706		-19.531250
5707		-29.296875
5708		-23.437500
5709		-31.250000
5710		-27.343750
5711		-35.156250
5712		-29.296875
5713		-39.062500
5714		-33.203125
5715		-41.015625
5716		-37.109375
5717		-44.921875
5718		-39.062500
5719		-46.875000
5720		-42.968750
5721		-50.781250
5722		-44.921875
5723		-52.734375
5724		-48.828125
5725		-56.640625
5726		-50.781250
5727		-58.593750
5728		-54.687500
5729		-62.500000
5730		-56.640625
5731		-64.453125
5732		-60.546875
5733		-68.359375
5734		-62.500000
5735		-72.265625
5736		-66.406250
5737		-74.218750
5738		-68.359375
5739		-76.171875
5740		-72.265625
5741		-80.078125
5742		-74.218750
5743		-82.031250
5744		-78.125000
5745		-85.937500
5746		-80.078125
5747		-87.890625
5748		-83.984375
5749		-89.843750
5750		-85.937500
5751		-91.796875
5752		-87.890625
5753		-95.703125
5754		-89.843750
5755		-97.656250
5756		-93.750000
5757		-99.609375
5758		-95.703125
5759		-101.562500
5760		-97.656250
5761		-103.515625
5762		-99.609375
5763		-105.468750
5764		-101.562500
5765		-107.421875
5766		-105.468750
5767		-111.328125
5768		-107.421875
5769		-113.281250
5770		-107.421875
5771		-113.281250
5772		-109.375000
5773		-115.234375
5774		-113.281250
5775		-117.187500
5776		-113.281250
5777		-119.140625
5778		-115.234375
5779		-121.093750
5780		-117.187500
5781		-123.046875
5782		-119.140625
5783		-123.046875
5784		-121.093750
5785		-125.000000
5786		-121.093750
5787		-126.953125
5788		-123.046875
5789		-126.953125
5790		-125.000000
5791		-128.906250
5792		-125.000000
5793		-128.906250
5794		-126.953125
5795		-130.859375
5796		-126.953125
5797		-130.859375
5798		-126.953125
5799		-132.812500
5800		-128.906250
5801		-132.812500
5802		-128.906250
5803		-132.812500
5804		-130.859375
5805		-132.812500
5806		-130.859375
5807		-134.765625
5808		-130.859375
5809		-134.765625
5810		-130.859375
5811		-136.718750
5812		-128.906250
5813		-134.765625
5814		-130.859375
5815		-134.765625
5816		-130.859375
5817		-136.718750
5818		-128.906250
5819		-132.812500
5820		-130.859375
5821		-132.812500
5822		-130.859375
5823		-132.812500
5824		-130.859375
5825		-132.812500
5826		-128.906250
5827		-132.812500
5828		-128.906250
5829		-132.812500
5830		-126.953125
5831		-130.859375
5832		-126.953125
5833		-130.859375
5834		-125.000000
5835		-128.906250
5836		-125.000000
5837		-128.906250
5838		-123.046875
5839		-126.953125
5840		-123.046875
5841		-125.000000
5842		-121.093750
5843		-125.000000
5844		-121.093750
5845		-123.046875
5846		-119.140625
5847		-121.093750
5848		-117.187500
5849		-119.140625
5850		-115.234375
5851		-119.140625
5852		-115.234375
5853		-117.187500
5854		-109.375000
5855		-115.234375
5856		-109.375000
5857		-113.281250
5858		-109.375000
5859		-111.328125
5860		-105.468750
5861		-109.375000
5862		-103.515625
5863		-109.375000
5864		-101.562500
5865		-105.468750
5866		-99.609375
5867		-103.515625
5868		-97.656250
5869		-99.609375
5870		-95.703125
5871		-99.609375
5872		-91.796875
5873		-93.750000
5874		-89.843750
5875		-91.796875
5876		-85.937500
5877		-91.796875
5878		-82.031250
5879		-87.890625
5880		-82.031250
5881		-83.984375
5882		-78.125000
5883		-82.031250
5884		-76.171875
5885		-78.125000
5886		-74.218750
5887		-76.171875
5888		-70.312500
5889		-74.218750
5890		-68.359375
5891		-70.312500
5892		-66.406250
5893		-68.359375
5894		-60.546875
5895		-66.406250
5896		-58.593750
5897		-62.500000
5898		-56.640625
5899		-58.593750
5900		-52.734375
5901		-58.593750
5902		-46.875000
5903		-52.734375
5904		-42.968750
5905		-48.828125
5906		-44.921875
5907		-44.921875
5908		-41.015625
5909		-42.968750
5910		-35.156250
5911		-41.015625
5912		-33.203125
5913		-37.109375
5914		-31.250000
5915		-33.203125
5916		-27.343750
5917		-31.250000
5918		-21.484375
5919		-31.250000
5920		-21.484375
5921		-25.390625
5922		-17.578125
5923		-19.531250
5924		-15.625000
5925		-17.578125
5926		-9.765625
5927		-15.625000
5928		-5.859375
5929		-13.671875
5930		-3.906250
5931		-7.812500
5932		-1.953125
5933		-3.906250
5934		1.953125
5935		-3.906250
5936		5.859375
5937		1.953125
5938		9.765625
5939		3.906250
5940		9.765625
5941		7.812500
5942		11.718750
5943		9.765625
5944		17.578125
5945		11.718750
5946		19.531250
5947		15.625000
5948		21.484375
5949		19.531250
5950		25.390625
5951		21.484375
5952		29.296875
5953		21.484375
5954		31.250000
5955		25.390625
5956		35.156250
5957		31.250000
5958		35.156250
5959		33.203125
5960		39.062500
5961		35.156250
5962		42.968750
5963		39.062500
5964		44.921875
5965		41.015625
5966		46.875000
5967		44.921875
5968		50.781250
5969		44.921875
5970		52.734375
5971		48.828125
5972		56.640625
5973		52.734375
5974		56.640625
5975		54.687500
5976		58.593750
5977		54.687500
5978		62.500000
5979		54.687500
5980		64.453125
5981		60.546875
5982		64.453125
5983		62.500000
5984		66.406250
5985		62.500000
5986		72.265625
5987		66.406250
5988		74.218750
5989		68.359375
5990		72.265625
5991		70.312500
5992		74.218750
5993		72.265625
5994		78.125000
5995		72.265625
5996		82.031250
5997		74.218750
5998		80.078125
5999		78.125000
6000		82.031250
6001		78.125000
6002		87.890625
6003		78.125000
6004		87.890625
6005		80.078125
6006		89.843750
6007		83.984375
6008		87.890625
6009		85.937500
6010		89.843750
6011		85.937500
6012		93.750000
6013		85.937500
6014		93.750000
6015		87.890625
6016		91.796875
6017		89.843750
6018		93.750000
6019		87.890625
6020		97.656250
6021		89.843750
6022		97.656250
6023		93.750000
6024		97.656250
6025		93.750000
6026		97.656250
6027		93.750000
6028		99.609375
6029		93.750000
6030		101.562500
6031		95.703125
6032		101.562500
6033		97.656250
6034		99.609375
6035		95.703125
6036		103.515625
6037		95.703125
6038		101.562500
6039		97.656250
6040		103.515625
6041		97.656250
6042		101.562500
6043		99.609375
6044		103.515625
6045		95.703125
6046		105.468750
6047		97.656250
6048		103.515625
6049		99.609375
6050		101.562500
6051		97.656250
6052		103.515625
6053		95.703125
6054		105.468750
6055		97.656250
6056		103.515625
6057		97.656250
6058		101.562500
6059		99.609375
6060		101.562500
6061		97.656250
6062		101.562500
6063		95.703125
6064		103.515625
6065		97.656250
6066		101.562500
6067		95.703125
6068		99.609375
6069		93.750000
6070		101.562500
6071		91.796875
6072		101.562500
6073		93.750000
6074		97.656250
6075		93.750000
6076		97.656250
6077		91.796875
6078		95.703125
6079		89.843750
6080		97.656250
6081		87.890625
6082		95.703125
6083		89.843750
6084		91.796875
6085		85.937500
6086		91.796875
6087		85.937500
6088		91.796875
6089		83.984375
6090		91.796875
6091		83.984375
6092		87.890625
6093		82.031250
6094		85.937500
6095		80.078125
6096		83.984375
6097		78.125000
6098		85.937500
6099		78.125000
6100		82.031250
6101		76.171875
6102		80.078125
6103		74.218750
6104		80.078125
6105		72.265625
6106		76.171875
6107		70.312500
6108		74.218750
6109		68.359375
6110		72.265625
6111		66.406250
6112		70.312500
6113		64.453125
6114		68.359375
6115		62.500000
6116		68.359375
6117		60.546875
6118		64.453125
6119		56.640625
6120		62.500000
6121		54.687500
6122		60.546875
6123		52.734375
6124		58.593750
6125		50.781250
6126		54.687500
6127		46.875000
6128		52.734375
6129		44.921875
6130		50.781250
6131		42.968750
6132		46.875000
6133		41.015625
6134		44.921875
6135		37.109375
6136		42.968750
6137		35.156250
6138		39.062500
6139		31.250000
6140		37.109375
6141		29.296875
6142		33.203125
6143		27.343750
6144		31.250000
6145		23.437500
6146		29.296875
6147		19.531250
6148		25.390625
6149		17.578125
6150		23.437500
6151		15.625000
6152		19.531250
6153		11.718750
6154		17.578125
6155		9.765625
6156		13.671875
6157		5.859375
6158		11.718750
6159		1.953125
6160		7.812500
6161		-1.953125
6162		3.906250
6163		-3.906250
6164		1.953125
6165		-7.812500
6166		-1.953125
6167		-11.718750
6168		-3.906250
6169		-13.671875
6170		-5.859375
6171		-15.625000
6172		-9.765625
6173		-19.531250
6174		-13.671875
6175		-23.437500
6176		-17.578125
6177		-25.390625
6178		-19.531250
6179		-29.296875
6180		-23.437500
6181		-33.203125
6182		-25.390625
6183		-39.062500
6184		-29.296875
6185		-39.062500
6186		-31.250000
6187		-42.968750
6188		-35.156250
6189		-44.921875
6190		-39.062500
6191		-46.875000
6192		-42.968750
6193		-50.781250
6194		-44.921875
6195		-54.687500
6196		-48.828125
6197		-58.593750
6198		-50.781250
6199		-60.546875
6200		-54.687500
6201		-62.500000
6202		-56.640625
6203		-66.406250
6204		-58.593750
6205		-70.312500
6206		-62.500000
6207		-72.265625
6208		-66.406250
6209		-74.218750
6210		-70.312500
6211		-78.125000
6212		-72.265625
6213		-80.078125
6214		-74.218750
6215		-83.984375
6216		-76.171875
6217		-85.937500
6218		-80.078125
6219		-89.843750
6220		-82.031250
6221		-91.796875
6222		-83.984375
6223		-93.750000
6224		-87.890625
6225		-95.703125
6226		-89.843750
6227		-97.656250
6228		-93.750000
6229		-101.562500
6230		-93.750000
6231		-103.515625
6232		-97.656250
6233		-105.468750
6234		-99.609375
6235		-107.421875
6236		-101.562500
6237		-109.375000
6238		-105.468750
6239		-111.328125
6240		-105.468750
6241		-113.281250
6242		-107.421875
6243		-115.234375
6244		-109.375000
6245		-117.187500
6246		-111.328125
6247		-119.140625
6248		-113.281250
6249		-121.093750
6250		-115.234375
6251		-123.046875
6252		-117.187500
6253		-123.046875
6254		-117.187500
6255		-125.000000
6256		-119.140625
6257		-125.000000
6258		-121.093750
6259		-126.953125
6260		-123.046875
6261		-126.953125
6262		-123.046875
6263		-128.906250
6264		-123.046875
6265		-130.859375
6266		-125.000000
6267		-130.859375
6268		-126.953125
6269		-132.812500
6270		-126.953125
6271		-132.812500
6272		-126.953125
6273		-132.812500
6274		-128.906250
6275		-132.812500
6276		-128.906250
6277		-132.812500
6278		-130.859375
6279		-134.765625
6280		-130.859375
6281		-134.765625
6282		-130.859375
6283		-134.765625
6284		-130.859375
6285		-134.765625
6286		-128.906250
6287		-134.765625
6288		-130.859375
6289		-134.765625
6290		-130.859375
6291		-134.765625
6292		-130.859375
6293		-132.812500
6294		-130.859375
6295		-132.812500
6296		-128.906250
6297		-132.812500
6298		-128.906250
6299		-130.859375
6300		-128.906250
6301		-132.812500
6302		-125.000000
6303		-130.859375
6304		-126.953125
6305		-128.906250
6306		-125.000000
6307		-128.906250
6308		-123.046875
6309		-126.953125
6310		-123.046875
6311		-126.953125
6312		-121.093750
6313		-125.000000
6314		-121.093750
6315		-123.046875
6316		-119.140625
6317		-121.093750
6318		-117.187500
6319		-123.046875
6320		-115.234375
6321		-119.140625
6322		-115.234375
6323		-117.187500
6324		-113.281250
6325		-115.234375
6326		-111.328125
6327		-113.281250
6328		-109.375000
6329		-111.328125
6330		-107.421875
6331		-109.375000
6332		-105.468750
6333		-107.421875
6334		-101.562500
6335		-105.468750
6336		-99.609375
6337		-103.515625
6338		-99.609375
6339		-101.562500
6340		-95.703125
6341		-97.656250
6342		-93.750000
6343		-95.703125
6344		-91.796875
6345		-93.750000
6346		-87.890625
6347		-91.796875
6348		-85.937500
6349		-87.890625
6350		-83.984375
6351		-85.937500
6352		-80.078125
6353		-83.984375
6354		-78.125000
6355		-80.078125
6356		-76.171875
6357		-78.125000
6358		-72.265625
6359		-76.171875
6360		-70.312500
6361		-72.265625
6362		-66.406250
6363		-68.359375
6364		-64.453125
6365		-66.406250
6366		-60.546875
6367		-62.500000
6368		-58.593750
6369		-60.546875
6370		-54.687500
6371		-56.640625
6372		-50.781250
6373		-54.687500
6374		-48.828125
6375		-50.781250
6376		-44.921875
6377		-46.875000
6378		-41.015625
6379		-44.921875
6380		-39.062500
6381		-41.015625
6382		-35.156250
6383		-37.109375
6384		-33.203125
6385		-35.156250
6386		-27.343750
6387		-31.250000
6388		-25.390625
6389		-29.296875
6390		-23.437500
6391		-25.390625
6392		-19.531250
6393		-21.484375
6394		-17.578125
6395		-19.531250
6396		-13.671875
6397		-15.625000
6398		-11.718750
6399		-11.718750
6400		-7.812500
6401		-9.765625
6402		-3.906250
6403		-7.812500
6404		-1.953125
6405		-3.906250
6406		1.953125
6407		0.000000
6408		5.859375
6409		1.953125
6410		7.812500
6411		5.859375
6412		11.718750
6413		9.765625
6414		15.625000
6415		11.718750
6416		17.578125
6417		15.625000
6418		19.531250
6419		17.578125
6420		23.437500
6421		19.531250
6422		27.343750
6423		23.437500
6424		29.296875
6425		25.390625
6426		31.250000
6427		29.296875
6428		33.203125
6429		33.203125
6430		37.109375
6431		35.156250
6432		39.062500
6433		37.109375
6434		42.968750
6435		41.015625
6436		44.921875
6437		42.968750
6438		48.828125
6439		44.921875
6440		50.781250
6441		46.875000
6442		52.734375
6443		48.828125
6444		54.687500
6445		52.734375
6446		56.640625
6447		54.687500
6448		60.546875
6449		56.640625
6450		62.500000
6451		60.546875
6452		64.453125
6453		62.500000
6454		66.406250
6455		64.453125
6456		68.359375
6457		66.406250
6458		70.312500
6459		68.359375
6460		72.265625
6461		70.312500
6462		74.218750
6463		72.265625
6464		76.171875
6465		74.218750
6466		78.125000
6467		76.171875
6468		80.078125
6469		78.125000
6470		82.031250
6471		78.125000
6472		82.031250
6473		80.078125
6474		83.984375
6475		82.031250
6476		85.937500
6477		83.984375
6478		87.890625
6479		83.984375
6480		87.890625
6481		85.937500
6482		89.843750
6483		87.890625
6484		91.796875
6485		87.890625
6486		93.750000
6487		89.843750
6488		93.750000
6489		91.796875
6490		95.703125
6491		91.796875
6492		95.703125
6493		91.796875
6494		95.703125
6495		93.750000
6496		97.656250
6497		95.703125
6498		99.609375
6499		95.703125
6500		99.609375
6501		95.703125
6502		99.609375
6503		95.703125
6504		101.562500
6505		97.656250
6506		101.562500
6507		97.656250
6508		101.562500
6509		97.656250
6510		101.562500
6511		97.656250
6512		101.562500
6513		99.609375
6514		101.562500
6515		99.609375
6516		101.562500
6517		99.609375
6518		103.515625
6519		97.656250
6520		101.562500
6521		99.609375
6522		101.562500
6523		99.609375
6524		103.515625
6525		99.609375
6526		101.562500
6527		99.609375
6528		103.515625
6529		99.609375
6530		101.562500
6531		97.656250
6532		101.562500
6533		97.656250
6534		101.562500
6535		97.656250
6536		101.562500
6537		95.703125
6538		101.562500
6539		97.656250
6540		99.609375
6541		95.703125
6542		99.609375
6543		95.703125
6544		99.609375
6545		93.750000
6546		97.656250
6547		91.796875
6548		97.656250
6549		91.796875
6550		95.703125
6551		91.796875
6552		95.703125
6553		89.843750
6554		93.750000
6555		89.843750
6556		91.796875
6557		87.890625
6558		91.796875
6559		85.937500
6560		89.843750
6561		85.937500
6562		89.843750
6563		83.984375
6564		87.890625
6565		82.031250
6566		87.890625
6567		82.031250
6568		83.984375
6569		78.125000
6570		83.984375
6571		76.171875
6572		82.031250
6573		76.171875
6574		80.078125
6575		74.218750
6576		78.125000
6577		72.265625
6578		76.171875
6579		70.312500
6580		74.218750
6581		68.359375
6582		72.265625
6583		66.406250
6584		70.312500
6585		62.500000
6586		68.359375
6587		62.500000
6588		66.406250
6589		58.593750
6590		64.453125
6591		56.640625
6592		60.546875
6593		54.687500
6594		58.593750
6595		52.734375
6596		56.640625
6597		48.828125
6598		54.687500
6599		46.875000
6600		52.734375
6601		44.921875
6602		48.828125
6603		41.015625
6604		46.875000
6605		39.062500
6606		44.921875
6607		37.109375
6608		41.015625
6609		33.203125
6610		39.062500
6611		31.250000
6612		37.109375
6613		29.296875
6614		33.203125
6615		25.390625
6616		31.250000
6617		21.484375
6618		27.343750
6619		19.531250
6620		25.390625
6621		17.578125
6622		23.437500
6623		13.671875
6624		19.531250
6625		9.765625
6626		15.625000
6627		7.812500
6628		13.671875
6629		5.859375
6630		9.765625
6631		0.000000
6632		7.812500
6633		-1.953125
6634		3.906250
6635		-3.906250
6636		0.000000
6637		-7.812500
6638		-1.953125
6639		-11.718750
6640		-5.859375
6641		-13.671875
6642		-9.765625
6643		-17.578125
6644		-11.718750
6645		-19.531250
6646		-15.625000
6647		-23.437500
6648		-17.578125
6649		-27.343750
6650		-21.484375
6651		-29.296875
6652		-23.437500
6653		-33.203125
6654		-27.343750
6655		-35.156250
6656		-31.250000
6657		-39.062500
6658		-33.203125
6659		-42.968750
6660		-37.109375
6661		-44.921875
6662		-41.015625
6663		-48.828125
6664		-42.968750
6665		-52.734375
6666		-46.875000
6667		-54.687500
6668		-48.828125
6669		-58.593750
6670		-52.734375
6671		-60.546875
6672		-56.640625
6673		-64.453125
6674		-58.593750
6675		-66.406250
6676		-62.500000
6677		-68.359375
6678		-64.453125
6679		-72.265625
6680		-66.406250
6681		-74.218750
6682		-70.312500
6683		-78.125000
6684		-72.265625
6685		-80.078125
6686		-76.171875
6687		-83.984375
6688		-78.125000
6689		-85.937500
6690		-82.031250
6691		-87.890625
6692		-83.984375
6693		-91.796875
6694		-85.937500
6695		-93.750000
6696		-89.843750
6697		-95.703125
6698		-91.796875
6699		-99.609375
6700		-93.750000
6701		-101.562500
6702		-95.703125
6703		-101.562500
6704		-97.656250
6705		-105.468750
6706		-99.609375
6707		-107.421875
6708		-103.515625
6709		-109.375000
6710		-105.468750
6711		-111.328125
6712		-107.421875
6713		-113.281250
6714		-109.375000
6715		-115.234375
6716		-111.328125
6717		-117.187500
6718		-113.281250
6719		-119.140625
6720		-113.281250
6721		-119.140625
6722		-115.234375
6723		-121.093750
6724		-117.187500
6725		-123.046875
6726		-119.140625
6727		-125.000000
6728		-121.093750
6729		-126.953125
6730		-121.093750
6731		-126.953125
6732		-123.046875
6733		-126.953125
6734		-123.046875
6735		-128.906250
6736		-125.000000
6737		-128.906250
6738		-125.000000
6739		-130.859375
6740		-126.953125
6741		-130.859375
6742		-126.953125
6743		-130.859375
6744		-128.906250
6745		-132.812500
6746		-128.906250
6747		-132.812500
6748		-128.906250
6749		-132.812500
6750		-128.906250
6751		-132.812500
6752		-128.906250
6753		-132.812500
6754		-130.859375
6755		-132.812500
6756		-130.859375
6757		-134.765625
6758		-128.906250
6759		-132.812500
6760		-130.859375
6761		-132.812500
6762		-130.859375
6763		-132.812500
6764		-128.906250
6765		-132.812500
6766		-128.906250
6767		-132.812500
6768		-128.906250
6769		-130.859375
6770		-128.906250
6771		-130.859375
6772		-126.953125
6773		-130.859375
6774		-126.953125
6775		-128.906250
6776		-125.000000
6777		-128.906250
6778		-125.000000
6779		-128.906250
6780		-123.046875
6781		-126.953125
6782		-123.046875
6783		-125.000000
6784		-121.093750
6785		-123.046875
6786		-119.140625
6787		-123.046875
6788		-119.140625
6789		-121.093750
6790		-117.187500
6791		-119.140625
6792		-115.234375
6793		-119.140625
6794		-113.281250
6795		-115.234375
6796		-111.328125
6797		-113.281250
6798		-109.375000
6799		-111.328125
6800		-107.421875
6801		-109.375000
6802		-105.468750
6803		-109.375000
6804		-103.515625
6805		-105.468750
6806		-101.562500
6807		-103.515625
6808		-99.609375
6809		-101.562500
6810		-95.703125
6811		-99.609375
6812		-93.750000
6813		-97.656250
6814		-91.796875
6815		-93.750000
6816		-89.843750
6817		-91.796875
6818		-87.890625
6819		-89.843750
6820		-83.984375
6821		-85.937500
6822		-82.031250
6823		-83.984375
6824		-80.078125
6825		-82.031250
6826		-76.171875
6827		-78.125000
6828		-74.218750
6829		-76.171875
6830		-70.312500
6831		-72.265625
6832		-68.359375
6833		-70.312500
6834		-64.453125
6835		-68.359375
6836		-62.500000
6837		-64.453125
6838		-58.593750
6839		-60.546875
6840		-54.687500
6841		-58.593750
6842		-52.734375
6843		-54.687500
6844		-50.781250
6845		-52.734375
6846		-46.875000
6847		-48.828125
6848		-44.921875
6849		-44.921875
6850		-41.015625
6851		-42.968750
6852		-37.109375
6853		-39.062500
6854		-35.156250
6855		-37.109375
6856		-31.250000
6857		-33.203125
6858		-27.343750
6859		-31.250000
6860		-25.390625
6861		-27.343750
6862		-21.484375
6863		-23.437500
6864		-17.578125
6865		-19.531250
6866		-15.625000
6867		-17.578125
6868		-11.718750
6869		-13.671875
6870		-9.765625
6871		-11.718750
6872		-5.859375
6873		-7.812500
6874		-1.953125
6875		-5.859375
6876		0.000000
6877		-1.953125
6878		3.906250
6879		1.953125
6880		7.812500
6881		3.906250
6882		9.765625
6883		7.812500
6884		11.718750
6885		9.765625
6886		15.625000
6887		13.671875
6888		19.531250
6889		17.578125
6890		21.484375
6891		19.531250
6892		25.390625
6893		21.484375
6894		27.343750
6895		25.390625
6896		31.250000
6897		27.343750
6898		33.203125
6899		31.250000
6900		35.156250
6901		33.203125
6902		39.062500
6903		35.156250
6904		41.015625
6905		39.062500
6906		42.968750
6907		41.015625
6908		46.875000
6909		44.921875
6910		48.828125
6911		46.875000
6912		50.781250
6913		48.828125
6914		54.687500
6915		52.734375
6916		56.640625
6917		54.687500
6918		58.593750
6919		56.640625
6920		60.546875
6921		58.593750
6922		62.500000
6923		60.546875
6924		66.406250
6925		62.500000
6926		66.406250
6927		64.453125
6928		68.359375
6929		68.359375
6930		72.265625
6931		68.359375
6932		74.218750
6933		72.265625
6934		74.218750
6935		72.265625
6936		78.125000
6937		74.218750
6938		78.125000
6939		76.171875
6940		80.078125
6941		78.125000
6942		82.031250
6943		80.078125
6944		83.984375
6945		82.031250
6946		85.937500
6947		82.031250
6948		85.937500
6949		83.984375
6950		87.890625
6951		85.937500
6952		89.843750
6953		87.890625
6954		91.796875
6955		87.890625
6956		93.750000
6957		89.843750
6958		93.750000
6959		89.843750
6960		93.750000
6961		91.796875
6962		95.703125
6963		91.796875
6964		97.656250
6965		93.750000
6966		97.656250
6967		93.750000
6968		97.656250
6969		93.750000
6970		99.609375
6971		95.703125
6972		99.609375
6973		97.656250
6974		99.609375
6975		97.656250
6976		101.562500
6977		97.656250
6978		101.562500
6979		99.609375
6980		101.562500
6981		97.656250
6982		101.562500
6983		99.609375
6984		101.562500
6985		99.609375
6986		103.515625
6987		99.609375
6988		103.515625
6989		99.609375
6990		103.515625
6991		99.609375
6992		103.515625
6993		99.609375
6994		103.515625
6995		99.609375
6996		103.515625
6997		99.609375
6998		103.515625
6999		99.609375
7000		103.515625
7001		99.609375
7002		101.562500
7003		99.609375
7004		101.562500
7005		99.609375
7006		101.562500
7007		97.656250
7008		101.562500
7009		97.656250
7010		101.562500
7011		97.656250
7012		99.609375
7013		95.703125
7014		99.609375
7015		95.703125
7016		97.656250
7017		95.703125
7018		97.656250
7019		93.750000
7020		97.656250
7021		91.796875
7022		95.703125
7023		91.796875
7024		95.703125
7025		89.843750
7026		93.750000
7027		89.843750
7028		93.750000
7029		87.890625
7030		91.796875
7031		85.937500
7032		91.796875
7033		85.937500
7034		89.843750
7035		82.031250
7036		87.890625
7037		82.031250
7038		85.937500
7039		80.078125
7040		83.984375
7041		80.078125
7042		83.984375
7043		78.125000
7044		82.031250
7045		76.171875
7046		80.078125
7047		74.218750
7048		78.125000
7049		72.265625
7050		76.171875
7051		70.312500
7052		74.218750
7053		66.406250
7054		72.265625
7055		66.406250
7056		70.312500
7057		64.453125
7058		68.359375
7059		60.546875
7060		66.406250
7061		58.593750
7062		64.453125
7063		56.640625
7064		62.500000
7065		54.687500
7066		60.546875
7067		52.734375
7068		56.640625
7069		48.828125
7070		54.687500
7071		46.875000
7072		52.734375
7073		44.921875
7074		48.828125
7075		41.015625
7076		46.875000
7077		39.062500
7078		44.921875
7079		37.109375
7080		41.015625
7081		33.203125
7082		39.062500
7083		31.250000
7084		37.109375
7085		27.343750
7086		33.203125
7087		25.390625
7088		29.296875
7089		21.484375
7090		27.343750
7091		19.531250
7092		25.390625
7093		15.625000
7094		21.484375
7095		13.671875
7096		19.531250
7097		9.765625
7098		15.625000
7099		7.812500
7100		11.718750
7101		3.906250
7102		9.765625
7103		1.953125
7104		5.859375
7105		-1.953125
7106		3.906250
7107		-3.906250
7108		0.000000
7109		-7.812500
7110		-1.953125
7111		-11.718750
7112		-5.859375
7113		-13.671875
7114		-7.812500
7115		-17.578125
7116		-11.718750
7117		-19.531250
7118		-15.625000
7119		-25.390625
7120		-19.531250
7121		-27.343750
7122		-21.484375
7123		-29.296875
7124		-25.390625
7125		-33.203125
7126		-27.343750
7127		-37.109375
7128		-31.250000
7129		-39.062500
7130		-33.203125
7131		-42.968750
7132		-37.109375
7133		-44.921875
7134		-41.015625
7135		-48.828125
7136		-42.968750
7137		-52.734375
7138		-46.875000
7139		-54.687500
7140		-48.828125
7141		-56.640625
7142		-52.734375
7143		-62.500000
7144		-56.640625
7145		-64.453125
7146		-58.593750
7147		-66.406250
7148		-60.546875
7149		-70.312500
7150		-64.453125
7151		-72.265625
7152		-66.406250
7153		-74.218750
7154		-70.312500
7155		-78.125000
7156		-72.265625
7157		-80.078125
7158		-76.171875
7159		-83.984375
7160		-78.125000
7161		-85.937500
7162		-82.031250
7163		-87.890625
7164		-83.984375
7165		-89.843750
7166		-85.937500
7167		-93.750000
7168		-87.890625
7169		-95.703125
7170		-91.796875
7171		-97.656250
7172		-93.750000
7173		-101.562500
7174		-95.703125
7175		-103.515625
7176		-97.656250
7177		-105.468750
7178		-99.609375
7179		-107.421875
7180		-101.562500
7181		-111.328125
7182		-105.468750
7183		-111.328125
7184		-107.421875
7185		-113.281250
7186		-109.375000
7187		-115.234375
7188		-111.328125
7189		-115.234375
7190		-111.328125
7191		-117.187500
7192		-113.281250
7193		-119.140625
7194		-115.234375
7195		-121.093750
7196		-117.187500
7197		-121.093750
7198		-119.140625
7199		-123.046875
7200		-119.140625
7201		-125.000000
7202		-121.093750
7203		-125.000000
7204		-123.046875
7205		-126.953125
7206		-123.046875
7207		-128.906250
7208		-123.046875
7209		-128.906250
7210		-125.000000
7211		-128.906250
7212		-125.000000
7213		-130.859375
7214		-126.953125
7215		-132.812500
7216		-126.953125
7217		-130.859375
7218		-128.906250
7219		-130.859375
7220		-128.906250
7221		-132.812500
7222		-128.906250
7223		-132.812500
7224		-128.906250
7225		-132.812500
7226		-128.906250
7227		-132.812500
7228		-128.906250
7229		-132.812500
7230		-128.906250
7231		-132.812500
7232		-128.906250
7233		-132.812500
7234		-126.953125
7235		-130.859375
7236		-128.906250
7237		-130.859375
7238		-126.953125
7239		-130.859375
7240		-126.953125
7241		-130.859375
7242		-126.953125
7243		-128.906250
7244		-125.000000
7245		-128.906250
7246		-125.000000
7247		-126.953125
7248		-125.000000
7249		-126.953125
7250		-123.046875
7251		-125.000000
7252		-121.093750
7253		-125.000000
7254		-119.140625
7255		-123.046875
7256		-119.140625
7257		-121.093750
7258		-117.187500
7259		-121.093750
7260		-117.187500
7261		-119.140625
7262		-115.234375
7263		-117.187500
7264		-113.281250
7265		-115.234375
7266		-111.328125
7267		-113.281250
7268		-109.375000
7269		-111.328125
7270		-107.421875
7271		-111.328125
7272		-105.468750
7273		-109.375000
7274		-103.515625
7275		-107.421875
7276		-101.562500
7277		-103.515625
7278		-99.609375
7279		-101.562500
7280		-97.656250
7281		-99.609375
7282		-93.750000
7283		-97.656250
7284		-91.796875
7285		-93.750000
7286		-89.843750
7287		-91.796875
7288		-87.890625
7289		-89.843750
7290		-83.984375
7291		-87.890625
7292		-82.031250
7293		-83.984375
7294		-80.078125
7295		-82.031250
7296		-76.171875
7297		-78.125000
7298		-74.218750
7299		-76.171875
7300		-72.265625
7301		-74.218750
7302		-68.359375
7303		-70.312500
7304		-66.406250
7305		-68.359375
7306		-62.500000
7307		-64.453125
7308		-58.593750
7309		-62.500000
7310		-56.640625
7311		-58.593750
7312		-52.734375
7313		-54.687500
7314		-50.781250
7315		-52.734375
7316		-46.875000
7317		-48.828125
7318		-44.921875
7319		-46.875000
7320		-41.015625
7321		-42.968750
7322		-37.109375
7323		-41.015625
7324		-35.156250
7325		-37.109375
7326		-31.250000
7327		-33.203125
7328		-27.343750
7329		-31.250000
7330		-25.390625
7331		-27.343750
7332		-21.484375
7333		-23.437500
7334		-19.531250
7335		-21.484375
7336		-15.625000
7337		-17.578125
7338		-11.718750
7339		-15.625000
7340		-9.765625
7341		-11.718750
7342		-5.859375
7343		-7.812500
7344		-1.953125
7345		-5.859375
7346		0.000000
7347		-1.953125
7348		3.906250
7349		1.953125
7350		5.859375
7351		3.906250
7352		9.765625
7353		7.812500
7354		11.718750
7355		9.765625
7356		15.625000
7357		11.718750
7358		17.578125
7359		15.625000
7360		21.484375
7361		19.531250
7362		23.437500
7363		21.484375
7364		27.343750
7365		25.390625
7366		29.296875
7367		27.343750
7368		33.203125
7369		31.250000
7370		35.156250
7371		33.203125
7372		39.062500
7373		35.156250
7374		41.015625
7375		39.062500
7376		42.968750
7377		41.015625
7378		46.875000
7379		42.968750
7380		48.828125
7381		46.875000
7382		50.781250
7383		48.828125
7384		54.687500
7385		50.781250
7386		56.640625
7387		52.734375
7388		58.593750
7389		54.687500
7390		60.546875
7391		58.593750
7392		62.500000
7393		60.546875
7394		64.453125
7395		62.500000
7396		68.359375
7397		64.453125
7398		68.359375
7399		66.406250
7400		70.312500
7401		68.359375
7402		72.265625
7403		70.312500
7404		74.218750
7405		72.265625
7406		78.125000
7407		74.218750
7408		78.125000
7409		76.171875
7410		80.078125
7411		78.125000
7412		83.984375
7413		80.078125
7414		83.984375
7415		80.078125
7416		85.937500
7417		82.031250
7418		85.937500
7419		83.984375
7420		87.890625
7421		85.937500
7422		89.843750
7423		87.890625
7424		91.796875
7425		87.890625
7426		91.796875
7427		89.843750
7428		93.750000
7429		89.843750
7430		95.703125
7431		91.796875
7432		95.703125
7433		93.750000
7434		97.656250
7435		93.750000
7436		97.656250
7437		95.703125
7438		97.656250
7439		95.703125
7440		99.609375
7441		95.703125
7442		99.609375
7443		97.656250
7444		101.562500
7445		97.656250
7446		101.562500
7447		97.656250
7448		101.562500
7449		99.609375
7450		101.562500
7451		99.609375
7452		103.515625
7453		99.609375
7454		103.515625
7455		99.609375
7456		103.515625
7457		99.609375
7458		103.515625
7459		99.609375
7460		103.515625
7461		101.562500
7462		103.515625
7463		101.562500
7464		103.515625
7465		99.609375
7466		103.515625
7467		99.609375
7468		103.515625
7469		101.562500
7470		103.515625
7471		99.609375
7472		103.515625
7473		99.609375
7474		103.515625
7475		99.609375
7476		103.515625
7477		97.656250
7478		101.562500
7479		97.656250
7480		101.562500
7481		97.656250
7482		101.562500
7483		95.703125
7484		101.562500
7485		95.703125
7486		99.609375
7487		95.703125
7488		99.609375
7489		95.703125
7490		97.656250
7491		93.750000
7492		97.656250
7493		91.796875
7494		95.703125
7495		91.796875
7496		95.703125
7497		89.843750
7498		93.750000
7499		89.843750
7500		93.750000
7501		87.890625
7502		91.796875
7503		85.937500
7504		89.843750
7505		85.937500
7506		89.843750
7507		83.984375
7508		89.843750
7509		82.031250
7510		85.937500
7511		80.078125
7512		83.984375
7513		78.125000
7514		83.984375
7515		76.171875
7516		82.031250
7517		74.218750
7518		80.078125
7519		74.218750
7520		78.125000
7521		72.265625
7522		76.171875
7523		70.312500
7524		74.218750
7525		68.359375
7526		72.265625
7527		66.406250
7528		70.312500
7529		62.500000
7530		68.359375
7531		60.546875
7532		66.406250
7533		58.593750
7534		64.453125
7535		56.640625
7536		60.546875
7537		54.687500
7538		58.593750
7539		50.781250
7540		56.640625
7541		48.828125
7542		54.687500
7543		46.875000
7544		52.734375
7545		44.921875
7546		48.828125
7547		41.015625
7548		46.875000
7549		39.062500
7550		44.921875
7551		35.156250
7552		41.015625
7553		33.203125
7554		39.062500
7555		31.250000
7556		35.156250
7557		27.343750
7558		33.203125
7559		25.390625
7560		29.296875
7561		21.484375
7562		27.343750
7563		17.578125
7564		23.437500
7565		15.625000
7566		21.484375
7567		13.671875
7568		17.578125
7569		9.765625
7570		15.625000
7571		7.812500
7572		11.718750
7573		3.906250
7574		9.765625
7575		0.000000
7576		5.859375
7577		-1.953125
7578		3.906250
7579		-5.859375
7580		0.000000
7581		-9.765625
7582		-3.906250
7583		-11.718750
7584		-5.859375
7585		-15.625000
7586		-9.765625
7587		-17.578125
7588		-11.718750
7589		-21.484375
7590		-15.625000
7591		-23.437500
7592		-17.578125
7593		-27.343750
7594		-21.484375
7595		-31.250000
7596		-25.390625
7597		-33.203125
7598		-27.343750
7599		-37.109375
7600		-31.250000
7601		-39.062500
7602		-35.156250
7603		-42.968750
7604		-37.109375
7605		-46.875000
7606		-41.015625
7607		-48.828125
7608		-44.921875
7609		-52.734375
7610		-46.875000
7611		-54.687500
7612		-50.781250
7613		-58.593750
7614		-52.734375
7615		-60.546875
7616		-56.640625
7617		-64.453125
7618		-58.593750
7619		-66.406250
7620		-62.500000
7621		-70.312500
7622		-64.453125
7623		-74.218750
7624		-68.359375
7625		-76.171875
7626		-70.312500
7627		-78.125000
7628		-72.265625
7629		-80.078125
7630		-76.171875
7631		-83.984375
7632		-78.125000
7633		-85.937500
7634		-80.078125
7635		-89.843750
7636		-83.984375
7637		-91.796875
7638		-85.937500
7639		-93.750000
7640		-89.843750
7641		-95.703125
7642		-91.796875
7643		-97.656250
7644		-93.750000
7645		-101.562500
7646		-95.703125
7647		-103.515625
7648		-97.656250
7649		-105.468750
7650		-99.609375
7651		-107.421875
7652		-103.515625
7653		-109.375000
7654		-103.515625
7655		-111.328125
7656		-107.421875
7657		-113.281250
7658		-109.375000
7659		-113.281250
7660		-111.328125
7661		-117.187500
7662		-111.328125
7663		-117.187500
7664		-113.281250
7665		-119.140625
7666		-115.234375
7667		-121.093750
7668		-117.187500
7669		-121.093750
7670		-117.187500
7671		-123.046875
7672		-119.140625
7673		-125.000000
7674		-121.093750
7675		-125.000000
7676		-121.093750
7677		-126.953125
7678		-123.046875
7679		-126.953125
7680		-123.046875
7681		-128.906250
7682		-123.046875
7683		-128.906250
7684		-125.000000
7685		-130.859375
7686		-125.000000
7687		-130.859375
7688		-126.953125
7689		-130.859375
7690		-126.953125
7691		-130.859375
7692		-126.953125
7693		-130.859375
7694		-126.953125
7695		-132.812500
7696		-128.906250
7697		-130.859375
7698		-126.953125
7699		-130.859375
7700		-128.906250
7701		-132.812500
7702		-128.906250
7703		-132.812500
7704		-126.953125
7705		-130.859375
7706		-128.906250
7707		-130.859375
7708		-126.953125
7709		-130.859375
7710		-126.953125
7711		-128.906250
7712		-126.953125
7713		-128.906250
7714		-125.000000
7715		-128.906250
7716		-125.000000
7717		-128.906250
7718		-125.000000
7719		-126.953125
7720		-123.046875
7721		-125.000000
7722		-123.046875
7723		-125.000000
7724		-121.093750
7725		-125.000000
7726		-119.140625
7727		-123.046875
7728		-119.140625
7729		-121.093750
7730		-117.187500
7731		-119.140625
7732		-115.234375
7733		-117.187500
7734		-113.281250
7735		-117.187500
7736		-113.281250
7737		-115.234375
7738		-111.328125
7739		-113.281250
7740		-109.375000
7741		-111.328125
7742		-105.468750
7743		-109.375000
7744		-105.468750
7745		-107.421875
7746		-101.562500
7747		-107.421875
7748		-99.609375
7749		-105.468750
7750		-97.656250
7751		-99.609375
7752		-93.750000
7753		-99.609375
7754		-93.750000
7755		-95.703125
7756		-91.796875
7757		-93.750000
7758		-89.843750
7759		-91.796875
7760		-85.937500
7761		-87.890625
7762		-83.984375
7763		-87.890625
7764		-80.078125
7765		-83.984375
7766		-78.125000
7767		-80.078125
7768		-76.171875
7769		-78.125000
7770		-72.265625
7771		-76.171875
7772		-70.312500
7773		-72.265625
7774		-68.359375
7775		-68.359375
7776		-64.453125
7777		-66.406250
7778		-60.546875
7779		-64.453125
7780		-56.640625
7781		-62.500000
7782		-52.734375
7783		-58.593750
7784		-50.781250
7785		-56.640625
7786		-48.828125
7787		-50.781250
7788		-46.875000
7789		-48.828125
7790		-42.968750
7791		-44.921875
7792		-39.062500
7793		-41.015625
7794		-37.109375
7795		-39.062500
7796		-31.250000
7797		-37.109375
7798		-29.296875
7799		-33.203125
7800		-27.343750
7801		-31.250000
7802		-23.437500
7803		-27.343750
7804		-19.531250
7805		-23.437500
7806		-17.578125
7807		-19.531250
7808		-15.625000
7809		-17.578125
7810		-9.765625
7811		-15.625000
7812		-7.812500
7813		-9.765625
7814		-3.906250
7815		-9.765625
7816		0.000000
7817		-5.859375
7818		3.906250
7819		-1.953125
7820		5.859375
7821		1.953125
7822		7.812500
7823		5.859375
7824		9.765625
7825		7.812500
7826		13.671875
7827		9.765625
7828		17.578125
7829		13.671875
7830		21.484375
7831		15.625000
7832		23.437500
7833		19.531250
7834		27.343750
7835		21.484375
7836		29.296875
7837		23.437500
7838		31.250000
7839		29.296875
7840		33.203125
7841		31.250000
7842		37.109375
7843		33.203125
7844		39.062500
7845		37.109375
7846		42.968750
7847		39.062500
7848		44.921875
7849		41.015625
7850		46.875000
7851		44.921875
7852		48.828125
7853		46.875000
7854		52.734375
7855		48.828125
7856		54.687500
7857		52.734375
7858		56.640625
7859		54.687500
7860		60.546875
7861		54.687500
7862		64.453125
7863		56.640625
7864		64.453125
7865		60.546875
7866		68.359375
7867		62.500000
7868		70.312500
7869		64.453125
7870		70.312500
7871		66.406250
7872		72.265625
7873		70.312500
7874		74.218750
7875		72.265625
7876		76.171875
7877		72.265625
7878		78.125000
7879		74.218750
7880		82.031250
7881		76.171875
7882		82.031250
7883		76.171875
7884		83.984375
7885		78.125000
7886		85.937500
7887		80.078125
7888		87.890625
7889		83.984375
7890		85.937500
7891		85.937500
7892		87.890625
7893		85.937500
7894		91.796875
7895		85.937500
7896		93.750000
7897		87.890625
7898		93.750000
7899		87.890625
7900		95.703125
7901		89.843750
7902		95.703125
7903		89.843750
7904		97.656250
7905		91.796875
7906		97.656250
7907		93.750000
7908		97.656250
7909		93.750000
7910		99.609375
7911		93.750000
7912		101.562500
7913		95.703125
7914		101.562500
7915		95.703125
7916		103.515625
7917		95.703125
7918		103.515625
7919		95.703125
7920		103.515625
7921		97.656250
7922		103.515625
7923		99.609375
7924		101.562500
7925		99.609375
7926		103.515625
7927		97.656250
7928		105.468750
7929		97.656250
7930		105.468750
7931		97.656250
7932		105.468750
7933		97.656250
7934		105.468750
7935		97.656250
7936		105.468750
7937		97.656250
7938		105.468750
7939		99.609375
7940		103.515625
7941		99.609375
7942		103.515625
7943		97.656250
7944		105.468750
7945		95.703125
7946		103.515625
7947		97.656250
7948		103.515625
7949		95.703125
7950		103.515625
7951		95.703125
7952		103.515625
7953		95.703125
7954		103.515625
7955		95.703125
7956		101.562500
7957		95.703125
7958		99.609375
7959		93.750000
7960		97.656250
7961		91.796875
7962		99.609375
7963		91.796875
7964		97.656250
7965		89.843750
7966		97.656250
7967		87.890625
7968		97.656250
7969		87.890625
7970		93.750000
7971		85.937500
7972		93.750000
7973		87.890625
7974		89.843750
7975		85.937500
7976		89.843750
7977		82.031250
7978		89.843750
7979		82.031250
7980		89.843750
7981		78.125000
7982		85.937500
7983		78.125000
7984		85.937500
7985		76.171875
7986		83.984375
7987		74.218750
7988		82.031250
7989		72.265625
7990		82.031250
7991		72.265625
7992		76.171875
7993		68.359375
7994		74.218750
7995		66.406250
7996		74.218750
7997		64.453125
7998		72.265625
7999		62.500000
8000		70.312500
8001		58.593750
8002		68.359375
8003		58.593750
8004		66.406250
8005		56.640625
8006		64.453125
8007		54.687500
8008		58.593750
8009		52.734375
8010		56.640625
8011		48.828125
8012		56.640625
8013		46.875000
8014		52.734375
8015		42.968750
8016		50.781250
8017		41.015625
8018		48.828125
8019		37.109375
8020		44.921875
8021		35.156250
8022		42.968750
8023		35.156250
8024		41.015625
8025		31.250000
8026		37.109375
8027		27.343750
8028		33.203125
8029		23.437500
8030		33.203125
8031		21.484375
8032		29.296875
8033		19.531250
8034		27.343750
8035		15.625000
8036		23.437500
8037		11.718750
8038		19.531250
8039		9.765625
8040		17.578125
8041		7.812500
8042		13.671875
8043		5.859375
8044		9.765625
8045		0.000000
8046		7.812500
8047		-3.906250
8048		5.859375
8049		-7.812500
8050		3.906250
8051		-9.765625
8052		-1.953125
8053		-11.718750
8054		-3.906250
8055		-15.625000
8056		-7.812500
8057		-17.578125
8058		-11.718750
8059		-19.531250
8060		-15.625000
8061		-25.390625
8062		-17.578125
8063		-27.343750
8064		-19.531250
8065		-31.250000
8066		-23.437500
8067		-35.156250
8068		-25.390625
8069		-37.109375
8070		-29.296875
8071		-39.062500
8072		-33.203125
8073		-42.968750
8074		-33.203125
8075		-44.921875
8076		-41.015625
8077		-50.781250
8078		-42.968750
8079		-52.734375
8080		-44.921875
8081		-56.640625
8082		-46.875000
8083		-60.546875
8084		-50.781250
8085		-62.500000
8086		-54.687500
8087		-64.453125
8088		-56.640625
8089		-68.359375
8090		-58.593750
8091		-68.359375
8092		-64.453125
8093		-72.265625
8094		-66.406250
8095		-76.171875
8096		-68.359375
8097		-80.078125
8098		-70.312500
8099		-82.031250
8100		-74.218750
8101		-83.984375
8102		-76.171875
8103		-87.890625
8104		-80.078125
8105		-89.843750
8106		-82.031250
8107		-89.843750
8108		-85.937500
8109		-93.750000
8110		-87.890625
8111		-97.656250
8112		-89.843750
8113		-99.609375
8114		-91.796875
8115		-103.515625
8116		-95.703125
8117		-103.515625
8118		-97.656250
8119		-107.421875
8120		-97.656250
8121		-109.375000
8122		-101.562500
8123		-109.375000
8124		-101.562500
8125		-111.328125
8126		-107.421875
8127		-111.328125
8128		-107.421875
8129		-117.187500
8130		-107.421875
8131		-117.187500
8132		-109.375000
8133		-119.140625
8134		-111.328125
8135		-121.093750
8136		-113.281250
8137		-123.046875
8138		-115.234375
8139		-123.046875
8140		-117.187500
8141		-123.046875
8142		-119.140625
8143		-125.000000
8144		-121.093750
8145		-128.906250
8146		-121.093750
8147		-128.906250
8148		-121.093750
8149		-130.859375
8150		-123.046875
8151		-130.859375
8152		-123.046875
8153		-130.859375
8154		-125.000000
8155		-132.812500
8156		-125.000000
8157		-132.812500
8158		-125.000000
8159		-130.859375
8160		-128.906250
8161		-132.812500
8162		-126.953125
8163		-134.765625
8164		-126.953125
8165		-134.765625
8166		-126.953125
8167		-134.765625
8168		-126.953125
8169		-134.765625
8170		-128.906250
8171		-134.765625
8172		-126.953125
8173		-134.765625
8174		-126.953125
8175		-132.812500
8176		-128.906250
8177		-132.812500
8178		-128.906250
8179		-132.812500
8180		-126.953125
8181		-132.812500
8182		-125.000000
8183		-132.812500
8184		-125.000000
8185		-130.859375
8186		-125.000000
8187		-130.859375
8188		-123.046875
8189		-130.859375
8190		-123.046875
8191		-126.953125
8192		-123.046875
8193		-125.000000
8194		-123.046875
8195		-125.000000
8196		-119.140625
8197		-125.000000
8198		-117.187500
8199		-125.000000
8200		-117.187500
8201		-123.046875
8202		-115.234375
8203		-121.093750
8204		-113.281250
8205		-119.140625
8206		-111.328125
8207		-117.187500
8208		-111.328125
8209		-113.281250
8210		-111.328125
8211		-113.281250
8212		-107.421875
8213		-113.281250
8214		-103.515625
8215		-111.328125
8216		-103.515625
8217		-109.375000
8218		-101.562500
8219		-107.421875
8220		-99.609375
8221		-103.515625
8222		-95.703125
8223		-101.562500
8224		-93.750000
8225		-97.656250
8226		-93.750000
8227		-95.703125
8228		-91.796875
8229		-93.750000
8230		-87.890625
8231		-91.796875
8232		-83.984375
8233		-89.843750
8234		-82.031250
8235		-87.890625
8236		-80.078125
8237		-83.984375
8238		-76.171875
8239		-82.031250
8240		-74.218750
8241		-78.125000
8242		-72.265625
8243		-74.218750
8244		-70.312500
8245		-72.265625
8246		-64.453125
8247		-72.265625
8248		-62.500000
8249		-66.406250
8250		-58.593750
8251		-64.453125
8252		-56.640625
8253		-60.546875
8254		-54.687500
8255		-58.593750
8256		-50.781250
8257		-56.640625
8258		-46.875000
8259		-50.781250
8260		-44.921875
8261		-46.875000
8262		-42.968750
8263		-44.921875
8264		-37.109375
8265		-42.968750
8266		-35.156250
8267		-39.062500
8268		-31.250000
8269		-35.156250
8270		-29.296875
8271		-33.203125
8272		-25.390625
8273		-31.250000
8274		-21.484375
8275		-25.390625
8276		-19.531250
8277		-21.484375
8278		-17.578125
8279		-19.531250
8280		-11.718750
8281		-17.578125
8282		-7.812500
8283		-13.671875
8284		-5.859375
8285		-11.718750
8286		-1.953125
8287		-7.812500
8288		0.000000
8289		-5.859375
8290		3.906250
8291		-1.953125
8292		5.859375
8293		1.953125
8294		7.812500
8295		5.859375
8296		11.718750
8297		7.812500
8298		15.625000
8299		9.765625
8300		17.578125
8301		11.718750
8302		21.484375
8303		15.625000
8304		25.390625
8305		19.531250
8306		27.343750
8307		23.437500
8308		29.296875
8309		25.390625
8310		31.250000
8311		29.296875
8312		33.203125
8313		31.250000
8314		39.062500
8315		31.250000
8316		41.015625
8317		35.156250
8318		44.921875
8319		37.109375
8320		46.875000
8321		41.015625
8322		48.828125
8323		42.968750
8324		50.781250
8325		46.875000
8326		52.734375
8327		50.781250
8328		54.687500
8329		52.734375
8330		58.593750
8331		52.734375
8332		60.546875
8333		56.640625
8334		62.500000
8335		58.593750
8336		64.453125
8337		60.546875
8338		66.406250
8339		60.546875
8340		70.312500
8341		64.453125
8342		72.265625
8343		68.359375
8344		72.265625
8345		70.312500
8346		74.218750
8347		70.312500
8348		78.125000
8349		72.265625
8350		80.078125
8351		72.265625
8352		82.031250
8353		76.171875
8354		82.031250
8355		76.171875
8356		83.984375
8357		78.125000
8358		85.937500
8359		80.078125
8360		85.937500
8361		83.984375
8362		87.890625
8363		83.984375
8364		89.843750
8365		83.984375
8366		91.796875
8367		85.937500
8368		93.750000
8369		87.890625
8370		93.750000
8371		87.890625
8372		95.703125
8373		89.843750
8374		95.703125
8375		89.843750
8376		97.656250
8377		93.750000
8378		95.703125
8379		93.750000
8380		97.656250
8381		91.796875
8382		99.609375
8383		93.750000
8384		99.609375
8385		93.750000
8386		101.562500
8387		95.703125
8388		101.562500
8389		93.750000
8390		103.515625
8391		95.703125
8392		103.515625
8393		97.656250
8394		101.562500
8395		99.609375
8396		101.562500
8397		97.656250
8398		103.515625
8399		97.656250
8400		103.515625
8401		97.656250
8402		105.468750
8403		97.656250
8404		103.515625
8405		97.656250
8406		103.515625
8407		97.656250
8408		105.468750
8409		97.656250
8410		103.515625
8411		99.609375
8412		101.562500
8413		99.609375
8414		103.515625
8415		97.656250
8416		103.515625
8417		97.656250
8418		103.515625
8419		95.703125
8420		103.515625
8421		95.703125
8422		103.515625
8423		93.750000
8424		101.562500
8425		93.750000
8426		101.562500
8427		95.703125
8428		99.609375
8429		95.703125
8430		97.656250
8431		91.796875
8432		99.609375
8433		91.796875
8434		97.656250
8435		89.843750
8436		97.656250
8437		89.843750
8438		95.703125
8439		87.890625
8440		95.703125
8441		85.937500
8442		93.750000
8443		87.890625
8444		91.796875
8445		85.937500
8446		89.843750
8447		82.031250
8448		89.843750
8449		80.078125
8450		87.890625
8451		80.078125
8452		85.937500
8453		78.125000
8454		85.937500
8455		76.171875
8456		83.984375
8457		74.218750
8458		82.031250
8459		74.218750
8460		80.078125
8461		72.265625
8462		76.171875
8463		70.312500
8464		74.218750
8465		66.406250
8466		74.218750
8467		64.453125
8468		74.218750
8469		62.500000
8470		70.312500
8471		60.546875
8472		68.359375
8473		60.546875
8474		66.406250
8475		56.640625
8476		64.453125
8477		56.640625
8478		60.546875
8479		52.734375
8480		58.593750
8481		48.828125
8482		56.640625
8483		46.875000
8484		54.687500
8485		42.968750
8486		52.734375
8487		41.015625
8488		48.828125
8489		39.062500
8490		46.875000
8491		37.109375
8492		44.921875
8493		35.156250
8494		41.015625
8495		33.203125
8496		37.109375
8497		29.296875
8498		35.156250
8499		25.390625
8500		33.203125
8501		21.484375
8502		31.250000
8503		19.531250
8504		27.343750
8505		17.578125
8506		25.390625
8507		13.671875
8508		21.484375
8509		11.718750
8510		17.578125
8511		9.765625
8512		13.671875
8513		5.859375
8514		11.718750
8515		1.953125
8516		7.812500
8517		0.000000
8518		7.812500
8519		-3.906250
8520		3.906250
8521		-7.812500
8522		0.000000
8523		-9.765625
8524		-1.953125
8525		-13.671875
8526		-5.859375
8527		-15.625000
8528		-9.765625
8529		-19.531250
8530		-13.671875
8531		-23.437500
8532		-15.625000
8533		-25.390625
8534		-19.531250
8535		-29.296875
8536		-19.531250
8537		-33.203125
8538		-23.437500
8539		-37.109375
8540		-27.343750
8541		-39.062500
8542		-31.250000
8543		-41.015625
8544		-35.156250
8545		-44.921875
8546		-39.062500
8547		-46.875000
8548		-41.015625
8549		-52.734375
8550		-44.921875
8551		-54.687500
8552		-46.875000
8553		-58.593750
8554		-48.828125
8555		-60.546875
8556		-52.734375
8557		-64.453125
8558		-54.687500
8559		-68.359375
8560		-58.593750
8561		-68.359375
8562		-62.500000
8563		-70.312500
8564		-66.406250
8565		-76.171875
8566		-68.359375
8567		-78.125000
8568		-70.312500
8569		-82.031250
8570		-74.218750
8571		-83.984375
8572		-76.171875
8573		-85.937500
8574		-78.125000
8575		-87.890625
8576		-80.078125
8577		-89.843750
8578		-83.984375
8579		-91.796875
8580		-87.890625
8581		-95.703125
8582		-89.843750
8583		-99.609375
8584		-91.796875
8585		-101.562500
8586		-93.750000
8587		-103.515625
8588		-95.703125
8589		-107.421875
8590		-97.656250
8591		-107.421875
8592		-101.562500
8593		-109.375000
8594		-103.515625
8595		-109.375000
8596		-105.468750
8597		-111.328125
8598		-107.421875
8599		-115.234375
8600		-109.375000
8601		-117.187500
8602		-109.375000
8603		-119.140625
8604		-111.328125
8605		-121.093750
8606		-113.281250
8607		-123.046875
8608		-113.281250
8609		-123.046875
8610		-117.187500
8611		-125.000000
8612		-117.187500
8613		-125.000000
8614		-121.093750
8615		-126.953125
8616		-121.093750
8617		-128.906250
8618		-121.093750
8619		-130.859375
8620		-123.046875
8621		-130.859375
8622		-123.046875
8623		-130.859375
8624		-125.000000
8625		-132.812500
8626		-125.000000
8627		-132.812500
8628		-126.953125
8629		-130.859375
8630		-128.906250
8631		-132.812500
8632		-128.906250
8633		-134.765625
8634		-128.906250
8635		-134.765625
8636		-126.953125
8637		-134.765625
8638		-128.906250
8639		-134.765625
8640		-128.906250
8641		-136.718750
8642		-126.953125
8643		-134.765625
8644		-128.906250
8645		-132.812500
8646		-128.906250
8647		-132.812500
8648		-130.859375
8649		-134.765625
8650		-128.906250
8651		-134.765625
8652		-126.953125
8653		-132.812500
8654		-126.953125
8655		-132.812500
8656		-126.953125
8657		-132.812500
8658		-125.000000
8659		-130.859375
8660		-125.000000
8661		-130.859375
8662		-125.000000
8663		-126.953125
8664		-125.000000
8665		-126.953125
8666		-123.046875
8667		-126.953125
8668		-119.140625
8669		-125.000000
8670		-119.140625
8671		-125.000000
8672		-117.187500
8673		-123.046875
8674		-115.234375
8675		-121.093750
8676		-115.234375
8677		-119.140625
8678		-113.281250
8679		-117.187500
8680		-113.281250
8681		-115.234375
8682		-111.328125
8683		-113.281250
8684		-107.421875
8685		-111.328125
8686		-105.468750
8687		-109.375000
8688		-103.515625
8689		-107.421875
8690		-101.562500
8691		-105.468750
8692		-99.609375
8693		-103.515625
8694		-97.656250
8695		-101.562500
8696		-95.703125
8697		-97.656250
8698		-93.750000
8699		-95.703125
8700		-89.843750
8701		-95.703125
8702		-87.890625
8703		-93.750000
8704		-83.984375
8705		-89.843750
8706		-82.031250
8707		-87.890625
8708		-78.125000
8709		-83.984375
8710		-76.171875
8711		-82.031250
8712		-74.218750
8713		-78.125000
8714		-72.265625
8715		-74.218750
8716		-70.312500
8717		-72.265625
8718		-64.453125
8719		-70.312500
8720		-62.500000
8721		-68.359375
8722		-58.593750
8723		-64.453125
8724		-56.640625
8725		-60.546875
8726		-52.734375
8727		-58.593750
8728		-48.828125
8729		-52.734375
8730		-48.828125
8731		-50.781250
8732		-44.921875
8733		-46.875000
8734		-41.015625
8735		-46.875000
8736		-37.109375
8737		-42.968750
8738		-33.203125
8739		-41.015625
8740		-31.250000
8741		-37.109375
8742		-29.296875
8743		-33.203125
8744		-25.390625
8745		-29.296875
8746		-23.437500
8747		-25.390625
8748		-19.531250
8749		-21.484375
8750		-17.578125
8751		-19.531250
8752		-11.718750
8753		-15.625000
8754		-7.812500
8755		-13.671875
8756		-5.859375
8757		-11.718750
8758		-1.953125
8759		-7.812500
8760		0.000000
8761		-3.906250
8762		3.906250
8763		0.000000
8764		5.859375
8765		1.953125
8766		7.812500
8767		5.859375
8768		13.671875
8769		7.812500
8770		15.625000
8771		11.718750
8772		17.578125
8773		13.671875
8774		21.484375
8775		17.578125
8776		25.390625
8777		19.531250
8778		27.343750
8779		21.484375
8780		29.296875
8781		27.343750
8782		31.250000
8783		29.296875
8784		35.156250
8785		29.296875
8786		39.062500
8787		33.203125
8788		41.015625
8789		37.109375
8790		44.921875
8791		39.062500
8792		46.875000
8793		41.015625
8794		50.781250
8795		44.921875
8796		52.734375
8797		48.828125
8798		52.734375
8799		50.781250
8800		54.687500
8801		50.781250
8802		58.593750
8803		52.734375
8804		62.500000
8805		56.640625
8806		64.453125
8807		58.593750
8808		66.406250
8809		60.546875
8810		68.359375
8811		62.500000
8812		70.312500
8813		64.453125
8814		70.312500
8815		68.359375
8816		72.265625
8817		70.312500
8818		76.171875
8819		70.312500
8820		78.125000
8821		72.265625
8822		80.078125
8823		74.218750
8824		82.031250
8825		76.171875
8826		83.984375
8827		78.125000
8828		85.937500
8829		80.078125
8830		85.937500
8831		82.031250
8832		85.937500
8833		83.984375
8834		87.890625
8835		83.984375
8836		91.796875
8837		85.937500
8838		91.796875
8839		85.937500
8840		93.750000
8841		87.890625
8842		95.703125
8843		87.890625
8844		95.703125
8845		89.843750
8846		97.656250
8847		91.796875
8848		95.703125
8849		93.750000
8850		95.703125
8851		93.750000
8852		99.609375
8853		93.750000
8854		99.609375
8855		93.750000
8856		101.562500
8857		95.703125
8858		101.562500
8859		95.703125
8860		101.562500
8861		95.703125
8862		103.515625
8863		95.703125
8864		103.515625
8865		99.609375
8866		101.562500
8867		97.656250
8868		103.515625
8869		97.656250
8870		103.515625
8871		97.656250
8872		105.468750
8873		97.656250
8874		105.468750
8875		97.656250
8876		105.468750
8877		97.656250
8878		105.468750
8879		97.656250
8880		105.468750
8881		99.609375
8882		103.515625
8883		99.609375
8884		103.515625
8885		97.656250
8886		105.468750
8887		97.656250
8888		105.468750
8889		97.656250
8890		103.515625
8891		95.703125
8892		103.515625
8893		95.703125
8894		101.562500
8895		95.703125
8896		103.515625
8897		95.703125
8898		99.609375
8899		95.703125
8900		99.609375
8901		93.750000
8902		99.609375
8903		91.796875
8904		99.609375
8905		89.843750
8906		97.656250
8907		89.843750
8908		97.656250
8909		87.890625
8910		95.703125
8911		87.890625
8912		95.703125
8913		85.937500
8914		93.750000
8915		87.890625
8916		91.796875
8917		85.937500
8918		89.843750
8919		82.031250
8920		89.843750
8921		82.031250
8922		87.890625
8923		80.078125
8924		87.890625
8925		78.125000
8926		85.937500
8927		76.171875
8928		83.984375
8929		74.218750
8930		82.031250
8931		74.218750
8932		80.078125
8933		72.265625
8934		76.171875
8935		68.359375
8936		74.218750
8937		66.406250
8938		74.218750
8939		64.453125
8940		74.218750
8941		62.500000
8942		70.312500
8943		60.546875
8944		68.359375
8945		58.593750
8946		66.406250
8947		56.640625
8948		64.453125
8949		56.640625
8950		60.546875
8951		50.781250
8952		58.593750
8953		48.828125
8954		56.640625
8955		44.921875
8956		54.687500
8957		44.921875
8958		52.734375
8959		41.015625
8960		48.828125
8961		39.062500
8962		46.875000
8963		37.109375
8964		44.921875
8965		35.156250
8966		39.062500
8967		33.203125
8968		37.109375
8969		27.343750
8970		35.156250
8971		25.390625
8972		33.203125
8973		21.484375
8974		29.296875
8975		19.531250
8976		27.343750
8977		15.625000
8978		25.390625
8979		13.671875
8980		21.484375
8981		11.718750
8982		19.531250
8983		7.812500
8984		13.671875
8985		3.906250
8986		11.718750
8987		1.953125
8988		9.765625
8989		-3.906250
8990		5.859375
8991		-3.906250
8992		3.906250
8993		-9.765625
8994		0.000000
8995		-11.718750
8996		-3.906250
8997		-13.671875
8998		-5.859375
8999		-15.625000
9000		-11.718750
9001		-19.531250
9002		-13.671875
9003		-23.437500
9004		-15.625000
9005		-27.343750
9006		-17.578125
9007		-29.296875
9008		-21.484375
9009		-33.203125
9010		-25.390625
9011		-37.109375
9012		-29.296875
9013		-41.015625
9014		-31.250000
9015		-41.015625
9016		-35.156250
9017		-44.921875
9018		-39.062500
9019		-48.828125
9020		-42.968750
9021		-52.734375
9022		-42.968750
9023		-56.640625
9024		-46.875000
9025		-58.593750
9026		-50.781250
9027		-60.546875
9028		-52.734375
9029		-64.453125
9030		-56.640625
9031		-66.406250
9032		-58.593750
9033		-68.359375
9034		-64.453125
9035		-74.218750
9036		-66.406250
9037		-76.171875
9038		-68.359375
9039		-78.125000
9040		-70.312500
9041		-82.031250
9042		-74.218750
9043		-83.984375
9044		-76.171875
9045		-85.937500
9046		-78.125000
9047		-89.843750
9048		-82.031250
9049		-89.843750
9050		-85.937500
9051		-91.796875
9052		-87.890625
9053		-95.703125
9054		-89.843750
9055		-99.609375
9056		-91.796875
9057		-101.562500
9058		-93.750000
9059		-103.515625
9060		-95.703125
9061		-105.468750
9062		-97.656250
9063		-109.375000
9064		-101.562500
9065		-109.375000
9066		-103.515625
9067		-109.375000
9068		-107.421875
9069		-115.234375
9070		-109.375000
9071		-117.187500
9072		-109.375000
9073		-117.187500
9074		-111.328125
9075		-119.140625
9076		-111.328125
9077		-121.093750
9078		-113.281250
9079		-123.046875
9080		-115.234375
9081		-123.046875
9082		-117.187500
9083		-123.046875
9084		-121.093750
9085		-125.000000
9086		-121.093750
9087		-128.906250
9088		-121.093750
9089		-128.906250
9090		-123.046875
9091		-130.859375
9092		-123.046875
9093		-132.812500
9094		-123.046875
9095		-130.859375
9096		-125.000000
9097		-132.812500
9098		-125.000000
9099		-132.812500
9100		-126.953125
9101		-132.812500
9102		-128.906250
9103		-134.765625
9104		-128.906250
9105		-134.765625
9106		-126.953125
9107		-134.765625
9108		-128.906250
9109		-136.718750
9110		-128.906250
9111		-136.718750
9112		-128.906250
9113		-134.765625
9114		-128.906250
9115		-136.718750
9116		-128.906250
9117		-132.812500
9118		-130.859375
9119		-132.812500
9120		-128.906250
9121		-134.765625
9122		-126.953125
9123		-134.765625
9124		-126.953125
9125		-134.765625
9126		-126.953125
9127		-132.812500
9128		-125.000000
9129		-132.812500
9130		-125.000000
9131		-132.812500
9132		-125.000000
9133		-128.906250
9134		-125.000000
9135		-126.953125
9136		-123.046875
9137		-126.953125
9138		-121.093750
9139		-126.953125
9140		-119.140625
9141		-126.953125
9142		-119.140625
9143		-123.046875
9144		-115.234375
9145		-123.046875
9146		-115.234375
9147		-121.093750
9148		-113.281250
9149		-121.093750
9150		-113.281250
9151		-115.234375
9152		-111.328125
9153		-115.234375
9154		-109.375000
9155		-113.281250
9156		-107.421875
9157		-113.281250
9158		-103.515625
9159		-111.328125
9160		-101.562500
9161		-107.421875
9162		-101.562500
9163		-105.468750
9164		-99.609375
9165		-103.515625
9166		-95.703125
9167		-99.609375
9168		-95.703125
9169		-97.656250
9170		-93.750000
9171		-97.656250
9172		-87.890625
9173		-93.750000
9174		-85.937500
9175		-91.796875
9176		-83.984375
9177		-87.890625
9178		-82.031250
9179		-87.890625
9180		-78.125000
9181		-83.984375
9182		-76.171875
9183		-82.031250
9184		-74.218750
9185		-76.171875
9186		-72.265625
9187		-74.218750
9188		-66.406250
9189		-72.265625
9190		-64.453125
9191		-70.312500
9192		-60.546875
9193		-66.406250
9194		-56.640625
9195		-64.453125
9196		-56.640625
9197		-60.546875
9198		-52.734375
9199		-56.640625
9200		-50.781250
9201		-52.734375
9202		-46.875000
9203		-48.828125
9204		-42.968750
9205		-46.875000
9206		-39.062500
9207		-44.921875
9208		-37.109375
9209		-41.015625
9210		-33.203125
9211		-37.109375
9212		-31.250000
9213		-37.109375
9214		-27.343750
9215		-31.250000
9216		-23.437500
9217		-29.296875
9218		-21.484375
9219		-23.437500
9220		-19.531250
9221		-23.437500
9222		-13.671875
9223		-19.531250
9224		-11.718750
9225		-17.578125
9226		-7.812500
9227		-11.718750
9228		-3.906250
9229		-9.765625
9230		-1.953125
9231		-7.812500
9232		1.953125
9233		-3.906250
9234		3.906250
9235		1.953125
9236		5.859375
9237		3.906250
9238		9.765625
9239		3.906250
9240		13.671875
9241		7.812500
9242		17.578125
9243		11.718750
9244		19.531250
9245		15.625000
9246		23.437500
9247		17.578125
9248		25.390625
9249		19.531250
9250		27.343750
9251		25.390625
9252		29.296875
9253		27.343750
9254		33.203125
9255		29.296875
9256		37.109375
9257		31.250000
9258		39.062500
9259		33.203125
9260		42.968750
9261		37.109375
9262		44.921875
9263		39.062500
9264		46.875000
9265		41.015625
9266		50.781250
9267		44.921875
9268		50.781250
9269		48.828125
9270		52.734375
9271		50.781250
9272		56.640625
9273		52.734375
9274		58.593750
9275		52.734375
9276		62.500000
9277		56.640625
9278		64.453125
9279		58.593750
9280		66.406250
9281		60.546875
9282		68.359375
9283		62.500000
9284		70.312500
9285		66.406250
9286		70.312500
9287		68.359375
9288		72.265625
9289		68.359375
9290		76.171875
9291		70.312500
9292		78.125000
9293		72.265625
9294		80.078125
9295		74.218750
9296		82.031250
9297		76.171875
9298		83.984375
9299		78.125000
9300		85.937500
9301		82.031250
9302		85.937500
9303		82.031250
9304		85.937500
9305		82.031250
9306		89.843750
9307		82.031250
9308		89.843750
9309		85.937500
9310		91.796875
9311		85.937500
9312		93.750000
9313		87.890625
9314		95.703125
9315		87.890625
9316		95.703125
9317		89.843750
9318		95.703125
9319		91.796875
9320		95.703125
9321		91.796875
9322		97.656250
9323		91.796875
9324		99.609375
9325		93.750000
9326		99.609375
9327		93.750000
9328		99.609375
9329		93.750000
9330		101.562500
9331		95.703125
9332		101.562500
9333		95.703125
9334		101.562500
9335		97.656250
9336		101.562500
9337		99.609375
9338		101.562500
9339		97.656250
9340		103.515625
9341		97.656250
9342		103.515625
9343		97.656250
9344		103.515625
9345		97.656250
9346		103.515625
9347		97.656250
9348		105.468750
9349		97.656250
9350		103.515625
9351		97.656250
9352		103.515625
9353		99.609375
9354		101.562500
9355		97.656250
9356		103.515625
9357		95.703125
9358		103.515625
9359		97.656250
9360		103.515625
9361		95.703125
9362		103.515625
9363		95.703125
9364		103.515625
9365		93.750000
9366		101.562500
9367		93.750000
9368		101.562500
9369		95.703125
9370		99.609375
9371		95.703125
9372		97.656250
9373		91.796875
9374		99.609375
9375		89.843750
9376		97.656250
9377		89.843750
9378		97.656250
9379		87.890625
9380		95.703125
9381		87.890625
9382		95.703125
9383		85.937500
9384		93.750000
9385		87.890625
9386		91.796875
9387		85.937500
9388		89.843750
9389		83.984375
9390		89.843750
9391		80.078125
9392		89.843750
9393		80.078125
9394		87.890625
9395		78.125000
9396		85.937500
9397		76.171875
9398		83.984375
9399		76.171875
9400		83.984375
9401		74.218750
9402		80.078125
9403		74.218750
9404		78.125000
9405		70.312500
9406		76.171875
9407		66.406250
9408		76.171875
9409		66.406250
9410		72.265625
9411		64.453125
9412		70.312500
9413		60.546875
9414		68.359375
9415		58.593750
9416		66.406250
9417		56.640625
9418		64.453125
9419		56.640625
9420		60.546875
9421		54.687500
9422		58.593750
9423		48.828125
9424		58.593750
9425		46.875000
9426		54.687500
9427		44.921875
9428		50.781250
9429		41.015625
9430		50.781250
9431		39.062500
9432		46.875000
9433		37.109375
9434		44.921875
9435		35.156250
9436		41.015625
9437		33.203125
9438		37.109375
9439		29.296875
9440		35.156250
9441		25.390625
9442		33.203125
9443		23.437500
9444		31.250000
9445		19.531250
9446		27.343750
9447		17.578125
9448		25.390625
9449		13.671875
9450		21.484375
9451		11.718750
9452		19.531250
9453		9.765625
9454		13.671875
9455		5.859375
9456		11.718750
9457		1.953125
9458		9.765625
9459		-1.953125
9460		7.812500
9461		-3.906250
9462		3.906250
9463		-7.812500
9464		0.000000
9465		-9.765625
9466		-3.906250
9467		-13.671875
9468		-5.859375
9469		-15.625000
9470		-7.812500
9471		-17.578125
9472		-13.671875
9473		-23.437500
9474		-15.625000
9475		-25.390625
9476		-17.578125
9477		-31.250000
9478		-21.484375
9479		-33.203125
9480		-23.437500
9481		-35.156250
9482		-27.343750
9483		-39.062500
9484		-31.250000
9485		-41.015625
9486		-35.156250
9487		-42.968750
9488		-39.062500
9489		-46.875000
9490		-41.015625
9491		-52.734375
9492		-44.921875
9493		-54.687500
9494		-46.875000
9495		-58.593750
9496		-48.828125
9497		-62.500000
9498		-52.734375
9499		-62.500000
9500		-54.687500
9501		-66.406250
9502		-58.593750
9503		-68.359375
9504		-62.500000
9505		-70.312500
9506		-66.406250
9507		-74.218750
9508		-68.359375
9509		-78.125000
9510		-70.312500
9511		-80.078125
9512		-72.265625
9513		-83.984375
9514		-76.171875
9515		-87.890625
9516		-78.125000
9517		-89.843750
9518		-80.078125
9519		-89.843750
9520		-83.984375
9521		-91.796875
9522		-87.890625
9523		-95.703125
9524		-89.843750
9525		-99.609375
9526		-91.796875
9527		-101.562500
9528		-93.750000
9529		-103.515625
9530		-95.703125
9531		-105.468750
9532		-97.656250
9533		-107.421875
9534		-99.609375
9535		-109.375000
9536		-103.515625
9537		-109.375000
9538		-105.468750
9539		-111.328125
9540		-107.421875
9541		-117.187500
9542		-109.375000
9543		-117.187500
9544		-109.375000
9545		-121.093750
9546		-111.328125
9547		-121.093750
9548		-113.281250
9549		-123.046875
9550		-115.234375
9551		-125.000000
9552		-117.187500
9553		-125.000000
9554		-119.140625
9555		-125.000000
9556		-121.093750
9557		-128.906250
9558		-121.093750
9559		-128.906250
9560		-121.093750
9561		-130.859375
9562		-123.046875
9563		-130.859375
9564		-123.046875
9565		-132.812500
9566		-125.000000
9567		-132.812500
9568		-126.953125
9569		-132.812500
9570		-126.953125
9571		-132.812500
9572		-128.906250
9573		-134.765625
9574		-126.953125
9575		-136.718750
9576		-128.906250
9577		-136.718750
9578		-128.906250
9579		-136.718750
9580		-128.906250
9581		-136.718750
9582		-128.906250
9583		-136.718750
9584		-128.906250
9585		-136.718750
9586		-128.906250
9587		-134.765625
9588		-130.859375
9589		-134.765625
9590		-130.859375
9591		-134.765625
9592		-128.906250
9593		-136.718750
9594		-126.953125
9595		-134.765625
9596		-128.906250
9597		-134.765625
9598		-126.953125
9599		-134.765625
9600		-126.953125
9601		-132.812500
9602		-125.000000
9603		-130.859375
9604		-125.000000
9605		-128.906250
9606		-125.000000
9607		-128.906250
9608		-123.046875
9609		-128.906250
9610		-121.093750
9611		-126.953125
9612		-121.093750
9613		-126.953125
9614		-119.140625
9615		-125.000000
9616		-117.187500
9617		-123.046875
9618		-115.234375
9619		-121.093750
9620		-115.234375
9621		-117.187500
9622		-115.234375
9623		-115.234375
9624		-111.328125
9625		-117.187500
9626		-109.375000
9627		-113.281250
9628		-107.421875
9629		-113.281250
9630		-105.468750
9631		-111.328125
9632		-103.515625
9633		-109.375000
9634		-99.609375
9635		-105.468750
9636		-97.656250
9637		-103.515625
9638		-97.656250
9639		-99.609375
9640		-95.703125
9641		-97.656250
9642		-89.843750
9643		-97.656250
9644		-87.890625
9645		-93.750000
9646		-85.937500
9647		-91.796875
9648		-83.984375
9649		-87.890625
9650		-80.078125
9651		-85.937500
9652		-78.125000
9653		-83.984375
9654		-76.171875
9655		-78.125000
9656		-74.218750
9657		-76.171875
9658		-70.312500
9659		-76.171875
9660		-66.406250
9661		-72.265625
9662		-64.453125
9663		-70.312500
9664		-60.546875
9665		-64.453125
9666		-58.593750
9667		-62.500000
9668		-54.687500
9669		-60.546875
9670		-52.734375
9671		-54.687500
9672		-50.781250
9673		-52.734375
9674		-46.875000
9675		-50.781250
9676		-42.968750
9677		-46.875000
9678		-39.062500
9679		-44.921875
9680		-37.109375
9681		-42.968750
9682		-33.203125
9683		-39.062500
9684		-29.296875
9685		-35.156250
9686		-27.343750
9687		-31.250000
9688		-25.390625
9689		-27.343750
9690		-21.484375
9691		-23.437500
9692		-17.578125
9693		-21.484375
9694		-13.671875
9695		-19.531250
9696		-9.765625
9697		-15.625000
9698		-7.812500
9699		-13.671875
9700		-3.906250
9701		-9.765625
9702		0.000000
9703		-5.859375
9704		1.953125
9705		-1.953125
9706		3.906250
9707		1.953125
9708		5.859375
9709		3.906250
9710		11.718750
9711		5.859375
9712		13.671875
9713		9.765625
9714		17.578125
9715		11.718750
9716		19.531250
9717		15.625000
9718		23.437500
9719		19.531250
9720		25.390625
9721		21.484375
9722		27.343750
9723		25.390625
9724		29.296875
9725		27.343750
9726		33.203125
9727		29.296875
9728		37.109375
9729		33.203125
9730		39.062500
9731		35.156250
9732		42.968750
9733		37.109375
9734		44.921875
9735		39.062500
9736		46.875000
9737		42.968750
9738		48.828125
9739		46.875000
9740		50.781250
9741		48.828125
9742		54.687500
9743		48.828125
9744		58.593750
9745		50.781250
9746		60.546875
9747		54.687500
9748		62.500000
9749		56.640625
9750		64.453125
9751		58.593750
9752		66.406250
9753		60.546875
9754		68.359375
9755		64.453125
9756		68.359375
9757		66.406250
9758		70.312500
9759		68.359375
9760		74.218750
9761		68.359375
9762		76.171875
9763		72.265625
9764		78.125000
9765		74.218750
9766		80.078125
9767		74.218750
9768		82.031250
9769		76.171875
9770		83.984375
9771		78.125000
9772		83.984375
9773		82.031250
9774		83.984375
9775		82.031250
9776		87.890625
9777		82.031250
9778		89.843750
9779		83.984375
9780		89.843750
9781		83.984375
9782		91.796875
9783		85.937500
9784		93.750000
9785		87.890625
9786		93.750000
9787		87.890625
9788		95.703125
9789		91.796875
9790		93.750000
9791		93.750000
9792		95.703125
9793		91.796875
9794		97.656250
9795		91.796875
9796		99.609375
9797		93.750000
9798		99.609375
9799		93.750000
9800		99.609375
9801		93.750000
9802		101.562500
9803		93.750000
9804		101.562500
9805		95.703125
9806		101.562500
9807		97.656250
9808		101.562500
9809		95.703125
9810		103.515625
9811		97.656250
9812		103.515625
9813		97.656250
9814		103.515625
9815		95.703125
9816		103.515625
9817		97.656250
9818		103.515625
9819		97.656250
9820		103.515625
9821		97.656250
9822		103.515625
9823		99.609375
9824		101.562500
9825		99.609375
9826		101.562500
9827		95.703125
9828		103.515625
9829		95.703125
9830		103.515625
9831		95.703125
9832		103.515625
9833		95.703125
9834		101.562500
9835		93.750000
9836		101.562500
9837		93.750000
9838		101.562500
9839		95.703125
9840		99.609375
9841		95.703125
9842		97.656250
9843		91.796875
9844		97.656250
9845		91.796875
9846		97.656250
9847		89.843750
9848		97.656250
9849		89.843750
9850		97.656250
9851		89.843750
9852		95.703125
9853		87.890625
9854		93.750000
9855		85.937500
9856		93.750000
9857		85.937500
9858		89.843750
9859		82.031250
9860		89.843750
9861		82.031250
9862		89.843750
9863		80.078125
9864		87.890625
9865		78.125000
9866		85.937500
9867		78.125000
9868		83.984375
9869		76.171875
9870		83.984375
9871		74.218750
9872		80.078125
9873		74.218750
9874		78.125000
9875		72.265625
9876		76.171875
9877		68.359375
9878		76.171875
9879		66.406250
9880		74.218750
9881		64.453125
9882		72.265625
9883		60.546875
9884		70.312500
9885		60.546875
9886		68.359375
9887		56.640625
9888		64.453125
9889		56.640625
9890		62.500000
9891		54.687500
9892		58.593750
9893		50.781250
9894		56.640625
9895		48.828125
9896		56.640625
9897		46.875000
9898		54.687500
9899		42.968750
9900		52.734375
9901		41.015625
9902		48.828125
9903		37.109375
9904		46.875000
9905		37.109375
9906		42.968750
9907		35.156250
9908		39.062500
9909		31.250000
9910		37.109375
9911		27.343750
9912		35.156250
9913		25.390625
9914		31.250000
9915		21.484375
9916		29.296875
9917		17.578125
9918		27.343750
9919		15.625000
9920		25.390625
9921		11.718750
9922		21.484375
9923		11.718750
9924		17.578125
9925		7.812500
9926		13.671875
9927		3.906250
9928		9.765625
9929		0.000000
9930		9.765625
9931		-1.953125
9932		5.859375
9933		-5.859375
9934		1.953125
9935		-9.765625
9936		0.000000
9937		-13.671875
9938		-3.906250
9939		-13.671875
9940		-5.859375
9941		-17.578125
9942		-11.718750
9943		-19.531250
9944		-13.671875
9945		-25.390625
9946		-15.625000
9947		-27.343750
9948		-19.531250
9949		-31.250000
9950		-21.484375
9951		-33.203125
9952		-25.390625
9953		-37.109375
9954		-29.296875
9955		-39.062500
9956		-33.203125
9957		-42.968750
9958		-37.109375
9959		-44.921875
9960		-41.015625
9961		-50.781250
9962		-42.968750
9963		-54.687500
9964		-44.921875
9965		-56.640625
9966		-46.875000
9967		-58.593750
9968		-52.734375
9969		-62.500000
9970		-54.687500
9971		-64.453125
9972		-56.640625
9973		-66.406250
9974		-60.546875
9975		-68.359375
9976		-64.453125
9977		-74.218750
9978		-68.359375
9979		-78.125000
9980		-68.359375
9981		-80.078125
9982		-70.312500
9983		-83.984375
9984		-74.218750
9985		-83.984375
9986		-78.125000
9987		-87.890625
9988		-80.078125
9989		-89.843750
9990		-82.031250
9991		-91.796875
9992		-85.937500
9993		-93.750000
9994		-89.843750
9995		-97.656250
9996		-89.843750
9997		-99.609375
9998		-91.796875
9999		-103.515625
10000		-95.703125
