Channel              :		CH1
Frequency            :		1.061kHz
Period               :		0.942ms
PK-PK                :		287.1mV
Probe attenuation    :		1X
Voltage per ADC value:		0.122070mV
Time interval        :		2.00000us

index		CH1_Voltage(mV)
1		62.500000
2		62.500000
3		70.312500
4		58.593750
5		68.359375
6		56.640625
7		62.500000
8		54.687500
9		58.593750
10		48.828125
11		56.640625
12		46.875000
13		54.687500
14		42.968750
15		50.781250
16		39.062500
17		48.828125
18		35.156250
19		44.921875
20		33.203125
21		42.968750
22		31.250000
23		37.109375
24		27.343750
25		33.203125
26		21.484375
27		29.296875
28		19.531250
29		27.343750
30		15.625000
31		23.437500
32		13.671875
33		21.484375
34		7.812500
35		17.578125
36		5.859375
37		13.671875
38		1.953125
39		9.765625
40		0.000000
41		5.859375
42		-3.906250
43		1.953125
44		-9.765625
45		-1.953125
46		-13.671875
47		-5.859375
48		-17.578125
49		-7.812500
50		-21.484375
51		-11.718750
52		-25.390625
53		-15.625000
54		-29.296875
55		-19.531250
56		-31.250000
57		-23.437500
58		-35.156250
59		-29.296875
60		-41.015625
61		-33.203125
62		-42.968750
63		-35.156250
64		-46.875000
65		-39.062500
66		-50.781250
67		-42.968750
68		-54.687500
69		-46.875000
70		-58.593750
71		-50.781250
72		-60.546875
73		-52.734375
74		-64.453125
75		-58.593750
76		-68.359375
77		-62.500000
78		-72.265625
79		-64.453125
80		-76.171875
81		-66.406250
82		-80.078125
83		-70.312500
84		-83.984375
85		-76.171875
86		-85.937500
87		-78.125000
88		-89.843750
89		-82.031250
90		-91.796875
91		-85.937500
92		-95.703125
93		-89.843750
94		-99.609375
95		-93.750000
96		-103.515625
97		-95.703125
98		-105.468750
99		-97.656250
100		-109.375000
101		-101.562500
102		-111.328125
103		-103.515625
104		-115.234375
105		-107.421875
106		-117.187500
107		-109.375000
108		-119.140625
109		-113.281250
110		-123.046875
111		-117.187500
112		-125.000000
113		-117.187500
114		-128.906250
115		-121.093750
116		-130.859375
117		-123.046875
118		-132.812500
119		-125.000000
120		-136.718750
121		-128.906250
122		-136.718750
123		-128.906250
124		-138.671875
125		-132.812500
126		-140.625000
127		-136.718750
128		-144.531250
129		-136.718750
130		-146.484375
131		-138.671875
132		-146.484375
133		-140.625000
134		-148.437500
135		-142.578125
136		-150.390625
137		-142.578125
138		-152.343750
139		-144.531250
140		-152.343750
141		-146.484375
142		-152.343750
143		-148.437500
144		-156.250000
145		-150.390625
146		-156.250000
147		-150.390625
148		-158.203125
149		-150.390625
150		-158.203125
151		-152.343750
152		-158.203125
153		-152.343750
154		-160.156250
155		-152.343750
156		-160.156250
157		-152.343750
158		-158.203125
159		-154.296875
160		-158.203125
161		-154.296875
162		-160.156250
163		-154.296875
164		-162.109375
165		-152.343750
166		-160.156250
167		-154.296875
168		-160.156250
169		-152.343750
170		-160.156250
171		-152.343750
172		-158.203125
173		-152.343750
174		-158.203125
175		-152.343750
176		-156.250000
177		-152.343750
178		-158.203125
179		-150.390625
180		-156.250000
181		-148.437500
182		-154.296875
183		-148.437500
184		-154.296875
185		-146.484375
186		-152.343750
187		-144.531250
188		-152.343750
189		-144.531250
190		-150.390625
191		-144.531250
192		-146.484375
193		-142.578125
194		-144.531250
195		-140.625000
196		-146.484375
197		-136.718750
198		-142.578125
199		-134.765625
200		-140.625000
201		-132.812500
202		-138.671875
203		-130.859375
204		-136.718750
205		-128.906250
206		-134.765625
207		-126.953125
208		-130.859375
209		-125.000000
210		-128.906250
211		-123.046875
212		-126.953125
213		-119.140625
214		-125.000000
215		-117.187500
216		-121.093750
217		-113.281250
218		-119.140625
219		-111.328125
220		-115.234375
221		-107.421875
222		-113.281250
223		-105.468750
224		-109.375000
225		-103.515625
226		-105.468750
227		-99.609375
228		-101.562500
229		-95.703125
230		-99.609375
231		-91.796875
232		-97.656250
233		-89.843750
234		-93.750000
235		-85.937500
236		-89.843750
237		-82.031250
238		-89.843750
239		-78.125000
240		-83.984375
241		-74.218750
242		-78.125000
243		-72.265625
244		-74.218750
245		-70.312500
246		-72.265625
247		-64.453125
248		-68.359375
249		-60.546875
250		-66.406250
251		-56.640625
252		-60.546875
253		-54.687500
254		-58.593750
255		-50.781250
256		-56.640625
257		-44.921875
258		-50.781250
259		-42.968750
260		-46.875000
261		-39.062500
262		-41.015625
263		-35.156250
264		-39.062500
265		-31.250000
266		-35.156250
267		-27.343750
268		-31.250000
269		-23.437500
270		-27.343750
271		-21.484375
272		-23.437500
273		-15.625000
274		-19.531250
275		-13.671875
276		-15.625000
277		-9.765625
278		-11.718750
279		-3.906250
280		-9.765625
281		0.000000
282		-5.859375
283		1.953125
284		-1.953125
285		5.859375
286		1.953125
287		9.765625
288		5.859375
289		13.671875
290		9.765625
291		19.531250
292		13.671875
293		19.531250
294		17.578125
295		23.437500
296		21.484375
297		27.343750
298		23.437500
299		31.250000
300		25.390625
301		35.156250
302		31.250000
303		37.109375
304		33.203125
305		41.015625
306		37.109375
307		44.921875
308		39.062500
309		46.875000
310		44.921875
311		50.781250
312		46.875000
313		54.687500
314		48.828125
315		58.593750
316		52.734375
317		60.546875
318		54.687500
319		62.500000
320		58.593750
321		66.406250
322		60.546875
323		70.312500
324		62.500000
325		70.312500
326		68.359375
327		72.265625
328		70.312500
329		76.171875
330		72.265625
331		80.078125
332		74.218750
333		82.031250
334		78.125000
335		83.984375
336		80.078125
337		85.937500
338		80.078125
339		89.843750
340		83.984375
341		91.796875
342		85.937500
343		91.796875
344		89.843750
345		93.750000
346		91.796875
347		97.656250
348		91.796875
349		99.609375
350		93.750000
351		101.562500
352		95.703125
353		101.562500
354		97.656250
355		103.515625
356		99.609375
357		105.468750
358		101.562500
359		107.421875
360		103.515625
361		107.421875
362		105.468750
363		109.375000
364		105.468750
365		111.328125
366		105.468750
367		113.281250
368		107.421875
369		113.281250
370		107.421875
371		115.234375
372		109.375000
373		117.187500
374		111.328125
375		117.187500
376		113.281250
377		117.187500
378		115.234375
379		117.187500
380		113.281250
381		119.140625
382		113.281250
383		121.093750
384		115.234375
385		121.093750
386		115.234375
387		121.093750
388		115.234375
389		121.093750
390		115.234375
391		121.093750
392		115.234375
393		123.046875
394		119.140625
395		121.093750
396		117.187500
397		123.046875
398		115.234375
399		123.046875
400		117.187500
401		123.046875
402		117.187500
403		123.046875
404		115.234375
405		123.046875
406		115.234375
407		123.046875
408		115.234375
409		121.093750
410		117.187500
411		119.140625
412		117.187500
413		119.140625
414		113.281250
415		121.093750
416		113.281250
417		119.140625
418		111.328125
419		119.140625
420		111.328125
421		117.187500
422		111.328125
423		117.187500
424		109.375000
425		117.187500
426		109.375000
427		115.234375
428		109.375000
429		113.281250
430		107.421875
431		111.328125
432		103.515625
433		111.328125
434		103.515625
435		109.375000
436		101.562500
437		109.375000
438		99.609375
439		109.375000
440		99.609375
441		105.468750
442		97.656250
443		105.468750
444		97.656250
445		101.562500
446		95.703125
447		99.609375
448		91.796875
449		99.609375
450		89.843750
451		95.703125
452		87.890625
453		95.703125
454		85.937500
455		93.750000
456		83.984375
457		89.843750
458		80.078125
459		87.890625
460		80.078125
461		85.937500
462		76.171875
463		82.031250
464		74.218750
465		80.078125
466		70.312500
467		80.078125
468		68.359375
469		76.171875
470		64.453125
471		72.265625
472		62.500000
473		70.312500
474		60.546875
475		66.406250
476		58.593750
477		66.406250
478		56.640625
479		60.546875
480		50.781250
481		58.593750
482		48.828125
483		56.640625
484		42.968750
485		52.734375
486		41.015625
487		48.828125
488		37.109375
489		46.875000
490		35.156250
491		42.968750
492		33.203125
493		39.062500
494		29.296875
495		35.156250
496		25.390625
497		31.250000
498		21.484375
499		29.296875
500		17.578125
501		27.343750
502		13.671875
503		21.484375
504		9.765625
505		19.531250
506		7.812500
507		15.625000
508		1.953125
509		11.718750
510		0.000000
511		7.812500
512		-1.953125
513		1.953125
514		-7.812500
515		0.000000
516		-11.718750
517		-3.906250
518		-15.625000
519		-7.812500
520		-19.531250
521		-11.718750
522		-23.437500
523		-13.671875
524		-27.343750
525		-19.531250
526		-29.296875
527		-21.484375
528		-33.203125
529		-27.343750
530		-37.109375
531		-31.250000
532		-41.015625
533		-33.203125
534		-46.875000
535		-37.109375
536		-48.828125
537		-41.015625
538		-54.687500
539		-44.921875
540		-56.640625
541		-48.828125
542		-60.546875
543		-52.734375
544		-62.500000
545		-56.640625
546		-66.406250
547		-60.546875
548		-72.265625
549		-64.453125
550		-74.218750
551		-66.406250
552		-78.125000
553		-68.359375
554		-83.984375
555		-74.218750
556		-85.937500
557		-78.125000
558		-89.843750
559		-82.031250
560		-91.796875
561		-83.984375
562		-93.750000
563		-87.890625
564		-99.609375
565		-91.796875
566		-101.562500
567		-93.750000
568		-105.468750
569		-95.703125
570		-107.421875
571		-99.609375
572		-111.328125
573		-103.515625
574		-115.234375
575		-105.468750
576		-117.187500
577		-109.375000
578		-119.140625
579		-113.281250
580		-121.093750
581		-115.234375
582		-125.000000
583		-117.187500
584		-128.906250
585		-121.093750
586		-128.906250
587		-123.046875
588		-132.812500
589		-125.000000
590		-134.765625
591		-126.953125
592		-136.718750
593		-130.859375
594		-138.671875
595		-130.859375
596		-140.625000
597		-136.718750
598		-144.531250
599		-136.718750
600		-144.531250
601		-138.671875
602		-148.437500
603		-140.625000
604		-148.437500
605		-142.578125
606		-150.390625
607		-142.578125
608		-152.343750
609		-144.531250
610		-152.343750
611		-146.484375
612		-152.343750
613		-148.437500
614		-154.296875
615		-150.390625
616		-156.250000
617		-150.390625
618		-158.203125
619		-150.390625
620		-158.203125
621		-152.343750
622		-158.203125
623		-152.343750
624		-160.156250
625		-152.343750
626		-160.156250
627		-152.343750
628		-160.156250
629		-154.296875
630		-160.156250
631		-156.250000
632		-160.156250
633		-154.296875
634		-162.109375
635		-154.296875
636		-162.109375
637		-154.296875
638		-160.156250
639		-154.296875
640		-160.156250
641		-154.296875
642		-160.156250
643		-154.296875
644		-160.156250
645		-152.343750
646		-156.250000
647		-154.296875
648		-158.203125
649		-152.343750
650		-156.250000
651		-150.390625
652		-156.250000
653		-150.390625
654		-156.250000
655		-148.437500
656		-154.296875
657		-148.437500
658		-152.343750
659		-146.484375
660		-150.390625
661		-144.531250
662		-150.390625
663		-144.531250
664		-146.484375
665		-142.578125
666		-146.484375
667		-138.671875
668		-144.531250
669		-136.718750
670		-142.578125
671		-136.718750
672		-140.625000
673		-134.765625
674		-140.625000
675		-130.859375
676		-136.718750
677		-128.906250
678		-134.765625
679		-128.906250
680		-130.859375
681		-125.000000
682		-128.906250
683		-121.093750
684		-126.953125
685		-119.140625
686		-123.046875
687		-117.187500
688		-121.093750
689		-113.281250
690		-119.140625
691		-111.328125
692		-115.234375
693		-107.421875
694		-113.281250
695		-103.515625
696		-107.421875
697		-103.515625
698		-105.468750
699		-99.609375
700		-103.515625
701		-95.703125
702		-101.562500
703		-91.796875
704		-95.703125
705		-87.890625
706		-93.750000
707		-85.937500
708		-89.843750
709		-82.031250
710		-87.890625
711		-78.125000
712		-83.984375
713		-76.171875
714		-78.125000
715		-72.265625
716		-74.218750
717		-66.406250
718		-72.265625
719		-64.453125
720		-68.359375
721		-60.546875
722		-64.453125
723		-56.640625
724		-62.500000
725		-52.734375
726		-58.593750
727		-50.781250
728		-54.687500
729		-46.875000
730		-48.828125
731		-42.968750
732		-44.921875
733		-37.109375
734		-42.968750
735		-33.203125
736		-39.062500
737		-29.296875
738		-33.203125
739		-27.343750
740		-31.250000
741		-21.484375
742		-27.343750
743		-19.531250
744		-23.437500
745		-15.625000
746		-17.578125
747		-11.718750
748		-13.671875
749		-7.812500
750		-11.718750
751		-1.953125
752		-9.765625
753		0.000000
754		-3.906250
755		3.906250
756		0.000000
757		7.812500
758		3.906250
759		11.718750
760		7.812500
761		13.671875
762		9.765625
763		17.578125
764		15.625000
765		19.531250
766		17.578125
767		25.390625
768		21.484375
769		29.296875
770		23.437500
771		33.203125
772		27.343750
773		35.156250
774		31.250000
775		39.062500
776		33.203125
777		42.968750
778		37.109375
779		44.921875
780		42.968750
781		48.828125
782		44.921875
783		50.781250
784		46.875000
785		54.687500
786		50.781250
787		58.593750
788		52.734375
789		60.546875
790		56.640625
791		62.500000
792		58.593750
793		66.406250
794		60.546875
795		70.312500
796		66.406250
797		70.312500
798		68.359375
799		74.218750
800		70.312500
801		78.125000
802		72.265625
803		80.078125
804		76.171875
805		82.031250
806		76.171875
807		83.984375
808		78.125000
809		85.937500
810		82.031250
811		89.843750
812		83.984375
813		89.843750
814		87.890625
815		91.796875
816		89.843750
817		95.703125
818		89.843750
819		97.656250
820		91.796875
821		99.609375
822		93.750000
823		101.562500
824		95.703125
825		103.515625
826		97.656250
827		103.515625
828		99.609375
829		105.468750
830		103.515625
831		105.468750
832		103.515625
833		107.421875
834		103.515625
835		109.375000
836		105.468750
837		111.328125
838		105.468750
839		113.281250
840		107.421875
841		115.234375
842		109.375000
843		115.234375
844		109.375000
845		117.187500
846		109.375000
847		117.187500
848		113.281250
849		117.187500
850		113.281250
851		119.140625
852		113.281250
853		121.093750
854		113.281250
855		119.140625
856		113.281250
857		121.093750
858		113.281250
859		121.093750
860		115.234375
861		123.046875
862		115.234375
863		121.093750
864		117.187500
865		121.093750
866		117.187500
867		121.093750
868		115.234375
869		123.046875
870		115.234375
871		123.046875
872		115.234375
873		123.046875
874		115.234375
875		123.046875
876		115.234375
877		123.046875
878		115.234375
879		121.093750
880		115.234375
881		121.093750
882		117.187500
883		119.140625
884		113.281250
885		121.093750
886		113.281250
887		121.093750
888		113.281250
889		119.140625
890		111.328125
891		119.140625
892		111.328125
893		117.187500
894		109.375000
895		117.187500
896		109.375000
897		115.234375
898		109.375000
899		113.281250
900		107.421875
901		111.328125
902		105.468750
903		113.281250
904		105.468750
905		111.328125
906		103.515625
907		109.375000
908		101.562500
909		109.375000
910		99.609375
911		107.421875
912		97.656250
913		105.468750
914		99.609375
915		101.562500
916		95.703125
917		99.609375
918		93.750000
919		99.609375
920		89.843750
921		97.656250
922		87.890625
923		97.656250
924		85.937500
925		95.703125
926		85.937500
927		91.796875
928		82.031250
929		89.843750
930		82.031250
931		87.890625
932		80.078125
933		83.984375
934		76.171875
935		82.031250
936		72.265625
937		80.078125
938		70.312500
939		78.125000
940		66.406250
941		76.171875
942		64.453125
943		72.265625
944		62.500000
945		70.312500
946		60.546875
947		66.406250
948		56.640625
949		62.500000
950		54.687500
951		60.546875
952		50.781250
953		58.593750
954		46.875000
955		54.687500
956		42.968750
957		52.734375
958		41.015625
959		48.828125
960		37.109375
961		46.875000
962		35.156250
963		41.015625
964		31.250000
965		37.109375
966		29.296875
967		33.203125
968		23.437500
969		31.250000
970		21.484375
971		27.343750
972		17.578125
973		25.390625
974		11.718750
975		21.484375
976		9.765625
977		17.578125
978		5.859375
979		15.625000
980		1.953125
981		9.765625
982		0.000000
983		5.859375
984		-3.906250
985		1.953125
986		-9.765625
987		0.000000
988		-13.671875
989		-5.859375
990		-15.625000
991		-7.812500
992		-19.531250
993		-11.718750
994		-25.390625
995		-15.625000
996		-27.343750
997		-19.531250
998		-29.296875
999		-23.437500
1000		-33.203125
1001		-27.343750
1002		-39.062500
1003		-31.250000
1004		-42.968750
1005		-33.203125
1006		-46.875000
1007		-39.062500
1008		-48.828125
1009		-42.968750
1010		-54.687500
1011		-44.921875
1012		-58.593750
1013		-48.828125
1014		-60.546875
1015		-52.734375
1016		-64.453125
1017		-58.593750
1018		-68.359375
1019		-62.500000
1020		-74.218750
1021		-64.453125
1022		-76.171875
1023		-68.359375
1024		-80.078125
1025		-70.312500
1026		-82.031250
1027		-76.171875
1028		-85.937500
1029		-78.125000
1030		-89.843750
1031		-80.078125
1032		-91.796875
1033		-85.937500
1034		-93.750000
1035		-89.843750
1036		-97.656250
1037		-91.796875
1038		-103.515625
1039		-93.750000
1040		-105.468750
1041		-97.656250
1042		-109.375000
1043		-99.609375
1044		-111.328125
1045		-105.468750
1046		-115.234375
1047		-107.421875
1048		-117.187500
1049		-109.375000
1050		-119.140625
1051		-113.281250
1052		-123.046875
1053		-117.187500
1054		-125.000000
1055		-117.187500
1056		-128.906250
1057		-121.093750
1058		-132.812500
1059		-123.046875
1060		-132.812500
1061		-125.000000
1062		-134.765625
1063		-128.906250
1064		-136.718750
1065		-130.859375
1066		-138.671875
1067		-132.812500
1068		-140.625000
1069		-134.765625
1070		-142.578125
1071		-136.718750
1072		-146.484375
1073		-138.671875
1074		-146.484375
1075		-140.625000
1076		-148.437500
1077		-142.578125
1078		-150.390625
1079		-142.578125
1080		-152.343750
1081		-144.531250
1082		-150.390625
1083		-146.484375
1084		-152.343750
1085		-148.437500
1086		-156.250000
1087		-148.437500
1088		-156.250000
1089		-150.390625
1090		-158.203125
1091		-150.390625
1092		-158.203125
1093		-152.343750
1094		-158.203125
1095		-150.390625
1096		-160.156250
1097		-152.343750
1098		-158.203125
1099		-154.296875
1100		-158.203125
1101		-156.250000
1102		-158.203125
1103		-156.250000
1104		-162.109375
1105		-154.296875
1106		-160.156250
1107		-154.296875
1108		-160.156250
1109		-154.296875
1110		-160.156250
1111		-154.296875
1112		-160.156250
1113		-154.296875
1114		-160.156250
1115		-154.296875
1116		-158.203125
1117		-154.296875
1118		-156.250000
1119		-154.296875
1120		-158.203125
1121		-152.343750
1122		-158.203125
1123		-150.390625
1124		-156.250000
1125		-148.437500
1126		-156.250000
1127		-148.437500
1128		-154.296875
1129		-146.484375
1130		-152.343750
1131		-146.484375
1132		-150.390625
1133		-144.531250
1134		-148.437500
1135		-144.531250
1136		-146.484375
1137		-140.625000
1138		-146.484375
1139		-138.671875
1140		-144.531250
1141		-136.718750
1142		-142.578125
1143		-134.765625
1144		-140.625000
1145		-132.812500
1146		-138.671875
1147		-130.859375
1148		-136.718750
1149		-130.859375
1150		-132.812500
1151		-126.953125
1152		-130.859375
1153		-125.000000
1154		-128.906250
1155		-121.093750
1156		-126.953125
1157		-119.140625
1158		-123.046875
1159		-115.234375
1160		-121.093750
1161		-111.328125
1162		-117.187500
1163		-109.375000
1164		-115.234375
1165		-107.421875
1166		-111.328125
1167		-105.468750
1168		-107.421875
1169		-101.562500
1170		-105.468750
1171		-97.656250
1172		-101.562500
1173		-93.750000
1174		-99.609375
1175		-91.796875
1176		-95.703125
1177		-87.890625
1178		-93.750000
1179		-83.984375
1180		-89.843750
1181		-80.078125
1182		-85.937500
1183		-78.125000
1184		-80.078125
1185		-74.218750
1186		-76.171875
1187		-70.312500
1188		-74.218750
1189		-66.406250
1190		-70.312500
1191		-62.500000
1192		-68.359375
1193		-60.546875
1194		-64.453125
1195		-54.687500
1196		-60.546875
1197		-50.781250
1198		-56.640625
1199		-46.875000
1200		-50.781250
1201		-44.921875
1202		-46.875000
1203		-41.015625
1204		-42.968750
1205		-37.109375
1206		-41.015625
1207		-31.250000
1208		-37.109375
1209		-29.296875
1210		-33.203125
1211		-25.390625
1212		-29.296875
1213		-21.484375
1214		-25.390625
1215		-17.578125
1216		-21.484375
1217		-13.671875
1218		-17.578125
1219		-11.718750
1220		-13.671875
1221		-5.859375
1222		-11.718750
1223		-1.953125
1224		-7.812500
1225		1.953125
1226		-3.906250
1227		3.906250
1228		0.000000
1229		9.765625
1230		3.906250
1231		11.718750
1232		7.812500
1233		15.625000
1234		11.718750
1235		17.578125
1236		15.625000
1237		21.484375
1238		17.578125
1239		27.343750
1240		21.484375
1241		29.296875
1242		25.390625
1243		33.203125
1244		27.343750
1245		37.109375
1246		33.203125
1247		39.062500
1248		35.156250
1249		42.968750
1250		39.062500
1251		44.921875
1252		42.968750
1253		48.828125
1254		46.875000
1255		52.734375
1256		46.875000
1257		56.640625
1258		48.828125
1259		58.593750
1260		54.687500
1261		62.500000
1262		56.640625
1263		66.406250
1264		58.593750
1265		66.406250
1266		62.500000
1267		70.312500
1268		66.406250
1269		72.265625
1270		68.359375
1271		76.171875
1272		70.312500
1273		78.125000
1274		72.265625
1275		82.031250
1276		76.171875
1277		82.031250
1278		78.125000
1279		85.937500
1280		80.078125
1281		87.890625
1282		82.031250
1283		89.843750
1284		85.937500
1285		91.796875
1286		87.890625
1287		93.750000
1288		89.843750
1289		95.703125
1290		91.796875
1291		97.656250
1292		93.750000
1293		99.609375
1294		93.750000
1295		101.562500
1296		95.703125
1297		105.468750
1298		97.656250
1299		105.468750
1300		99.609375
1301		105.468750
1302		103.515625
1303		107.421875
1304		103.515625
1305		109.375000
1306		103.515625
1307		111.328125
1308		105.468750
1309		113.281250
1310		105.468750
1311		113.281250
1312		107.421875
1313		115.234375
1314		109.375000
1315		115.234375
1316		111.328125
1317		117.187500
1318		113.281250
1319		117.187500
1320		113.281250
1321		117.187500
1322		113.281250
1323		119.140625
1324		113.281250
1325		121.093750
1326		115.234375
1327		121.093750
1328		115.234375
1329		121.093750
1330		115.234375
1331		121.093750
1332		115.234375
1333		121.093750
1334		115.234375
1335		121.093750
1336		117.187500
1337		121.093750
1338		117.187500
1339		123.046875
1340		115.234375
1341		123.046875
1342		115.234375
1343		123.046875
1344		115.234375
1345		123.046875
1346		115.234375
1347		123.046875
1348		115.234375
1349		121.093750
1350		115.234375
1351		121.093750
1352		117.187500
1353		119.140625
1354		115.234375
1355		121.093750
1356		113.281250
1357		121.093750
1358		113.281250
1359		121.093750
1360		113.281250
1361		119.140625
1362		111.328125
1363		119.140625
1364		111.328125
1365		117.187500
1366		109.375000
1367		117.187500
1368		111.328125
1369		115.234375
1370		109.375000
1371		113.281250
1372		105.468750
1373		113.281250
1374		105.468750
1375		113.281250
1376		103.515625
1377		111.328125
1378		103.515625
1379		109.375000
1380		101.562500
1381		109.375000
1382		99.609375
1383		107.421875
1384		97.656250
1385		105.468750
1386		97.656250
1387		101.562500
1388		93.750000
1389		99.609375
1390		91.796875
1391		99.609375
1392		89.843750
1393		97.656250
1394		87.890625
1395		95.703125
1396		85.937500
1397		93.750000
1398		83.984375
1399		91.796875
1400		82.031250
1401		89.843750
1402		82.031250
1403		85.937500
1404		78.125000
1405		83.984375
1406		74.218750
1407		82.031250
1408		72.265625
1409		78.125000
1410		70.312500
1411		78.125000
1412		66.406250
1413		74.218750
1414		62.500000
1415		72.265625
1416		60.546875
1417		70.312500
1418		58.593750
1419		66.406250
1420		56.640625
1421		62.500000
1422		52.734375
1423		58.593750
1424		48.828125
1425		56.640625
1426		46.875000
1427		54.687500
1428		42.968750
1429		50.781250
1430		39.062500
1431		46.875000
1432		35.156250
1433		44.921875
1434		35.156250
1435		41.015625
1436		31.250000
1437		37.109375
1438		27.343750
1439		33.203125
1440		21.484375
1441		31.250000
1442		19.531250
1443		27.343750
1444		15.625000
1445		23.437500
1446		11.718750
1447		19.531250
1448		7.812500
1449		17.578125
1450		5.859375
1451		13.671875
1452		1.953125
1453		7.812500
1454		-1.953125
1455		3.906250
1456		-7.812500
1457		0.000000
1458		-9.765625
1459		-1.953125
1460		-13.671875
1461		-5.859375
1462		-17.578125
1463		-9.765625
1464		-21.484375
1465		-11.718750
1466		-25.390625
1467		-17.578125
1468		-27.343750
1469		-21.484375
1470		-31.250000
1471		-25.390625
1472		-35.156250
1473		-29.296875
1474		-39.062500
1475		-31.250000
1476		-44.921875
1477		-37.109375
1478		-48.828125
1479		-39.062500
1480		-52.734375
1481		-42.968750
1482		-54.687500
1483		-46.875000
1484		-58.593750
1485		-50.781250
1486		-60.546875
1487		-54.687500
1488		-64.453125
1489		-58.593750
1490		-70.312500
1491		-62.500000
1492		-72.265625
1493		-64.453125
1494		-76.171875
1495		-68.359375
1496		-82.031250
1497		-72.265625
1498		-83.984375
1499		-74.218750
1500		-87.890625
1501		-78.125000
1502		-89.843750
1503		-83.984375
1504		-91.796875
1505		-85.937500
1506		-97.656250
1507		-89.843750
1508		-99.609375
1509		-91.796875
1510		-103.515625
1511		-95.703125
1512		-107.421875
1513		-99.609375
1514		-109.375000
1515		-101.562500
1516		-113.281250
1517		-105.468750
1518		-113.281250
1519		-107.421875
1520		-117.187500
1521		-111.328125
1522		-119.140625
1523		-115.234375
1524		-125.000000
1525		-115.234375
1526		-126.953125
1527		-117.187500
1528		-128.906250
1529		-123.046875
1530		-130.859375
1531		-125.000000
1532		-132.812500
1533		-126.953125
1534		-136.718750
1535		-128.906250
1536		-136.718750
1537		-132.812500
1538		-138.671875
1539		-134.765625
1540		-142.578125
1541		-136.718750
1542		-144.531250
1543		-136.718750
1544		-146.484375
1545		-138.671875
1546		-148.437500
1547		-140.625000
1548		-148.437500
1549		-142.578125
1550		-150.390625
1551		-142.578125
1552		-152.343750
1553		-144.531250
1554		-152.343750
1555		-148.437500
1556		-154.296875
1557		-148.437500
1558		-156.250000
1559		-148.437500
1560		-156.250000
1561		-150.390625
1562		-158.203125
1563		-150.390625
1564		-158.203125
1565		-150.390625
1566		-160.156250
1567		-152.343750
1568		-160.156250
1569		-152.343750
1570		-158.203125
1571		-154.296875
1572		-158.203125
1573		-154.296875
1574		-160.156250
1575		-154.296875
1576		-160.156250
1577		-154.296875
1578		-162.109375
1579		-152.343750
1580		-160.156250
1581		-154.296875
1582		-160.156250
1583		-154.296875
1584		-160.156250
1585		-152.343750
1586		-158.203125
1587		-154.296875
1588		-156.250000
1589		-154.296875
1590		-158.203125
1591		-152.343750
1592		-158.203125
1593		-150.390625
1594		-156.250000
1595		-150.390625
1596		-156.250000
1597		-148.437500
1598		-154.296875
1599		-146.484375
1600		-152.343750
1601		-146.484375
1602		-150.390625
1603		-146.484375
1604		-148.437500
1605		-144.531250
1606		-146.484375
1607		-142.578125
1608		-146.484375
1609		-140.625000
1610		-144.531250
1611		-136.718750
1612		-142.578125
1613		-136.718750
1614		-140.625000
1615		-134.765625
1616		-138.671875
1617		-130.859375
1618		-136.718750
1619		-128.906250
1620		-132.812500
1621		-128.906250
1622		-130.859375
1623		-125.000000
1624		-128.906250
1625		-123.046875
1626		-128.906250
1627		-119.140625
1628		-125.000000
1629		-117.187500
1630		-121.093750
1631		-113.281250
1632		-119.140625
1633		-111.328125
1634		-117.187500
1635		-107.421875
1636		-111.328125
1637		-107.421875
1638		-109.375000
1639		-103.515625
1640		-105.468750
1641		-99.609375
1642		-103.515625
1643		-95.703125
1644		-99.609375
1645		-93.750000
1646		-97.656250
1647		-89.843750
1648		-93.750000
1649		-85.937500
1650		-91.796875
1651		-82.031250
1652		-85.937500
1653		-80.078125
1654		-82.031250
1655		-76.171875
1656		-78.125000
1657		-74.218750
1658		-76.171875
1659		-68.359375
1660		-74.218750
1661		-64.453125
1662		-70.312500
1663		-62.500000
1664		-66.406250
1665		-56.640625
1666		-62.500000
1667		-54.687500
1668		-58.593750
1669		-50.781250
1670		-54.687500
1671		-46.875000
1672		-48.828125
1673		-42.968750
1674		-44.921875
1675		-39.062500
1676		-42.968750
1677		-33.203125
1678		-39.062500
1679		-31.250000
1680		-35.156250
1681		-27.343750
1682		-31.250000
1683		-23.437500
1684		-27.343750
1685		-19.531250
1686		-23.437500
1687		-15.625000
1688		-19.531250
1689		-13.671875
1690		-15.625000
1691		-7.812500
1692		-13.671875
1693		-3.906250
1694		-9.765625
1695		0.000000
1696		-5.859375
1697		3.906250
1698		-1.953125
1699		7.812500
1700		1.953125
1701		9.765625
1702		5.859375
1703		13.671875
1704		9.765625
1705		15.625000
1706		13.671875
1707		19.531250
1708		17.578125
1709		25.390625
1710		21.484375
1711		29.296875
1712		23.437500
1713		31.250000
1714		27.343750
1715		35.156250
1716		29.296875
1717		37.109375
1718		33.203125
1719		41.015625
1720		37.109375
1721		42.968750
1722		41.015625
1723		46.875000
1724		44.921875
1725		50.781250
1726		44.921875
1727		54.687500
1728		48.828125
1729		58.593750
1730		52.734375
1731		60.546875
1732		54.687500
1733		62.500000
1734		56.640625
1735		66.406250
1736		60.546875
1737		68.359375
1738		64.453125
1739		70.312500
1740		68.359375
1741		72.265625
1742		68.359375
1743		76.171875
1744		70.312500
1745		80.078125
1746		74.218750
1747		82.031250
1748		76.171875
1749		83.984375
1750		78.125000
1751		85.937500
1752		80.078125
1753		87.890625
1754		83.984375
1755		89.843750
1756		87.890625
1757		91.796875
1758		87.890625
1759		95.703125
1760		89.843750
1761		95.703125
1762		91.796875
1763		99.609375
1764		93.750000
1765		101.562500
1766		95.703125
1767		103.515625
1768		97.656250
1769		105.468750
1770		99.609375
1771		105.468750
1772		101.562500
1773		107.421875
1774		103.515625
1775		107.421875
1776		103.515625
1777		109.375000
1778		105.468750
1779		111.328125
1780		105.468750
1781		113.281250
1782		107.421875
1783		113.281250
1784		109.375000
1785		115.234375
1786		109.375000
1787		117.187500
1788		111.328125
1789		115.234375
1790		113.281250
1791		117.187500
1792		113.281250
1793		119.140625
1794		113.281250
1795		119.140625
1796		113.281250
1797		119.140625
1798		113.281250
1799		121.093750
1800		115.234375
1801		121.093750
1802		115.234375
1803		121.093750
1804		115.234375
1805		121.093750
1806		117.187500
1807		121.093750
1808		117.187500
1809		121.093750
1810		117.187500
1811		123.046875
1812		115.234375
1813		123.046875
1814		115.234375
1815		123.046875
1816		115.234375
1817		123.046875
1818		115.234375
1819		123.046875
1820		115.234375
1821		123.046875
1822		117.187500
1823		121.093750
1824		117.187500
1825		119.140625
1826		113.281250
1827		119.140625
1828		113.281250
1829		121.093750
1830		113.281250
1831		119.140625
1832		113.281250
1833		119.140625
1834		111.328125
1835		119.140625
1836		111.328125
1837		117.187500
1838		109.375000
1839		115.234375
1840		111.328125
1841		115.234375
1842		107.421875
1843		113.281250
1844		105.468750
1845		113.281250
1846		105.468750
1847		111.328125
1848		103.515625
1849		109.375000
1850		101.562500
1851		109.375000
1852		99.609375
1853		107.421875
1854		99.609375
1855		105.468750
1856		99.609375
1857		103.515625
1858		97.656250
1859		101.562500
1860		93.750000
1861		99.609375
1862		91.796875
1863		99.609375
1864		89.843750
1865		95.703125
1866		87.890625
1867		95.703125
1868		85.937500
1869		91.796875
1870		83.984375
1871		89.843750
1872		82.031250
1873		87.890625
1874		80.078125
1875		85.937500
1876		76.171875
1877		82.031250
1878		74.218750
1879		82.031250
1880		70.312500
1881		78.125000
1882		68.359375
1883		76.171875
1884		66.406250
1885		74.218750
1886		62.500000
1887		70.312500
1888		60.546875
1889		68.359375
1890		58.593750
1891		64.453125
1892		54.687500
1893		60.546875
1894		50.781250
1895		58.593750
1896		48.828125
1897		56.640625
1898		44.921875
1899		52.734375
1900		41.015625
1901		50.781250
1902		39.062500
1903		46.875000
1904		35.156250
1905		42.968750
1906		33.203125
1907		39.062500
1908		29.296875
1909		35.156250
1910		23.437500
1911		31.250000
1912		21.484375
1913		31.250000
1914		19.531250
1915		27.343750
1916		13.671875
1917		23.437500
1918		9.765625
1919		19.531250
1920		5.859375
1921		15.625000
1922		5.859375
1923		11.718750
1924		1.953125
1925		7.812500
1926		-3.906250
1927		3.906250
1928		-7.812500
1929		1.953125
1930		-11.718750
1931		-3.906250
1932		-13.671875
1933		-5.859375
1934		-17.578125
1935		-9.765625
1936		-21.484375
1937		-13.671875
1938		-25.390625
1939		-17.578125
1940		-29.296875
1941		-23.437500
1942		-33.203125
1943		-27.343750
1944		-37.109375
1945		-31.250000
1946		-41.015625
1947		-33.203125
1948		-44.921875
1949		-37.109375
1950		-48.828125
1951		-41.015625
1952		-50.781250
1953		-44.921875
1954		-56.640625
1955		-48.828125
1956		-58.593750
1957		-52.734375
1958		-62.500000
1959		-56.640625
1960		-68.359375
1961		-60.546875
1962		-70.312500
1963		-62.500000
1964		-74.218750
1965		-64.453125
1966		-78.125000
1967		-70.312500
1968		-82.031250
1969		-74.218750
1970		-83.984375
1971		-78.125000
1972		-87.890625
1973		-80.078125
1974		-89.843750
1975		-85.937500
1976		-93.750000
1977		-87.890625
1978		-97.656250
1979		-89.843750
1980		-101.562500
1981		-93.750000
1982		-105.468750
1983		-97.656250
1984		-107.421875
1985		-99.609375
1986		-111.328125
1987		-103.515625
1988		-113.281250
1989		-105.468750
1990		-115.234375
1991		-109.375000
1992		-119.140625
1993		-113.281250
1994		-123.046875
1995		-115.234375
1996		-125.000000
1997		-117.187500
1998		-128.906250
1999		-119.140625
2000		-128.906250
2001		-121.093750
2002		-132.812500
2003		-125.000000
2004		-136.718750
2005		-126.953125
2006		-136.718750
2007		-128.906250
2008		-136.718750
2009		-132.812500
2010		-140.625000
2011		-134.765625
2012		-142.578125
2013		-134.765625
2014		-144.531250
2015		-138.671875
2016		-148.437500
2017		-140.625000
2018		-148.437500
2019		-142.578125
2020		-150.390625
2021		-142.578125
2022		-152.343750
2023		-144.531250
2024		-150.390625
2025		-146.484375
2026		-152.343750
2027		-148.437500
2028		-156.250000
2029		-148.437500
2030		-156.250000
2031		-150.390625
2032		-158.203125
2033		-150.390625
2034		-158.203125
2035		-150.390625
2036		-160.156250
2037		-152.343750
2038		-160.156250
2039		-152.343750
2040		-160.156250
2041		-154.296875
2042		-158.203125
2043		-156.250000
2044		-160.156250
2045		-154.296875
2046		-160.156250
2047		-154.296875
2048		-162.109375
2049		-154.296875
2050		-162.109375
2051		-154.296875
2052		-160.156250
2053		-154.296875
2054		-160.156250
2055		-154.296875
2056		-160.156250
2057		-154.296875
2058		-158.203125
2059		-154.296875
2060		-158.203125
2061		-154.296875
2062		-158.203125
2063		-152.343750
2064		-158.203125
2065		-150.390625
2066		-156.250000
2067		-150.390625
2068		-156.250000
2069		-148.437500
2070		-154.296875
2071		-148.437500
2072		-154.296875
2073		-146.484375
2074		-150.390625
2075		-146.484375
2076		-148.437500
2077		-144.531250
2078		-148.437500
2079		-140.625000
2080		-146.484375
2081		-140.625000
2082		-146.484375
2083		-138.671875
2084		-142.578125
2085		-134.765625
2086		-142.578125
2087		-132.812500
2088		-138.671875
2089		-130.859375
2090		-138.671875
2091		-130.859375
2092		-132.812500
2093		-128.906250
2094		-130.859375
2095		-125.000000
2096		-128.906250
2097		-121.093750
2098		-128.906250
2099		-119.140625
2100		-125.000000
2101		-117.187500
2102		-123.046875
2103		-113.281250
2104		-119.140625
2105		-109.375000
2106		-115.234375
2107		-107.421875
2108		-111.328125
2109		-105.468750
2110		-109.375000
2111		-103.515625
2112		-105.468750
2113		-97.656250
2114		-103.515625
2115		-95.703125
2116		-99.609375
2117		-91.796875
2118		-97.656250
2119		-89.843750
2120		-93.750000
2121		-85.937500
2122		-89.843750
2123		-80.078125
2124		-87.890625
2125		-80.078125
2126		-82.031250
2127		-76.171875
2128		-78.125000
2129		-70.312500
2130		-76.171875
2131		-68.359375
2132		-74.218750
2133		-64.453125
2134		-70.312500
2135		-60.546875
2136		-64.453125
2137		-56.640625
2138		-62.500000
2139		-52.734375
2140		-58.593750
2141		-50.781250
2142		-52.734375
2143		-46.875000
2144		-48.828125
2145		-42.968750
2146		-46.875000
2147		-37.109375
2148		-42.968750
2149		-35.156250
2150		-39.062500
2151		-29.296875
2152		-35.156250
2153		-27.343750
2154		-31.250000
2155		-23.437500
2156		-29.296875
2157		-17.578125
2158		-23.437500
2159		-15.625000
2160		-17.578125
2161		-11.718750
2162		-13.671875
2163		-7.812500
2164		-13.671875
2165		-3.906250
2166		-7.812500
2167		0.000000
2168		-3.906250
2169		3.906250
2170		-1.953125
2171		7.812500
2172		1.953125
2173		11.718750
2174		5.859375
2175		13.671875
2176		11.718750
2177		17.578125
2178		13.671875
2179		21.484375
2180		17.578125
2181		25.390625
2182		19.531250
2183		29.296875
2184		25.390625
2185		31.250000
2186		27.343750
2187		35.156250
2188		29.296875
2189		39.062500
2190		35.156250
2191		41.015625
2192		39.062500
2193		44.921875
2194		41.015625
2195		46.875000
2196		42.968750
2197		50.781250
2198		46.875000
2199		54.687500
2200		48.828125
2201		56.640625
2202		52.734375
2203		60.546875
2204		56.640625
2205		64.453125
2206		58.593750
2207		66.406250
2208		62.500000
2209		68.359375
2210		66.406250
2211		70.312500
2212		68.359375
2213		74.218750
2214		68.359375
2215		76.171875
2216		72.265625
2217		78.125000
2218		74.218750
2219		82.031250
2220		78.125000
2221		83.984375
2222		78.125000
2223		85.937500
2224		82.031250
2225		87.890625
2226		85.937500
2227		89.843750
2228		87.890625
2229		91.796875
2230		87.890625
2231		95.703125
2232		89.843750
2233		97.656250
2234		91.796875
2235		99.609375
2236		93.750000
2237		101.562500
2238		95.703125
2239		103.515625
2240		97.656250
2241		103.515625
2242		99.609375
2243		103.515625
2244		101.562500
2245		105.468750
2246		101.562500
2247		109.375000
2248		101.562500
2249		111.328125
2250		105.468750
2251		111.328125
2252		105.468750
2253		113.281250
2254		107.421875
2255		115.234375
2256		107.421875
2257		115.234375
2258		109.375000
2259		115.234375
2260		113.281250
2261		115.234375
2262		113.281250
2263		117.187500
2264		111.328125
2265		119.140625
2266		113.281250
2267		119.140625
2268		113.281250
2269		121.093750
2270		113.281250
2271		121.093750
2272		115.234375
2273		121.093750
2274		115.234375
2275		121.093750
2276		117.187500
2277		121.093750
2278		117.187500
2279		121.093750
2280		115.234375
2281		123.046875
2282		117.187500
2283		121.093750
2284		115.234375
2285		121.093750
2286		115.234375
2287		121.093750
2288		115.234375
2289		121.093750
2290		115.234375
2291		123.046875
2292		115.234375
2293		121.093750
2294		117.187500
2295		119.140625
2296		113.281250
2297		119.140625
2298		113.281250
2299		121.093750
2300		113.281250
2301		119.140625
2302		113.281250
2303		119.140625
2304		111.328125
2305		119.140625
2306		111.328125
2307		117.187500
2308		109.375000
2309		117.187500
2310		111.328125
2311		113.281250
2312		109.375000
2313		113.281250
2314		107.421875
2315		113.281250
2316		105.468750
2317		111.328125
2318		103.515625
2319		111.328125
2320		101.562500
2321		111.328125
2322		101.562500
2323		109.375000
2324		99.609375
2325		107.421875
2326		99.609375
2327		105.468750
2328		97.656250
2329		101.562500
2330		93.750000
2331		101.562500
2332		91.796875
2333		99.609375
2334		89.843750
2335		99.609375
2336		89.843750
2337		95.703125
2338		85.937500
2339		93.750000
2340		83.984375
2341		91.796875
2342		83.984375
2343		89.843750
2344		82.031250
2345		85.937500
2346		80.078125
2347		83.984375
2348		74.218750
2349		83.984375
2350		72.265625
2351		80.078125
2352		68.359375
2353		78.125000
2354		66.406250
2355		76.171875
2356		64.453125
2357		74.218750
2358		62.500000
2359		68.359375
2360		60.546875
2361		66.406250
2362		56.640625
2363		62.500000
2364		52.734375
2365		60.546875
2366		48.828125
2367		58.593750
2368		46.875000
2369		54.687500
2370		42.968750
2371		50.781250
2372		39.062500
2373		46.875000
2374		37.109375
2375		44.921875
2376		35.156250
2377		42.968750
2378		31.250000
2379		37.109375
2380		27.343750
2381		33.203125
2382		23.437500
2383		31.250000
2384		21.484375
2385		29.296875
2386		15.625000
2387		23.437500
2388		11.718750
2389		21.484375
2390		7.812500
2391		17.578125
2392		5.859375
2393		13.671875
2394		3.906250
2395		9.765625
2396		0.000000
2397		5.859375
2398		-5.859375
2399		1.953125
2400		-9.765625
2401		0.000000
2402		-13.671875
2403		-3.906250
2404		-15.625000
2405		-7.812500
2406		-21.484375
2407		-11.718750
2408		-25.390625
2409		-15.625000
2410		-27.343750
2411		-19.531250
2412		-31.250000
2413		-25.390625
2414		-37.109375
2415		-29.296875
2416		-41.015625
2417		-31.250000
2418		-42.968750
2419		-35.156250
2420		-46.875000
2421		-39.062500
2422		-50.781250
2423		-41.015625
2424		-52.734375
2425		-46.875000
2426		-56.640625
2427		-48.828125
2428		-60.546875
2429		-54.687500
2430		-64.453125
2431		-58.593750
2432		-68.359375
2433		-60.546875
2434		-74.218750
2435		-64.453125
2436		-76.171875
2437		-68.359375
2438		-80.078125
2439		-70.312500
2440		-83.984375
2441		-74.218750
2442		-85.937500
2443		-76.171875
2444		-87.890625
2445		-82.031250
2446		-91.796875
2447		-85.937500
2448		-95.703125
2449		-89.843750
2450		-99.609375
2451		-91.796875
2452		-103.515625
2453		-93.750000
2454		-105.468750
2455		-97.656250
2456		-109.375000
2457		-101.562500
2458		-111.328125
2459		-103.515625
2460		-113.281250
2461		-107.421875
2462		-117.187500
2463		-111.328125
2464		-121.093750
2465		-113.281250
2466		-123.046875
2467		-115.234375
2468		-126.953125
2469		-117.187500
2470		-128.906250
2471		-121.093750
2472		-130.859375
2473		-123.046875
2474		-132.812500
2475		-125.000000
2476		-136.718750
2477		-126.953125
2478		-136.718750
2479		-132.812500
2480		-138.671875
2481		-132.812500
2482		-142.578125
2483		-134.765625
2484		-144.531250
2485		-136.718750
2486		-146.484375
2487		-138.671875
2488		-146.484375
2489		-140.625000
2490		-148.437500
2491		-142.578125
2492		-150.390625
2493		-144.531250
2494		-150.390625
2495		-144.531250
2496		-152.343750
2497		-148.437500
2498		-156.250000
2499		-146.484375
2500		-156.250000
2501		-148.437500
2502		-158.203125
2503		-150.390625
2504		-158.203125
2505		-150.390625
2506		-158.203125
2507		-152.343750
2508		-158.203125
2509		-152.343750
2510		-160.156250
2511		-152.343750
2512		-158.203125
2513		-156.250000
2514		-160.156250
2515		-156.250000
2516		-162.109375
2517		-154.296875
2518		-162.109375
2519		-154.296875
2520		-162.109375
2521		-154.296875
2522		-160.156250
2523		-154.296875
2524		-160.156250
2525		-154.296875
2526		-160.156250
2527		-154.296875
2528		-158.203125
2529		-154.296875
2530		-158.203125
2531		-154.296875
2532		-158.203125
2533		-152.343750
2534		-158.203125
2535		-150.390625
2536		-156.250000
2537		-150.390625
2538		-156.250000
2539		-148.437500
2540		-154.296875
2541		-148.437500
2542		-154.296875
2543		-146.484375
2544		-152.343750
2545		-146.484375
2546		-148.437500
2547		-144.531250
2548		-148.437500
2549		-142.578125
2550		-148.437500
2551		-140.625000
2552		-146.484375
2553		-138.671875
2554		-144.531250
2555		-136.718750
2556		-142.578125
2557		-134.765625
2558		-140.625000
2559		-132.812500
2560		-136.718750
2561		-130.859375
2562		-134.765625
2563		-128.906250
2564		-132.812500
2565		-126.953125
2566		-130.859375
2567		-123.046875
2568		-128.906250
2569		-121.093750
2570		-125.000000
2571		-117.187500
2572		-123.046875
2573		-117.187500
2574		-121.093750
2575		-111.328125
2576		-117.187500
2577		-109.375000
2578		-113.281250
2579		-107.421875
2580		-109.375000
2581		-105.468750
2582		-107.421875
2583		-101.562500
2584		-105.468750
2585		-97.656250
2586		-101.562500
2587		-93.750000
2588		-99.609375
2589		-91.796875
2590		-95.703125
2591		-87.890625
2592		-91.796875
2593		-83.984375
2594		-89.843750
2595		-82.031250
2596		-83.984375
2597		-78.125000
2598		-80.078125
2599		-74.218750
2600		-78.125000
2601		-70.312500
2602		-74.218750
2603		-66.406250
2604		-70.312500
2605		-62.500000
2606		-66.406250
2607		-58.593750
2608		-64.453125
2609		-54.687500
2610		-60.546875
2611		-50.781250
2612		-54.687500
2613		-48.828125
2614		-50.781250
2615		-44.921875
2616		-46.875000
2617		-39.062500
2618		-44.921875
2619		-37.109375
2620		-41.015625
2621		-31.250000
2622		-37.109375
2623		-27.343750
2624		-33.203125
2625		-25.390625
2626		-29.296875
2627		-21.484375
2628		-27.343750
2629		-17.578125
2630		-19.531250
2631		-15.625000
2632		-17.578125
2633		-11.718750
2634		-15.625000
2635		-5.859375
2636		-11.718750
2637		-1.953125
2638		-7.812500
2639		1.953125
2640		-1.953125
2641		5.859375
2642		0.000000
2643		9.765625
2644		3.906250
2645		11.718750
2646		9.765625
2647		13.671875
2648		11.718750
2649		17.578125
2650		15.625000
2651		23.437500
2652		17.578125
2653		25.390625
2654		21.484375
2655		29.296875
2656		25.390625
2657		33.203125
2658		27.343750
2659		37.109375
2660		31.250000
2661		41.015625
2662		35.156250
2663		42.968750
2664		41.015625
2665		44.921875
2666		42.968750
2667		48.828125
2668		44.921875
2669		52.734375
2670		46.875000
2671		54.687500
2672		50.781250
2673		58.593750
2674		52.734375
2675		62.500000
2676		58.593750
2677		64.453125
2678		60.546875
2679		66.406250
2680		64.453125
2681		68.359375
2682		66.406250
2683		72.265625
2684		68.359375
2685		76.171875
2686		70.312500
2687		78.125000
2688		72.265625
2689		80.078125
2690		76.171875
2691		82.031250
2692		78.125000
2693		85.937500
2694		80.078125
2695		89.843750
2696		83.984375
2697		87.890625
2698		85.937500
2699		91.796875
2700		89.843750
2701		95.703125
2702		87.890625
2703		95.703125
2704		89.843750
2705		99.609375
2706		93.750000
2707		99.609375
2708		95.703125
2709		101.562500
2710		95.703125
2711		103.515625
2712		99.609375
2713		105.468750
2714		101.562500
2715		105.468750
2716		103.515625
2717		107.421875
2718		103.515625
2719		111.328125
2720		103.515625
2721		111.328125
2722		105.468750
2723		113.281250
2724		107.421875
2725		115.234375
2726		109.375000
2727		115.234375
2728		109.375000
2729		115.234375
2730		111.328125
2731		115.234375
2732		113.281250
2733		117.187500
2734		113.281250
2735		119.140625
2736		113.281250
2737		119.140625
2738		113.281250
2739		121.093750
2740		113.281250
2741		121.093750
2742		115.234375
2743		121.093750
2744		115.234375
2745		121.093750
2746		115.234375
2747		121.093750
2748		117.187500
2749		121.093750
2750		117.187500
2751		123.046875
2752		115.234375
2753		123.046875
2754		117.187500
2755		123.046875
2756		117.187500
2757		123.046875
2758		117.187500
2759		123.046875
2760		117.187500
2761		123.046875
2762		115.234375
2763		123.046875
2764		117.187500
2765		121.093750
2766		117.187500
2767		121.093750
2768		115.234375
2769		121.093750
2770		115.234375
2771		121.093750
2772		113.281250
2773		121.093750
2774		113.281250
2775		119.140625
2776		111.328125
2777		119.140625
2778		111.328125
2779		119.140625
2780		113.281250
2781		115.234375
2782		111.328125
2783		115.234375
2784		109.375000
2785		113.281250
2786		107.421875
2787		113.281250
2788		105.468750
2789		111.328125
2790		103.515625
2791		111.328125
2792		103.515625
2793		109.375000
2794		101.562500
2795		107.421875
2796		101.562500
2797		105.468750
2798		99.609375
2799		103.515625
2800		97.656250
2801		101.562500
2802		93.750000
2803		103.515625
2804		91.796875
2805		99.609375
2806		91.796875
2807		99.609375
2808		89.843750
2809		95.703125
2810		85.937500
2811		93.750000
2812		83.984375
2813		91.796875
2814		83.984375
2815		89.843750
2816		82.031250
2817		85.937500
2818		76.171875
2819		83.984375
2820		74.218750
2821		82.031250
2822		72.265625
2823		80.078125
2824		70.312500
2825		78.125000
2826		68.359375
2827		74.218750
2828		64.453125
2829		72.265625
2830		62.500000
2831		68.359375
2832		60.546875
2833		64.453125
2834		54.687500
2835		62.500000
2836		52.734375
2837		60.546875
2838		50.781250
2839		58.593750
2840		46.875000
2841		54.687500
2842		42.968750
2843		50.781250
2844		41.015625
2845		48.828125
2846		37.109375
2847		44.921875
2848		35.156250
2849		41.015625
2850		31.250000
2851		37.109375
2852		27.343750
2853		33.203125
2854		23.437500
2855		31.250000
2856		19.531250
2857		27.343750
2858		15.625000
2859		23.437500
2860		13.671875
2861		21.484375
2862		9.765625
2863		17.578125
2864		5.859375
2865		11.718750
2866		1.953125
2867		9.765625
2868		-1.953125
2869		5.859375
2870		-5.859375
2871		1.953125
2872		-7.812500
2873		-1.953125
2874		-11.718750
2875		-3.906250
2876		-17.578125
2877		-7.812500
2878		-21.484375
2879		-13.671875
2880		-23.437500
2881		-15.625000
2882		-27.343750
2883		-21.484375
2884		-31.250000
2885		-25.390625
2886		-37.109375
2887		-27.343750
2888		-39.062500
2889		-31.250000
2890		-42.968750
2891		-33.203125
2892		-46.875000
2893		-37.109375
2894		-52.734375
2895		-42.968750
2896		-54.687500
2897		-46.875000
2898		-56.640625
2899		-50.781250
2900		-60.546875
2901		-54.687500
2902		-66.406250
2903		-58.593750
2904		-70.312500
2905		-60.546875
2906		-72.265625
2907		-64.453125
2908		-76.171875
2909		-68.359375
2910		-80.078125
2911		-72.265625
2912		-83.984375
2913		-74.218750
2914		-85.937500
2915		-78.125000
2916		-87.890625
2917		-82.031250
2918		-93.750000
2919		-85.937500
2920		-95.703125
2921		-87.890625
2922		-99.609375
2923		-89.843750
2924		-101.562500
2925		-93.750000
2926		-105.468750
2927		-99.609375
2928		-109.375000
2929		-101.562500
2930		-111.328125
2931		-103.515625
2932		-113.281250
2933		-109.375000
2934		-117.187500
2935		-111.328125
2936		-119.140625
2937		-113.281250
2938		-123.046875
2939		-115.234375
2940		-125.000000
2941		-117.187500
2942		-128.906250
2943		-121.093750
2944		-130.859375
2945		-123.046875
2946		-132.812500
2947		-125.000000
2948		-132.812500
2949		-128.906250
2950		-136.718750
2951		-130.859375
2952		-138.671875
2953		-132.812500
2954		-142.578125
2955		-134.765625
2956		-144.531250
2957		-136.718750
2958		-146.484375
2959		-138.671875
2960		-146.484375
2961		-140.625000
2962		-148.437500
2963		-140.625000
2964		-150.390625
2965		-142.578125
2966		-150.390625
2967		-146.484375
2968		-150.390625
2969		-146.484375
2970		-154.296875
2971		-146.484375
2972		-154.296875
2973		-148.437500
2974		-156.250000
2975		-150.390625
2976		-156.250000
2977		-150.390625
2978		-158.203125
2979		-150.390625
2980		-158.203125
2981		-152.343750
2982		-156.250000
2983		-154.296875
2984		-158.203125
2985		-154.296875
2986		-160.156250
2987		-154.296875
2988		-160.156250
2989		-154.296875
2990		-160.156250
2991		-154.296875
2992		-160.156250
2993		-154.296875
2994		-160.156250
2995		-154.296875
2996		-160.156250
2997		-152.343750
2998		-158.203125
2999		-152.343750
3000		-156.250000
3001		-154.296875
3002		-158.203125
3003		-152.343750
3004		-158.203125
3005		-150.390625
3006		-156.250000
3007		-150.390625
3008		-156.250000
3009		-148.437500
3010		-154.296875
3011		-148.437500
3012		-154.296875
3013		-146.484375
3014		-152.343750
3015		-146.484375
3016		-150.390625
3017		-144.531250
3018		-148.437500
3019		-144.531250
3020		-148.437500
3021		-140.625000
3022		-146.484375
3023		-138.671875
3024		-144.531250
3025		-136.718750
3026		-142.578125
3027		-134.765625
3028		-140.625000
3029		-134.765625
3030		-138.671875
3031		-130.859375
3032		-136.718750
3033		-130.859375
3034		-132.812500
3035		-126.953125
3036		-130.859375
3037		-125.000000
3038		-130.859375
3039		-121.093750
3040		-126.953125
3041		-119.140625
3042		-125.000000
3043		-117.187500
3044		-121.093750
3045		-113.281250
3046		-119.140625
3047		-111.328125
3048		-115.234375
3049		-109.375000
3050		-111.328125
3051		-105.468750
3052		-107.421875
3053		-101.562500
3054		-107.421875
3055		-99.609375
3056		-103.515625
3057		-95.703125
3058		-101.562500
3059		-91.796875
3060		-95.703125
3061		-87.890625
3062		-93.750000
3063		-85.937500
3064		-89.843750
3065		-82.031250
3066		-85.937500
3067		-80.078125
3068		-82.031250
3069		-76.171875
3070		-78.125000
3071		-72.265625
3072		-76.171875
3073		-68.359375
3074		-72.265625
3075		-64.453125
3076		-70.312500
3077		-60.546875
3078		-64.453125
3079		-56.640625
3080		-62.500000
3081		-52.734375
3082		-56.640625
3083		-50.781250
3084		-52.734375
3085		-46.875000
3086		-48.828125
3087		-42.968750
3088		-46.875000
3089		-39.062500
3090		-42.968750
3091		-33.203125
3092		-39.062500
3093		-31.250000
3094		-35.156250
3095		-27.343750
3096		-31.250000
3097		-23.437500
3098		-29.296875
3099		-21.484375
3100		-23.437500
3101		-15.625000
3102		-19.531250
3103		-13.671875
3104		-15.625000
3105		-7.812500
3106		-11.718750
3107		-3.906250
3108		-7.812500
3109		0.000000
3110		-5.859375
3111		1.953125
3112		-3.906250
3113		5.859375
3114		1.953125
3115		11.718750
3116		3.906250
3117		13.671875
3118		9.765625
3119		15.625000
3120		13.671875
3121		21.484375
3122		15.625000
3123		25.390625
3124		21.484375
3125		29.296875
3126		23.437500
3127		31.250000
3128		27.343750
3129		35.156250
3130		29.296875
3131		39.062500
3132		33.203125
3133		41.015625
3134		39.062500
3135		42.968750
3136		41.015625
3137		46.875000
3138		42.968750
3139		50.781250
3140		46.875000
3141		54.687500
3142		48.828125
3143		58.593750
3144		52.734375
3145		60.546875
3146		54.687500
3147		64.453125
3148		58.593750
3149		66.406250
3150		62.500000
3151		68.359375
3152		64.453125
3153		70.312500
3154		68.359375
3155		74.218750
3156		70.312500
3157		78.125000
3158		72.265625
3159		80.078125
3160		74.218750
3161		82.031250
3162		78.125000
3163		85.937500
3164		80.078125
3165		85.937500
3166		82.031250
3167		87.890625
3168		85.937500
3169		89.843750
3170		87.890625
3171		91.796875
3172		87.890625
3173		95.703125
3174		89.843750
3175		97.656250
3176		91.796875
3177		99.609375
3178		93.750000
3179		101.562500
3180		95.703125
3181		103.515625
3182		97.656250
3183		103.515625
3184		101.562500
3185		105.468750
3186		103.515625
3187		107.421875
3188		101.562500
3189		109.375000
3190		103.515625
3191		111.328125
3192		105.468750
3193		113.281250
3194		105.468750
3195		113.281250
3196		107.421875
3197		115.234375
3198		109.375000
3199		115.234375
3200		109.375000
3201		115.234375
3202		113.281250
3203		115.234375
3204		111.328125
3205		119.140625
3206		111.328125
3207		119.140625
3208		113.281250
3209		119.140625
3210		113.281250
3211		121.093750
3212		115.234375
3213		121.093750
3214		115.234375
3215		121.093750
3216		115.234375
3217		123.046875
3218		117.187500
3219		121.093750
3220		117.187500
3221		121.093750
3222		115.234375
3223		123.046875
3224		117.187500
3225		123.046875
3226		117.187500
3227		123.046875
3228		115.234375
3229		123.046875
3230		117.187500
3231		123.046875
3232		117.187500
3233		123.046875
3234		117.187500
3235		121.093750
3236		117.187500
3237		121.093750
3238		117.187500
3239		121.093750
3240		115.234375
3241		121.093750
3242		113.281250
3243		121.093750
3244		113.281250
3245		121.093750
3246		113.281250
3247		119.140625
3248		113.281250
3249		119.140625
3250		111.328125
3251		117.187500
3252		111.328125
3253		115.234375
3254		111.328125
3255		113.281250
3256		107.421875
3257		115.234375
3258		105.468750
3259		115.234375
3260		105.468750
3261		111.328125
3262		103.515625
3263		111.328125
3264		101.562500
3265		109.375000
3266		101.562500
3267		107.421875
3268		101.562500
3269		105.468750
3270		99.609375
3271		103.515625
3272		95.703125
3273		101.562500
3274		91.796875
3275		101.562500
3276		91.796875
3277		99.609375
3278		89.843750
3279		97.656250
3280		87.890625
3281		95.703125
3282		85.937500
3283		91.796875
3284		85.937500
3285		91.796875
3286		83.984375
3287		87.890625
3288		78.125000
3289		85.937500
3290		78.125000
3291		83.984375
3292		74.218750
3293		82.031250
3294		72.265625
3295		80.078125
3296		68.359375
3297		76.171875
3298		66.406250
3299		74.218750
3300		64.453125
3301		72.265625
3302		62.500000
3303		66.406250
3304		58.593750
3305		64.453125
3306		54.687500
3307		62.500000
3308		50.781250
3309		60.546875
3310		48.828125
3311		56.640625
3312		44.921875
3313		52.734375
3314		42.968750
3315		50.781250
3316		37.109375
3317		46.875000
3318		37.109375
3319		42.968750
3320		33.203125
3321		39.062500
3322		29.296875
3323		35.156250
3324		25.390625
3325		33.203125
3326		21.484375
3327		29.296875
3328		17.578125
3329		25.390625
3330		15.625000
3331		23.437500
3332		9.765625
3333		19.531250
3334		9.765625
3335		15.625000
3336		5.859375
3337		11.718750
3338		0.000000
3339		7.812500
3340		-3.906250
3341		5.859375
3342		-7.812500
3343		0.000000
3344		-11.718750
3345		-1.953125
3346		-15.625000
3347		-5.859375
3348		-17.578125
3349		-9.765625
3350		-21.484375
3351		-13.671875
3352		-23.437500
3353		-19.531250
3354		-29.296875
3355		-21.484375
3356		-33.203125
3357		-25.390625
3358		-39.062500
3359		-29.296875
3360		-41.015625
3361		-33.203125
3362		-44.921875
3363		-37.109375
3364		-48.828125
3365		-39.062500
3366		-52.734375
3367		-44.921875
3368		-54.687500
3369		-46.875000
3370		-58.593750
3371		-52.734375
3372		-64.453125
3373		-56.640625
3374		-68.359375
3375		-58.593750
3376		-70.312500
3377		-60.546875
3378		-74.218750
3379		-64.453125
3380		-78.125000
3381		-68.359375
3382		-80.078125
3383		-72.265625
3384		-83.984375
3385		-76.171875
3386		-85.937500
3387		-80.078125
3388		-89.843750
3389		-83.984375
3390		-93.750000
3391		-85.937500
3392		-97.656250
3393		-89.843750
3394		-101.562500
3395		-91.796875
3396		-105.468750
3397		-95.703125
3398		-107.421875
3399		-99.609375
3400		-111.328125
3401		-101.562500
3402		-111.328125
3403		-107.421875
3404		-115.234375
3405		-109.375000
3406		-119.140625
3407		-111.328125
3408		-121.093750
3409		-113.281250
3410		-123.046875
3411		-117.187500
3412		-126.953125
3413		-119.140625
3414		-128.906250
3415		-121.093750
3416		-132.812500
3417		-125.000000
3418		-132.812500
3419		-126.953125
3420		-134.765625
3421		-130.859375
3422		-136.718750
3423		-132.812500
3424		-140.625000
3425		-132.812500
3426		-142.578125
3427		-134.765625
3428		-144.531250
3429		-136.718750
3430		-146.484375
3431		-138.671875
3432		-148.437500
3433		-140.625000
3434		-148.437500
3435		-142.578125
3436		-148.437500
3437		-144.531250
3438		-150.390625
3439		-146.484375
3440		-154.296875
3441		-146.484375
3442		-154.296875
3443		-148.437500
3444		-156.250000
3445		-148.437500
3446		-156.250000
3447		-148.437500
3448		-158.203125
3449		-150.390625
3450		-158.203125
3451		-152.343750
3452		-158.203125
3453		-152.343750
3454		-156.250000
3455		-154.296875
3456		-158.203125
3457		-152.343750
3458		-160.156250
3459		-152.343750
3460		-160.156250
3461		-152.343750
3462		-160.156250
3463		-152.343750
3464		-160.156250
3465		-152.343750
3466		-160.156250
3467		-152.343750
3468		-160.156250
3469		-152.343750
3470		-156.250000
3471		-154.296875
3472		-156.250000
3473		-154.296875
3474		-156.250000
3475		-150.390625
3476		-158.203125
3477		-150.390625
3478		-156.250000
3479		-148.437500
3480		-156.250000
3481		-148.437500
3482		-154.296875
3483		-146.484375
3484		-152.343750
3485		-146.484375
3486		-150.390625
3487		-146.484375
3488		-148.437500
3489		-144.531250
3490		-148.437500
3491		-142.578125
3492		-146.484375
3493		-140.625000
3494		-146.484375
3495		-138.671875
3496		-142.578125
3497		-136.718750
3498		-142.578125
3499		-132.812500
3500		-140.625000
3501		-130.859375
3502		-136.718750
3503		-130.859375
3504		-134.765625
3505		-128.906250
3506		-130.859375
3507		-126.953125
3508		-130.859375
3509		-123.046875
3510		-128.906250
3511		-121.093750
3512		-126.953125
3513		-117.187500
3514		-123.046875
3515		-115.234375
3516		-121.093750
3517		-111.328125
3518		-117.187500
3519		-109.375000
3520		-113.281250
3521		-107.421875
3522		-109.375000
3523		-105.468750
3524		-107.421875
3525		-99.609375
3526		-105.468750
3527		-97.656250
3528		-103.515625
3529		-93.750000
3530		-99.609375
3531		-89.843750
3532		-95.703125
3533		-85.937500
3534		-91.796875
3535		-83.984375
3536		-89.843750
3537		-82.031250
3538		-83.984375
3539		-78.125000
3540		-80.078125
3541		-72.265625
3542		-78.125000
3543		-70.312500
3544		-76.171875
3545		-66.406250
3546		-72.265625
3547		-62.500000
3548		-66.406250
3549		-58.593750
3550		-64.453125
3551		-56.640625
3552		-60.546875
3553		-52.734375
3554		-54.687500
3555		-48.828125
3556		-50.781250
3557		-44.921875
3558		-48.828125
3559		-41.015625
3560		-44.921875
3561		-37.109375
3562		-42.968750
3563		-33.203125
3564		-37.109375
3565		-29.296875
3566		-33.203125
3567		-25.390625
3568		-31.250000
3569		-21.484375
3570		-25.390625
3571		-19.531250
3572		-21.484375
3573		-15.625000
3574		-17.578125
3575		-9.765625
3576		-15.625000
3577		-5.859375
3578		-11.718750
3579		-1.953125
3580		-7.812500
3581		1.953125
3582		-3.906250
3583		3.906250
3584		0.000000
3585		7.812500
3586		3.906250
3587		11.718750
3588		7.812500
3589		13.671875
3590		11.718750
3591		17.578125
3592		13.671875
3593		23.437500
3594		17.578125
3595		25.390625
3596		21.484375
3597		29.296875
3598		23.437500
3599		35.156250
3600		27.343750
3601		37.109375
3602		31.250000
3603		41.015625
3604		37.109375
3605		42.968750
3606		39.062500
3607		44.921875
3608		42.968750
3609		50.781250
3610		44.921875
3611		52.734375
3612		46.875000
3613		56.640625
3614		50.781250
3615		58.593750
3616		54.687500
3617		62.500000
3618		56.640625
3619		64.453125
3620		58.593750
3621		66.406250
3622		64.453125
3623		68.359375
3624		66.406250
3625		72.265625
3626		68.359375
3627		74.218750
3628		70.312500
3629		78.125000
3630		74.218750
3631		80.078125
3632		76.171875
3633		82.031250
3634		78.125000
3635		83.984375
3636		80.078125
3637		85.937500
3638		83.984375
3639		87.890625
3640		85.937500
3641		91.796875
3642		87.890625
3643		93.750000
3644		89.843750
3645		97.656250
3646		91.796875
3647		99.609375
3648		93.750000
3649		99.609375
3650		93.750000
3651		101.562500
3652		95.703125
3653		103.515625
3654		99.609375
3655		103.515625
3656		101.562500
3657		105.468750
3658		101.562500
3659		107.421875
3660		103.515625
3661		109.375000
3662		105.468750
3663		111.328125
3664		105.468750
3665		113.281250
3666		105.468750
3667		113.281250
3668		109.375000
3669		115.234375
3670		109.375000
3671		115.234375
3672		113.281250
3673		115.234375
3674		113.281250
3675		117.187500
3676		113.281250
3677		119.140625
3678		113.281250
3679		119.140625
3680		113.281250
3681		121.093750
3682		113.281250
3683		121.093750
3684		113.281250
3685		123.046875
3686		115.234375
3687		121.093750
3688		117.187500
3689		121.093750
3690		117.187500
3691		121.093750
3692		117.187500
3693		123.046875
3694		117.187500
3695		123.046875
3696		115.234375
3697		123.046875
3698		117.187500
3699		123.046875
3700		117.187500
3701		123.046875
3702		117.187500
3703		123.046875
3704		117.187500
3705		123.046875
3706		117.187500
3707		121.093750
3708		117.187500
3709		121.093750
3710		115.234375
3711		121.093750
3712		115.234375
3713		121.093750
3714		113.281250
3715		121.093750
3716		113.281250
3717		121.093750
3718		113.281250
3719		119.140625
3720		111.328125
3721		119.140625
3722		113.281250
3723		115.234375
3724		111.328125
3725		115.234375
3726		109.375000
3727		117.187500
3728		107.421875
3729		115.234375
3730		107.421875
3731		113.281250
3732		105.468750
3733		111.328125
3734		103.515625
3735		111.328125
3736		101.562500
3737		109.375000
3738		101.562500
3739		107.421875
3740		99.609375
3741		105.468750
3742		97.656250
3743		103.515625
3744		95.703125
3745		101.562500
3746		93.750000
3747		101.562500
3748		91.796875
3749		99.609375
3750		87.890625
3751		97.656250
3752		87.890625
3753		95.703125
3754		85.937500
3755		93.750000
3756		85.937500
3757		89.843750
3758		82.031250
3759		85.937500
3760		78.125000
3761		85.937500
3762		76.171875
3763		82.031250
3764		74.218750
3765		80.078125
3766		70.312500
3767		78.125000
3768		68.359375
3769		74.218750
3770		64.453125
3771		74.218750
3772		64.453125
3773		68.359375
3774		60.546875
3775		66.406250
3776		56.640625
3777		62.500000
3778		54.687500
3779		60.546875
3780		50.781250
3781		56.640625
3782		48.828125
3783		54.687500
3784		44.921875
3785		50.781250
3786		41.015625
3787		48.828125
3788		39.062500
3789		44.921875
3790		35.156250
3791		41.015625
3792		31.250000
3793		39.062500
3794		29.296875
3795		35.156250
3796		25.390625
3797		31.250000
3798		21.484375
3799		27.343750
3800		19.531250
3801		23.437500
3802		13.671875
3803		21.484375
3804		11.718750
3805		17.578125
3806		7.812500
3807		13.671875
3808		3.906250
3809		9.765625
3810		0.000000
3811		5.859375
3812		-3.906250
3813		1.953125
3814		-7.812500
3815		-1.953125
3816		-11.718750
3817		-3.906250
3818		-15.625000
3819		-7.812500
3820		-19.531250
3821		-11.718750
3822		-21.484375
3823		-13.671875
3824		-25.390625
3825		-19.531250
3826		-29.296875
3827		-23.437500
3828		-33.203125
3829		-27.343750
3830		-37.109375
3831		-31.250000
3832		-41.015625
3833		-35.156250
3834		-44.921875
3835		-39.062500
3836		-48.828125
3837		-41.015625
3838		-52.734375
3839		-44.921875
3840		-54.687500
3841		-48.828125
3842		-60.546875
3843		-52.734375
3844		-62.500000
3845		-56.640625
3846		-66.406250
3847		-60.546875
3848		-70.312500
3849		-64.453125
3850		-72.265625
3851		-68.359375
3852		-76.171875
3853		-72.265625
3854		-82.031250
3855		-74.218750
3856		-83.984375
3857		-78.125000
3858		-87.890625
3859		-82.031250
3860		-89.843750
3861		-85.937500
3862		-93.750000
3863		-87.890625
3864		-97.656250
3865		-91.796875
3866		-99.609375
3867		-95.703125
3868		-103.515625
3869		-97.656250
3870		-105.468750
3871		-99.609375
3872		-109.375000
3873		-103.515625
3874		-111.328125
3875		-107.421875
3876		-115.234375
3877		-109.375000
3878		-119.140625
3879		-111.328125
3880		-121.093750
3881		-115.234375
3882		-123.046875
3883		-117.187500
3884		-126.953125
3885		-121.093750
3886		-128.906250
3887		-123.046875
3888		-130.859375
3889		-125.000000
3890		-132.812500
3891		-128.906250
3892		-134.765625
3893		-130.859375
3894		-136.718750
3895		-132.812500
3896		-138.671875
3897		-134.765625
3898		-140.625000
3899		-136.718750
3900		-144.531250
3901		-138.671875
3902		-144.531250
3903		-140.625000
3904		-146.484375
3905		-142.578125
3906		-148.437500
3907		-142.578125
3908		-148.437500
3909		-144.531250
3910		-150.390625
3911		-146.484375
3912		-152.343750
3913		-148.437500
3914		-152.343750
3915		-148.437500
3916		-154.296875
3917		-150.390625
3918		-154.296875
3919		-150.390625
3920		-154.296875
3921		-152.343750
3922		-156.250000
3923		-152.343750
3924		-156.250000
3925		-152.343750
3926		-158.203125
3927		-152.343750
3928		-158.203125
3929		-154.296875
3930		-158.203125
3931		-154.296875
3932		-158.203125
3933		-154.296875
3934		-158.203125
3935		-154.296875
3936		-158.203125
3937		-154.296875
3938		-158.203125
3939		-154.296875
3940		-158.203125
3941		-154.296875
3942		-156.250000
3943		-152.343750
3944		-156.250000
3945		-152.343750
3946		-156.250000
3947		-152.343750
3948		-154.296875
3949		-150.390625
3950		-154.296875
3951		-150.390625
3952		-154.296875
3953		-148.437500
3954		-152.343750
3955		-148.437500
3956		-152.343750
3957		-146.484375
3958		-150.390625
3959		-144.531250
3960		-148.437500
3961		-144.531250
3962		-146.484375
3963		-142.578125
3964		-144.531250
3965		-140.625000
3966		-144.531250
3967		-138.671875
3968		-140.625000
3969		-136.718750
3970		-138.671875
3971		-134.765625
3972		-136.718750
3973		-132.812500
3974		-134.765625
3975		-130.859375
3976		-132.812500
3977		-128.906250
3978		-130.859375
3979		-125.000000
3980		-128.906250
3981		-123.046875
3982		-126.953125
3983		-121.093750
3984		-123.046875
3985		-119.140625
3986		-121.093750
3987		-115.234375
3988		-117.187500
3989		-111.328125
3990		-115.234375
3991		-109.375000
3992		-111.328125
3993		-105.468750
3994		-109.375000
3995		-103.515625
3996		-105.468750
3997		-101.562500
3998		-103.515625
3999		-97.656250
4000		-99.609375
4001		-93.750000
4002		-95.703125
4003		-91.796875
4004		-93.750000
4005		-87.890625
4006		-89.843750
4007		-83.984375
4008		-85.937500
4009		-80.078125
4010		-82.031250
4011		-76.171875
4012		-80.078125
4013		-74.218750
4014		-76.171875
4015		-70.312500
4016		-72.265625
4017		-66.406250
4018		-68.359375
4019		-62.500000
4020		-64.453125
4021		-58.593750
4022		-60.546875
4023		-54.687500
4024		-56.640625
4025		-50.781250
4026		-52.734375
4027		-48.828125
4028		-50.781250
4029		-42.968750
4030		-46.875000
4031		-39.062500
4032		-42.968750
4033		-37.109375
4034		-39.062500
4035		-33.203125
4036		-35.156250
4037		-27.343750
4038		-31.250000
4039		-25.390625
4040		-27.343750
4041		-21.484375
4042		-23.437500
4043		-17.578125
4044		-19.531250
4045		-13.671875
4046		-15.625000
4047		-9.765625
4048		-11.718750
4049		-5.859375
4050		-7.812500
4051		-1.953125
4052		-3.906250
4053		1.953125
4054		0.000000
4055		5.859375
4056		1.953125
4057		9.765625
4058		5.859375
4059		11.718750
4060		9.765625
4061		15.625000
4062		13.671875
4063		19.531250
4064		17.578125
4065		23.437500
4066		19.531250
4067		27.343750
4068		23.437500
4069		29.296875
4070		27.343750
4071		33.203125
4072		31.250000
4073		37.109375
4074		33.203125
4075		39.062500
4076		37.109375
4077		42.968750
4078		41.015625
4079		46.875000
4080		44.921875
4081		50.781250
4082		46.875000
4083		52.734375
4084		50.781250
4085		56.640625
4086		52.734375
4087		58.593750
4088		56.640625
4089		62.500000
4090		58.593750
4091		64.453125
4092		62.500000
4093		66.406250
4094		64.453125
4095		70.312500
4096		66.406250
4097		72.265625
4098		70.312500
4099		76.171875
4100		74.218750
4101		78.125000
4102		76.171875
4103		80.078125
4104		78.125000
4105		83.984375
4106		80.078125
4107		85.937500
4108		82.031250
4109		87.890625
4110		85.937500
4111		89.843750
4112		87.890625
4113		91.796875
4114		89.843750
4115		93.750000
4116		91.796875
4117		95.703125
4118		93.750000
4119		97.656250
4120		95.703125
4121		99.609375
4122		97.656250
4123		101.562500
4124		99.609375
4125		103.515625
4126		101.562500
4127		105.468750
4128		101.562500
4129		107.421875
4130		103.515625
4131		107.421875
4132		105.468750
4133		109.375000
4134		107.421875
4135		111.328125
4136		107.421875
4137		111.328125
4138		109.375000
4139		113.281250
4140		111.328125
4141		115.234375
4142		111.328125
4143		115.234375
4144		113.281250
4145		115.234375
4146		113.281250
4147		117.187500
4148		115.234375
4149		117.187500
4150		115.234375
4151		119.140625
4152		115.234375
4153		119.140625
4154		115.234375
4155		119.140625
4156		117.187500
4157		121.093750
4158		115.234375
4159		121.093750
4160		117.187500
4161		121.093750
4162		117.187500
4163		121.093750
4164		119.140625
4165		123.046875
4166		119.140625
4167		121.093750
4168		119.140625
4169		121.093750
4170		119.140625
4171		121.093750
4172		119.140625
4173		123.046875
4174		119.140625
4175		121.093750
4176		119.140625
4177		121.093750
4178		117.187500
4179		121.093750
4180		117.187500
4181		121.093750
4182		117.187500
4183		121.093750
4184		115.234375
4185		119.140625
4186		115.234375
4187		119.140625
4188		115.234375
4189		119.140625
4190		113.281250
4191		117.187500
4192		113.281250
4193		117.187500
4194		113.281250
4195		115.234375
4196		111.328125
4197		115.234375
4198		109.375000
4199		113.281250
4200		109.375000
4201		113.281250
4202		107.421875
4203		111.328125
4204		105.468750
4205		109.375000
4206		105.468750
4207		109.375000
4208		103.515625
4209		107.421875
4210		101.562500
4211		105.468750
4212		99.609375
4213		103.515625
4214		97.656250
4215		101.562500
4216		97.656250
4217		101.562500
4218		95.703125
4219		99.609375
4220		91.796875
4221		97.656250
4222		89.843750
4223		95.703125
4224		87.890625
4225		93.750000
4226		85.937500
4227		91.796875
4228		83.984375
4229		87.890625
4230		82.031250
4231		87.890625
4232		78.125000
4233		83.984375
4234		76.171875
4235		82.031250
4236		74.218750
4237		80.078125
4238		72.265625
4239		76.171875
4240		68.359375
4241		74.218750
4242		66.406250
4243		72.265625
4244		62.500000
4245		68.359375
4246		60.546875
4247		66.406250
4248		56.640625
4249		62.500000
4250		54.687500
4251		58.593750
4252		50.781250
4253		56.640625
4254		48.828125
4255		52.734375
4256		44.921875
4257		50.781250
4258		41.015625
4259		46.875000
4260		39.062500
4261		42.968750
4262		35.156250
4263		41.015625
4264		31.250000
4265		37.109375
4266		27.343750
4267		33.203125
4268		25.390625
4269		29.296875
4270		21.484375
4271		27.343750
4272		17.578125
4273		23.437500
4274		13.671875
4275		19.531250
4276		9.765625
4277		15.625000
4278		5.859375
4279		11.718750
4280		3.906250
4281		9.765625
4282		0.000000
4283		5.859375
4284		-3.906250
4285		1.953125
4286		-7.812500
4287		-1.953125
4288		-11.718750
4289		-5.859375
4290		-15.625000
4291		-7.812500
4292		-19.531250
4293		-13.671875
4294		-23.437500
4295		-17.578125
4296		-27.343750
4297		-21.484375
4298		-31.250000
4299		-25.390625
4300		-33.203125
4301		-27.343750
4302		-37.109375
4303		-31.250000
4304		-41.015625
4305		-35.156250
4306		-44.921875
4307		-39.062500
4308		-50.781250
4309		-42.968750
4310		-52.734375
4311		-46.875000
4312		-56.640625
4313		-50.781250
4314		-60.546875
4315		-54.687500
4316		-64.453125
4317		-58.593750
4318		-68.359375
4319		-60.546875
4320		-70.312500
4321		-64.453125
4322		-74.218750
4323		-68.359375
4324		-78.125000
4325		-72.265625
4326		-82.031250
4327		-76.171875
4328		-83.984375
4329		-80.078125
4330		-87.890625
4331		-82.031250
4332		-91.796875
4333		-85.937500
4334		-93.750000
4335		-89.843750
4336		-97.656250
4337		-91.796875
4338		-101.562500
4339		-95.703125
4340		-103.515625
4341		-97.656250
4342		-107.421875
4343		-101.562500
4344		-109.375000
4345		-105.468750
4346		-113.281250
4347		-107.421875
4348		-115.234375
4349		-109.375000
4350		-119.140625
4351		-113.281250
4352		-121.093750
4353		-115.234375
4354		-125.000000
4355		-117.187500
4356		-126.953125
4357		-121.093750
4358		-128.906250
4359		-123.046875
4360		-132.812500
4361		-125.000000
4362		-132.812500
4363		-128.906250
4364		-134.765625
4365		-130.859375
4366		-138.671875
4367		-132.812500
4368		-140.625000
4369		-134.765625
4370		-140.625000
4371		-136.718750
4372		-142.578125
4373		-138.671875
4374		-146.484375
4375		-140.625000
4376		-146.484375
4377		-142.578125
4378		-148.437500
4379		-142.578125
4380		-150.390625
4381		-144.531250
4382		-150.390625
4383		-146.484375
4384		-152.343750
4385		-146.484375
4386		-152.343750
4387		-148.437500
4388		-154.296875
4389		-150.390625
4390		-154.296875
4391		-150.390625
4392		-156.250000
4393		-152.343750
4394		-156.250000
4395		-152.343750
4396		-156.250000
4397		-152.343750
4398		-158.203125
4399		-152.343750
4400		-158.203125
4401		-152.343750
4402		-158.203125
4403		-152.343750
4404		-158.203125
4405		-152.343750
4406		-158.203125
4407		-152.343750
4408		-158.203125
4409		-152.343750
4410		-158.203125
4411		-152.343750
4412		-156.250000
4413		-152.343750
4414		-156.250000
4415		-150.390625
4416		-156.250000
4417		-150.390625
4418		-156.250000
4419		-150.390625
4420		-154.296875
4421		-148.437500
4422		-154.296875
4423		-148.437500
4424		-152.343750
4425		-148.437500
4426		-152.343750
4427		-146.484375
4428		-150.390625
4429		-146.484375
4430		-148.437500
4431		-144.531250
4432		-148.437500
4433		-140.625000
4434		-146.484375
4435		-140.625000
4436		-144.531250
4437		-138.671875
4438		-142.578125
4439		-136.718750
4440		-140.625000
4441		-134.765625
4442		-140.625000
4443		-132.812500
4444		-136.718750
4445		-132.812500
4446		-132.812500
4447		-128.906250
4448		-132.812500
4449		-126.953125
4450		-128.906250
4451		-123.046875
4452		-126.953125
4453		-121.093750
4454		-126.953125
4455		-117.187500
4456		-123.046875
4457		-115.234375
4458		-119.140625
4459		-113.281250
4460		-117.187500
4461		-111.328125
4462		-113.281250
4463		-107.421875
4464		-109.375000
4465		-103.515625
4466		-107.421875
4467		-101.562500
4468		-105.468750
4469		-99.609375
4470		-101.562500
4471		-95.703125
4472		-97.656250
4473		-91.796875
4474		-95.703125
4475		-89.843750
4476		-91.796875
4477		-83.984375
4478		-87.890625
4479		-82.031250
4480		-83.984375
4481		-78.125000
4482		-82.031250
4483		-76.171875
4484		-78.125000
4485		-72.265625
4486		-74.218750
4487		-68.359375
4488		-70.312500
4489		-64.453125
4490		-66.406250
4491		-60.546875
4492		-62.500000
4493		-56.640625
4494		-58.593750
4495		-52.734375
4496		-54.687500
4497		-48.828125
4498		-52.734375
4499		-46.875000
4500		-48.828125
4501		-42.968750
4502		-44.921875
4503		-37.109375
4504		-41.015625
4505		-35.156250
4506		-37.109375
4507		-31.250000
4508		-33.203125
4509		-27.343750
4510		-29.296875
4511		-23.437500
4512		-25.390625
4513		-19.531250
4514		-21.484375
4515		-15.625000
4516		-17.578125
4517		-11.718750
4518		-13.671875
4519		-7.812500
4520		-9.765625
4521		-3.906250
4522		-5.859375
4523		0.000000
4524		-1.953125
4525		3.906250
4526		1.953125
4527		7.812500
4528		3.906250
4529		9.765625
4530		7.812500
4531		13.671875
4532		11.718750
4533		17.578125
4534		15.625000
4535		21.484375
4536		17.578125
4537		25.390625
4538		21.484375
4539		29.296875
4540		25.390625
4541		31.250000
4542		29.296875
4543		35.156250
4544		33.203125
4545		39.062500
4546		35.156250
4547		41.015625
4548		39.062500
4549		44.921875
4550		42.968750
4551		46.875000
4552		44.921875
4553		50.781250
4554		48.828125
4555		54.687500
4556		52.734375
4557		56.640625
4558		54.687500
4559		60.546875
4560		58.593750
4561		62.500000
4562		60.546875
4563		66.406250
4564		64.453125
4565		68.359375
4566		64.453125
4567		74.218750
4568		68.359375
4569		78.125000
4570		70.312500
4571		80.078125
4572		74.218750
4573		80.078125
4574		76.171875
4575		82.031250
4576		80.078125
4577		83.984375
4578		82.031250
4579		85.937500
4580		83.984375
4581		87.890625
4582		85.937500
4583		93.750000
4584		85.937500
4585		95.703125
4586		87.890625
4587		97.656250
4588		89.843750
4589		97.656250
4590		95.703125
4591		99.609375
4592		97.656250
4593		101.562500
4594		97.656250
4595		101.562500
4596		99.609375
4597		103.515625
4598		101.562500
4599		105.468750
4600		101.562500
4601		109.375000
4602		101.562500
4603		111.328125
4604		105.468750
4605		113.281250
4606		107.421875
4607		111.328125
4608		109.375000
4609		113.281250
4610		109.375000
4611		113.281250
4612		111.328125
4613		115.234375
4614		113.281250
4615		115.234375
4616		111.328125
4617		119.140625
4618		111.328125
4619		121.093750
4620		111.328125
4621		121.093750
4622		113.281250
4623		121.093750
4624		117.187500
4625		121.093750
4626		117.187500
4627		121.093750
4628		117.187500
4629		121.093750
4630		117.187500
4631		121.093750
4632		119.140625
4633		121.093750
4634		115.234375
4635		125.000000
4636		117.187500
4637		125.000000
4638		115.234375
4639		125.000000
4640		119.140625
4641		123.046875
4642		119.140625
4643		123.046875
4644		119.140625
4645		123.046875
4646		119.140625
4647		121.093750
4648		119.140625
4649		121.093750
4650		115.234375
4651		125.000000
4652		115.234375
4653		125.000000
4654		115.234375
4655		123.046875
4656		117.187500
4657		119.140625
4658		115.234375
4659		119.140625
4660		115.234375
4661		119.140625
4662		115.234375
4663		117.187500
4664		113.281250
4665		117.187500
4666		111.328125
4667		117.187500
4668		109.375000
4669		117.187500
4670		107.421875
4671		117.187500
4672		107.421875
4673		115.234375
4674		107.421875
4675		111.328125
4676		107.421875
4677		111.328125
4678		105.468750
4679		109.375000
4680		103.515625
4681		107.421875
4682		101.562500
4683		105.468750
4684		97.656250
4685		107.421875
4686		95.703125
4687		105.468750
4688		93.750000
4689		103.515625
4690		93.750000
4691		99.609375
4692		91.796875
4693		97.656250
4694		89.843750
4695		95.703125
4696		87.890625
4697		93.750000
4698		85.937500
4699		89.843750
4700		82.031250
4701		89.843750
4702		78.125000
4703		87.890625
4704		76.171875
4705		85.937500
4706		76.171875
4707		83.984375
4708		74.218750
4709		78.125000
4710		70.312500
4711		76.171875
4712		68.359375
4713		74.218750
4714		66.406250
4715		70.312500
4716		62.500000
4717		68.359375
4718		56.640625
4719		66.406250
4720		54.687500
4721		64.453125
4722		52.734375
4723		62.500000
4724		50.781250
4725		56.640625
4726		46.875000
4727		52.734375
4728		44.921875
4729		50.781250
4730		41.015625
4731		46.875000
4732		37.109375
4733		42.968750
4734		31.250000
4735		41.015625
4736		27.343750
4737		39.062500
4738		23.437500
4739		35.156250
4740		23.437500
4741		29.296875
4742		21.484375
4743		25.390625
4744		17.578125
4745		21.484375
4746		13.671875
4747		19.531250
4748		9.765625
4749		15.625000
4750		5.859375
4751		11.718750
4752		1.953125
4753		7.812500
4754		-1.953125
4755		5.859375
4756		-5.859375
4757		0.000000
4758		-9.765625
4759		-1.953125
4760		-11.718750
4761		-5.859375
4762		-15.625000
4763		-9.765625
4764		-19.531250
4765		-13.671875
4766		-23.437500
4767		-17.578125
4768		-27.343750
4769		-21.484375
4770		-33.203125
4771		-23.437500
4772		-35.156250
4773		-27.343750
4774		-39.062500
4775		-33.203125
4776		-42.968750
4777		-37.109375
4778		-46.875000
4779		-41.015625
4780		-50.781250
4781		-44.921875
4782		-52.734375
4783		-46.875000
4784		-56.640625
4785		-50.781250
4786		-60.546875
4787		-54.687500
4788		-64.453125
4789		-58.593750
4790		-68.359375
4791		-62.500000
4792		-72.265625
4793		-66.406250
4794		-76.171875
4795		-70.312500
4796		-78.125000
4797		-72.265625
4798		-82.031250
4799		-76.171875
4800		-85.937500
4801		-80.078125
4802		-87.890625
4803		-82.031250
4804		-91.796875
4805		-85.937500
4806		-95.703125
4807		-89.843750
4808		-97.656250
4809		-93.750000
4810		-101.562500
4811		-95.703125
4812		-105.468750
4813		-99.609375
4814		-107.421875
4815		-101.562500
4816		-111.328125
4817		-105.468750
4818		-113.281250
4819		-107.421875
4820		-115.234375
4821		-111.328125
4822		-119.140625
4823		-113.281250
4824		-121.093750
4825		-115.234375
4826		-123.046875
4827		-119.140625
4828		-126.953125
4829		-121.093750
4830		-128.906250
4831		-123.046875
4832		-130.859375
4833		-126.953125
4834		-134.765625
4835		-128.906250
4836		-134.765625
4837		-130.859375
4838		-136.718750
4839		-132.812500
4840		-138.671875
4841		-134.765625
4842		-142.578125
4843		-136.718750
4844		-142.578125
4845		-138.671875
4846		-144.531250
4847		-140.625000
4848		-146.484375
4849		-142.578125
4850		-148.437500
4851		-144.531250
4852		-148.437500
4853		-144.531250
4854		-150.390625
4855		-146.484375
4856		-152.343750
4857		-148.437500
4858		-152.343750
4859		-148.437500
4860		-154.296875
4861		-148.437500
4862		-154.296875
4863		-150.390625
4864		-156.250000
4865		-152.343750
4866		-156.250000
4867		-152.343750
4868		-156.250000
4869		-152.343750
4870		-156.250000
4871		-152.343750
4872		-156.250000
4873		-154.296875
4874		-158.203125
4875		-152.343750
4876		-158.203125
4877		-154.296875
4878		-156.250000
4879		-154.296875
4880		-156.250000
4881		-154.296875
4882		-156.250000
4883		-152.343750
4884		-156.250000
4885		-152.343750
4886		-156.250000
4887		-152.343750
4888		-156.250000
4889		-150.390625
4890		-154.296875
4891		-150.390625
4892		-154.296875
4893		-150.390625
4894		-152.343750
4895		-148.437500
4896		-152.343750
4897		-148.437500
4898		-150.390625
4899		-146.484375
4900		-148.437500
4901		-144.531250
4902		-148.437500
4903		-142.578125
4904		-146.484375
4905		-142.578125
4906		-144.531250
4907		-140.625000
4908		-142.578125
4909		-138.671875
4910		-142.578125
4911		-136.718750
4912		-138.671875
4913		-134.765625
4914		-136.718750
4915		-132.812500
4916		-134.765625
4917		-130.859375
4918		-132.812500
4919		-128.906250
4920		-130.859375
4921		-125.000000
4922		-128.906250
4923		-123.046875
4924		-125.000000
4925		-121.093750
4926		-123.046875
4927		-117.187500
4928		-121.093750
4929		-115.234375
4930		-117.187500
4931		-113.281250
4932		-115.234375
4933		-109.375000
4934		-111.328125
4935		-107.421875
4936		-109.375000
4937		-103.515625
4938		-105.468750
4939		-99.609375
4940		-103.515625
4941		-97.656250
4942		-99.609375
4943		-93.750000
4944		-97.656250
4945		-91.796875
4946		-93.750000
4947		-87.890625
4948		-89.843750
4949		-83.984375
4950		-85.937500
4951		-82.031250
4952		-83.984375
4953		-76.171875
4954		-80.078125
4955		-74.218750
4956		-76.171875
4957		-70.312500
4958		-72.265625
4959		-66.406250
4960		-70.312500
4961		-62.500000
4962		-64.453125
4963		-58.593750
4964		-62.500000
4965		-56.640625
4966		-58.593750
4967		-52.734375
4968		-54.687500
4969		-48.828125
4970		-52.734375
4971		-44.921875
4972		-46.875000
4973		-41.015625
4974		-42.968750
4975		-37.109375
4976		-39.062500
4977		-33.203125
4978		-35.156250
4979		-29.296875
4980		-31.250000
4981		-25.390625
4982		-27.343750
4983		-21.484375
4984		-23.437500
4985		-17.578125
4986		-21.484375
4987		-13.671875
4988		-15.625000
4989		-9.765625
4990		-13.671875
4991		-5.859375
4992		-9.765625
4993		-1.953125
4994		-5.859375
4995		0.000000
4996		-1.953125
4997		3.906250
4998		1.953125
4999		7.812500
5000		5.859375
5001		11.718750
5002		9.765625
5003		15.625000
5004		13.671875
5005		19.531250
5006		15.625000
5007		23.437500
5008		19.531250
5009		25.390625
5010		23.437500
5011		29.296875
5012		27.343750
5013		33.203125
5014		31.250000
5015		37.109375
5016		33.203125
5017		39.062500
5018		37.109375
5019		42.968750
5020		41.015625
5021		44.921875
5022		42.968750
5023		48.828125
5024		46.875000
5025		52.734375
5026		50.781250
5027		54.687500
5028		52.734375
5029		58.593750
5030		56.640625
5031		60.546875
5032		58.593750
5033		64.453125
5034		62.500000
5035		66.406250
5036		64.453125
5037		70.312500
5038		68.359375
5039		72.265625
5040		70.312500
5041		74.218750
5042		72.265625
5043		78.125000
5044		74.218750
5045		80.078125
5046		78.125000
5047		82.031250
5048		80.078125
5049		85.937500
5050		82.031250
5051		87.890625
5052		83.984375
5053		89.843750
5054		85.937500
5055		91.796875
5056		89.843750
5057		93.750000
5058		91.796875
5059		95.703125
5060		93.750000
5061		97.656250
5062		95.703125
5063		99.609375
5064		97.656250
5065		101.562500
5066		99.609375
5067		103.515625
5068		101.562500
5069		105.468750
5070		101.562500
5071		107.421875
5072		103.515625
5073		107.421875
5074		105.468750
5075		109.375000
5076		107.421875
5077		111.328125
5078		109.375000
5079		111.328125
5080		109.375000
5081		113.281250
5082		111.328125
5083		115.234375
5084		111.328125
5085		115.234375
5086		113.281250
5087		117.187500
5088		113.281250
5089		117.187500
5090		115.234375
5091		119.140625
5092		115.234375
5093		119.140625
5094		117.187500
5095		119.140625
5096		117.187500
5097		121.093750
5098		117.187500
5099		121.093750
5100		119.140625
5101		121.093750
5102		119.140625
5103		121.093750
5104		119.140625
5105		123.046875
5106		119.140625
5107		123.046875
5108		119.140625
5109		123.046875
5110		119.140625
5111		123.046875
5112		119.140625
5113		123.046875
5114		119.140625
5115		123.046875
5116		119.140625
5117		123.046875
5118		119.140625
5119		123.046875
5120		119.140625
5121		123.046875
5122		119.140625
5123		121.093750
5124		117.187500
5125		121.093750
5126		117.187500
5127		121.093750
5128		117.187500
5129		121.093750
5130		115.234375
5131		119.140625
5132		115.234375
5133		119.140625
5134		115.234375
5135		117.187500
5136		113.281250
5137		117.187500
5138		113.281250
5139		115.234375
5140		111.328125
5141		115.234375
5142		111.328125
5143		113.281250
5144		109.375000
5145		113.281250
5146		107.421875
5147		111.328125
5148		107.421875
5149		109.375000
5150		105.468750
5151		109.375000
5152		103.515625
5153		107.421875
5154		101.562500
5155		105.468750
5156		99.609375
5157		105.468750
5158		99.609375
5159		103.515625
5160		95.703125
5161		99.609375
5162		93.750000
5163		99.609375
5164		91.796875
5165		97.656250
5166		89.843750
5167		95.703125
5168		87.890625
5169		93.750000
5170		85.937500
5171		89.843750
5172		83.984375
5173		87.890625
5174		82.031250
5175		85.937500
5176		78.125000
5177		83.984375
5178		76.171875
5179		82.031250
5180		74.218750
5181		78.125000
5182		70.312500
5183		76.171875
5184		68.359375
5185		74.218750
5186		66.406250
5187		70.312500
5188		62.500000
5189		68.359375
5190		58.593750
5191		64.453125
5192		56.640625
5193		62.500000
5194		52.734375
5195		58.593750
5196		50.781250
5197		56.640625
5198		46.875000
5199		52.734375
5200		44.921875
5201		48.828125
5202		41.015625
5203		46.875000
5204		37.109375
5205		42.968750
5206		33.203125
5207		41.015625
5208		31.250000
5209		37.109375
5210		27.343750
5211		33.203125
5212		23.437500
5213		29.296875
5214		19.531250
5215		27.343750
5216		15.625000
5217		23.437500
5218		13.671875
5219		19.531250
5220		9.765625
5221		15.625000
5222		3.906250
5223		13.671875
5224		1.953125
5225		9.765625
5226		-1.953125
5227		3.906250
5228		-5.859375
5229		0.000000
5230		-9.765625
5231		-3.906250
5232		-13.671875
5233		-5.859375
5234		-17.578125
5235		-9.765625
5236		-19.531250
5237		-13.671875
5238		-25.390625
5239		-17.578125
5240		-27.343750
5241		-21.484375
5242		-31.250000
5243		-25.390625
5244		-35.156250
5245		-29.296875
5246		-39.062500
5247		-33.203125
5248		-42.968750
5249		-37.109375
5250		-46.875000
5251		-41.015625
5252		-50.781250
5253		-44.921875
5254		-54.687500
5255		-48.828125
5256		-58.593750
5257		-50.781250
5258		-60.546875
5259		-54.687500
5260		-64.453125
5261		-58.593750
5262		-68.359375
5263		-62.500000
5264		-72.265625
5265		-66.406250
5266		-74.218750
5267		-70.312500
5268		-78.125000
5269		-72.265625
5270		-82.031250
5271		-76.171875
5272		-85.937500
5273		-80.078125
5274		-87.890625
5275		-82.031250
5276		-91.796875
5277		-85.937500
5278		-95.703125
5279		-89.843750
5280		-97.656250
5281		-93.750000
5282		-101.562500
5283		-95.703125
5284		-103.515625
5285		-99.609375
5286		-107.421875
5287		-101.562500
5288		-111.328125
5289		-105.468750
5290		-113.281250
5291		-107.421875
5292		-115.234375
5293		-111.328125
5294		-119.140625
5295		-113.281250
5296		-121.093750
5297		-115.234375
5298		-123.046875
5299		-119.140625
5300		-126.953125
5301		-121.093750
5302		-128.906250
5303		-123.046875
5304		-130.859375
5305		-126.953125
5306		-134.765625
5307		-126.953125
5308		-134.765625
5309		-128.906250
5310		-136.718750
5311		-132.812500
5312		-138.671875
5313		-134.765625
5314		-140.625000
5315		-136.718750
5316		-142.578125
5317		-138.671875
5318		-144.531250
5319		-138.671875
5320		-144.531250
5321		-140.625000
5322		-148.437500
5323		-142.578125
5324		-148.437500
5325		-142.578125
5326		-150.390625
5327		-146.484375
5328		-150.390625
5329		-146.484375
5330		-150.390625
5331		-148.437500
5332		-152.343750
5333		-148.437500
5334		-152.343750
5335		-150.390625
5336		-154.296875
5337		-150.390625
5338		-156.250000
5339		-150.390625
5340		-156.250000
5341		-150.390625
5342		-156.250000
5343		-150.390625
5344		-154.296875
5345		-152.343750
5346		-154.296875
5347		-152.343750
5348		-156.250000
5349		-152.343750
5350		-154.296875
5351		-152.343750
5352		-154.296875
5353		-152.343750
5354		-154.296875
5355		-152.343750
5356		-154.296875
5357		-148.437500
5358		-154.296875
5359		-148.437500
5360		-152.343750
5361		-150.390625
5362		-152.343750
5363		-148.437500
5364		-152.343750
5365		-148.437500
5366		-150.390625
5367		-146.484375
5368		-148.437500
5369		-146.484375
5370		-148.437500
5371		-144.531250
5372		-146.484375
5373		-142.578125
5374		-146.484375
5375		-140.625000
5376		-144.531250
5377		-140.625000
5378		-142.578125
5379		-138.671875
5380		-140.625000
5381		-136.718750
5382		-138.671875
5383		-134.765625
5384		-136.718750
5385		-132.812500
5386		-134.765625
5387		-130.859375
5388		-132.812500
5389		-128.906250
5390		-130.859375
5391		-126.953125
5392		-128.906250
5393		-123.046875
5394		-125.000000
5395		-121.093750
5396		-123.046875
5397		-119.140625
5398		-121.093750
5399		-115.234375
5400		-117.187500
5401		-113.281250
5402		-115.234375
5403		-111.328125
5404		-113.281250
5405		-107.421875
5406		-109.375000
5407		-103.515625
5408		-107.421875
5409		-101.562500
5410		-103.515625
5411		-97.656250
5412		-101.562500
5413		-95.703125
5414		-97.656250
5415		-91.796875
5416		-93.750000
5417		-87.890625
5418		-89.843750
5419		-85.937500
5420		-87.890625
5421		-82.031250
5422		-83.984375
5423		-78.125000
5424		-80.078125
5425		-74.218750
5426		-76.171875
5427		-70.312500
5428		-72.265625
5429		-68.359375
5430		-70.312500
5431		-64.453125
5432		-66.406250
5433		-60.546875
5434		-62.500000
5435		-56.640625
5436		-58.593750
5437		-52.734375
5438		-54.687500
5439		-48.828125
5440		-50.781250
5441		-44.921875
5442		-46.875000
5443		-41.015625
5444		-44.921875
5445		-39.062500
5446		-39.062500
5447		-33.203125
5448		-37.109375
5449		-31.250000
5450		-33.203125
5451		-27.343750
5452		-29.296875
5453		-23.437500
5454		-25.390625
5455		-19.531250
5456		-21.484375
5457		-15.625000
5458		-17.578125
5459		-11.718750
5460		-13.671875
5461		-7.812500
5462		-9.765625
5463		-3.906250
5464		-5.859375
5465		0.000000
5466		-1.953125
5467		3.906250
5468		1.953125
5469		7.812500
5470		5.859375
5471		9.765625
5472		7.812500
5473		13.671875
5474		11.718750
5475		17.578125
5476		15.625000
5477		21.484375
5478		19.531250
5479		25.390625
5480		23.437500
5481		29.296875
5482		27.343750
5483		31.250000
5484		29.296875
5485		35.156250
5486		33.203125
5487		39.062500
5488		37.109375
5489		42.968750
5490		39.062500
5491		44.921875
5492		42.968750
5493		48.828125
5494		46.875000
5495		50.781250
5496		48.828125
5497		54.687500
5498		52.734375
5499		58.593750
5500		54.687500
5501		60.546875
5502		58.593750
5503		64.453125
5504		60.546875
5505		66.406250
5506		64.453125
5507		68.359375
5508		66.406250
5509		72.265625
5510		70.312500
5511		74.218750
5512		72.265625
5513		76.171875
5514		74.218750
5515		80.078125
5516		78.125000
5517		82.031250
5518		80.078125
5519		83.984375
5520		82.031250
5521		87.890625
5522		83.984375
5523		89.843750
5524		85.937500
5525		91.796875
5526		89.843750
5527		93.750000
5528		91.796875
5529		95.703125
5530		93.750000
5531		97.656250
5532		95.703125
5533		99.609375
5534		97.656250
5535		101.562500
5536		99.609375
5537		103.515625
5538		101.562500
5539		105.468750
5540		101.562500
5541		107.421875
5542		103.515625
5543		107.421875
5544		105.468750
5545		109.375000
5546		107.421875
5547		111.328125
5548		109.375000
5549		113.281250
5550		109.375000
5551		113.281250
5552		111.328125
5553		115.234375
5554		111.328125
5555		115.234375
5556		113.281250
5557		117.187500
5558		115.234375
5559		117.187500
5560		115.234375
5561		119.140625
5562		115.234375
5563		119.140625
5564		117.187500
5565		119.140625
5566		117.187500
5567		121.093750
5568		117.187500
5569		121.093750
5570		119.140625
5571		121.093750
5572		119.140625
5573		123.046875
5574		119.140625
5575		123.046875
5576		119.140625
5577		123.046875
5578		119.140625
5579		123.046875
5580		119.140625
5581		123.046875
5582		121.093750
5583		123.046875
5584		121.093750
5585		123.046875
5586		119.140625
5587		125.000000
5588		119.140625
5589		123.046875
5590		121.093750
5591		123.046875
5592		119.140625
5593		123.046875
5594		119.140625
5595		123.046875
5596		119.140625
5597		121.093750
5598		117.187500
5599		121.093750
5600		117.187500
5601		121.093750
5602		117.187500
5603		119.140625
5604		115.234375
5605		119.140625
5606		115.234375
5607		119.140625
5608		113.281250
5609		117.187500
5610		113.281250
5611		117.187500
5612		111.328125
5613		115.234375
5614		111.328125
5615		113.281250
5616		109.375000
5617		113.281250
5618		107.421875
5619		111.328125
5620		107.421875
5621		111.328125
5622		105.468750
5623		109.375000
5624		103.515625
5625		107.421875
5626		101.562500
5627		105.468750
5628		99.609375
5629		103.515625
5630		97.656250
5631		103.515625
5632		97.656250
5633		99.609375
5634		93.750000
5635		99.609375
5636		91.796875
5637		97.656250
5638		89.843750
5639		95.703125
5640		87.890625
5641		91.796875
5642		85.937500
5643		89.843750
5644		83.984375
5645		87.890625
5646		80.078125
5647		85.937500
5648		78.125000
5649		83.984375
5650		76.171875
5651		80.078125
5652		74.218750
5653		78.125000
5654		70.312500
5655		76.171875
5656		68.359375
5657		72.265625
5658		64.453125
5659		70.312500
5660		62.500000
5661		68.359375
5662		58.593750
5663		64.453125
5664		56.640625
5665		62.500000
5666		52.734375
5667		58.593750
5668		50.781250
5669		54.687500
5670		46.875000
5671		52.734375
5672		42.968750
5673		48.828125
5674		41.015625
5675		44.921875
5676		37.109375
5677		42.968750
5678		33.203125
5679		39.062500
5680		29.296875
5681		35.156250
5682		27.343750
5683		31.250000
5684		23.437500
5685		29.296875
5686		19.531250
5687		25.390625
5688		15.625000
5689		21.484375
5690		13.671875
5691		19.531250
5692		9.765625
5693		15.625000
5694		5.859375
5695		11.718750
5696		1.953125
5697		7.812500
5698		-1.953125
5699		3.906250
5700		-5.859375
5701		0.000000
5702		-9.765625
5703		-3.906250
5704		-13.671875
5705		-7.812500
5706		-17.578125
5707		-9.765625
5708		-19.531250
5709		-15.625000
5710		-25.390625
5711		-19.531250
5712		-29.296875
5713		-21.484375
5714		-31.250000
5715		-25.390625
5716		-35.156250
5717		-29.296875
5718		-39.062500
5719		-33.203125
5720		-42.968750
5721		-37.109375
5722		-46.875000
5723		-41.015625
5724		-50.781250
5725		-44.921875
5726		-54.687500
5727		-48.828125
5728		-56.640625
5729		-52.734375
5730		-60.546875
5731		-54.687500
5732		-64.453125
5733		-58.593750
5734		-68.359375
5735		-62.500000
5736		-72.265625
5737		-66.406250
5738		-76.171875
5739		-70.312500
5740		-78.125000
5741		-72.265625
5742		-82.031250
5743		-76.171875
5744		-85.937500
5745		-80.078125
5746		-89.843750
5747		-83.984375
5748		-91.796875
5749		-85.937500
5750		-95.703125
5751		-89.843750
5752		-97.656250
5753		-93.750000
5754		-101.562500
5755		-95.703125
5756		-105.468750
5757		-99.609375
5758		-107.421875
5759		-101.562500
5760		-109.375000
5761		-105.468750
5762		-113.281250
5763		-107.421875
5764		-115.234375
5765		-111.328125
5766		-119.140625
5767		-113.281250
5768		-121.093750
5769		-115.234375
5770		-123.046875
5771		-119.140625
5772		-125.000000
5773		-121.093750
5774		-128.906250
5775		-123.046875
5776		-130.859375
5777		-126.953125
5778		-132.812500
5779		-128.906250
5780		-134.765625
5781		-128.906250
5782		-136.718750
5783		-132.812500
5784		-138.671875
5785		-134.765625
5786		-140.625000
5787		-136.718750
5788		-142.578125
5789		-138.671875
5790		-144.531250
5791		-138.671875
5792		-144.531250
5793		-140.625000
5794		-146.484375
5795		-142.578125
5796		-146.484375
5797		-144.531250
5798		-148.437500
5799		-144.531250
5800		-150.390625
5801		-146.484375
5802		-150.390625
5803		-146.484375
5804		-152.343750
5805		-148.437500
5806		-152.343750
5807		-148.437500
5808		-152.343750
5809		-150.390625
5810		-154.296875
5811		-150.390625
5812		-154.296875
5813		-150.390625
5814		-154.296875
5815		-150.390625
5816		-154.296875
5817		-150.390625
5818		-154.296875
5819		-152.343750
5820		-154.296875
5821		-152.343750
5822		-154.296875
5823		-152.343750
5824		-154.296875
5825		-150.390625
5826		-154.296875
5827		-150.390625
5828		-152.343750
5829		-150.390625
5830		-152.343750
5831		-150.390625
5832		-152.343750
5833		-148.437500
5834		-152.343750
5835		-148.437500
5836		-150.390625
5837		-146.484375
5838		-148.437500
5839		-146.484375
5840		-148.437500
5841		-144.531250
5842		-146.484375
5843		-142.578125
5844		-144.531250
5845		-142.578125
5846		-144.531250
5847		-140.625000
5848		-142.578125
5849		-138.671875
5850		-140.625000
5851		-136.718750
5852		-138.671875
5853		-134.765625
5854		-136.718750
5855		-132.812500
5856		-134.765625
5857		-130.859375
5858		-132.812500
5859		-128.906250
5860		-130.859375
5861		-126.953125
5862		-128.906250
5863		-125.000000
5864		-126.953125
5865		-121.093750
5866		-125.000000
5867		-119.140625
5868		-121.093750
5869		-117.187500
5870		-119.140625
5871		-113.281250
5872		-115.234375
5873		-111.328125
5874		-113.281250
5875		-107.421875
5876		-109.375000
5877		-105.468750
5878		-107.421875
5879		-101.562500
5880		-105.468750
5881		-99.609375
5882		-101.562500
5883		-95.703125
5884		-97.656250
5885		-93.750000
5886		-95.703125
5887		-89.843750
5888		-91.796875
5889		-85.937500
5890		-87.890625
5891		-82.031250
5892		-83.984375
5893		-78.125000
5894		-82.031250
5895		-76.171875
5896		-78.125000
5897		-72.265625
5898		-74.218750
5899		-68.359375
5900		-70.312500
5901		-64.453125
5902		-68.359375
5903		-62.500000
5904		-64.453125
5905		-58.593750
5906		-60.546875
5907		-54.687500
5908		-56.640625
5909		-50.781250
5910		-52.734375
5911		-46.875000
5912		-48.828125
5913		-42.968750
5914		-44.921875
5915		-39.062500
5916		-41.015625
5917		-35.156250
5918		-37.109375
5919		-31.250000
5920		-35.156250
5921		-27.343750
5922		-29.296875
5923		-23.437500
5924		-27.343750
5925		-21.484375
5926		-21.484375
5927		-15.625000
5928		-19.531250
5929		-13.671875
5930		-15.625000
5931		-9.765625
5932		-11.718750
5933		-5.859375
5934		-7.812500
5935		-1.953125
5936		-3.906250
5937		1.953125
5938		0.000000
5939		5.859375
5940		3.906250
5941		9.765625
5942		7.812500
5943		13.671875
5944		9.765625
5945		15.625000
5946		13.671875
5947		19.531250
5948		17.578125
5949		23.437500
5950		21.484375
5951		27.343750
5952		25.390625
5953		31.250000
5954		29.296875
5955		33.203125
5956		31.250000
5957		37.109375
5958		35.156250
5959		41.015625
5960		39.062500
5961		42.968750
5962		41.015625
5963		46.875000
5964		44.921875
5965		50.781250
5966		46.875000
5967		52.734375
5968		50.781250
5969		56.640625
5970		54.687500
5971		58.593750
5972		56.640625
5973		62.500000
5974		58.593750
5975		64.453125
5976		62.500000
5977		68.359375
5978		66.406250
5979		70.312500
5980		68.359375
5981		74.218750
5982		72.265625
5983		76.171875
5984		74.218750
5985		78.125000
5986		76.171875
5987		82.031250
5988		78.125000
5989		83.984375
5990		82.031250
5991		85.937500
5992		83.984375
5993		87.890625
5994		85.937500
5995		89.843750
5996		87.890625
5997		93.750000
5998		89.843750
5999		93.750000
6000		91.796875
6001		97.656250
6002		95.703125
6003		99.609375
6004		97.656250
6005		101.562500
6006		97.656250
6007		103.515625
6008		99.609375
6009		103.515625
6010		101.562500
6011		105.468750
6012		103.515625
6013		107.421875
6014		105.468750
6015		109.375000
6016		107.421875
6017		111.328125
6018		107.421875
6019		111.328125
6020		109.375000
6021		113.281250
6022		111.328125
6023		113.281250
6024		111.328125
6025		115.234375
6026		113.281250
6027		117.187500
6028		113.281250
6029		117.187500
6030		115.234375
6031		119.140625
6032		117.187500
6033		119.140625
6034		117.187500
6035		121.093750
6036		117.187500
6037		121.093750
6038		119.140625
6039		121.093750
6040		119.140625
6041		123.046875
6042		119.140625
6043		123.046875
6044		119.140625
6045		123.046875
6046		121.093750
6047		123.046875
6048		121.093750
6049		123.046875
6050		121.093750
6051		125.000000
6052		121.093750
6053		125.000000
6054		121.093750
6055		125.000000
6056		121.093750
6057		125.000000
6058		121.093750
6059		123.046875
6060		121.093750
6061		123.046875
6062		121.093750
6063		123.046875
6064		121.093750
6065		123.046875
6066		119.140625
6067		123.046875
6068		119.140625
6069		123.046875
6070		119.140625
6071		121.093750
6072		117.187500
6073		121.093750
6074		117.187500
6075		121.093750
6076		117.187500
6077		119.140625
6078		115.234375
6079		119.140625
6080		115.234375
6081		117.187500
6082		113.281250
6083		117.187500
6084		111.328125
6085		115.234375
6086		109.375000
6087		115.234375
6088		109.375000
6089		113.281250
6090		109.375000
6091		111.328125
6092		107.421875
6093		111.328125
6094		105.468750
6095		109.375000
6096		103.515625
6097		107.421875
6098		101.562500
6099		105.468750
6100		99.609375
6101		103.515625
6102		97.656250
6103		103.515625
6104		95.703125
6105		99.609375
6106		93.750000
6107		99.609375
6108		91.796875
6109		97.656250
6110		89.843750
6111		95.703125
6112		87.890625
6113		93.750000
6114		85.937500
6115		89.843750
6116		83.984375
6117		87.890625
6118		82.031250
6119		85.937500
6120		78.125000
6121		83.984375
6122		76.171875
6123		82.031250
6124		74.218750
6125		78.125000
6126		70.312500
6127		76.171875
6128		68.359375
6129		72.265625
6130		64.453125
6131		70.312500
6132		62.500000
6133		66.406250
6134		58.593750
6135		64.453125
6136		56.640625
6137		60.546875
6138		52.734375
6139		58.593750
6140		48.828125
6141		54.687500
6142		46.875000
6143		52.734375
6144		42.968750
6145		48.828125
6146		41.015625
6147		46.875000
6148		37.109375
6149		42.968750
6150		33.203125
6151		39.062500
6152		29.296875
6153		35.156250
6154		25.390625
6155		31.250000
6156		21.484375
6157		27.343750
6158		19.531250
6159		25.390625
6160		15.625000
6161		21.484375
6162		11.718750
6163		17.578125
6164		7.812500
6165		13.671875
6166		3.906250
6167		9.765625
6168		1.953125
6169		5.859375
6170		-1.953125
6171		3.906250
6172		-5.859375
6173		0.000000
6174		-9.765625
6175		-3.906250
6176		-13.671875
6177		-7.812500
6178		-17.578125
6179		-11.718750
6180		-21.484375
6181		-15.625000
6182		-25.390625
6183		-19.531250
6184		-29.296875
6185		-23.437500
6186		-33.203125
6187		-27.343750
6188		-37.109375
6189		-31.250000
6190		-41.015625
6191		-33.203125
6192		-42.968750
6193		-37.109375
6194		-46.875000
6195		-41.015625
6196		-50.781250
6197		-44.921875
6198		-54.687500
6199		-48.828125
6200		-58.593750
6201		-52.734375
6202		-62.500000
6203		-56.640625
6204		-64.453125
6205		-60.546875
6206		-68.359375
6207		-62.500000
6208		-72.265625
6209		-66.406250
6210		-76.171875
6211		-70.312500
6212		-80.078125
6213		-74.218750
6214		-82.031250
6215		-76.171875
6216		-87.890625
6217		-80.078125
6218		-89.843750
6219		-83.984375
6220		-93.750000
6221		-87.890625
6222		-95.703125
6223		-89.843750
6224		-99.609375
6225		-93.750000
6226		-101.562500
6227		-95.703125
6228		-105.468750
6229		-99.609375
6230		-107.421875
6231		-103.515625
6232		-111.328125
6233		-105.468750
6234		-115.234375
6235		-107.421875
6236		-117.187500
6237		-111.328125
6238		-119.140625
6239		-113.281250
6240		-121.093750
6241		-117.187500
6242		-125.000000
6243		-117.187500
6244		-126.953125
6245		-121.093750
6246		-128.906250
6247		-123.046875
6248		-130.859375
6249		-125.000000
6250		-132.812500
6251		-128.906250
6252		-134.765625
6253		-128.906250
6254		-138.671875
6255		-132.812500
6256		-138.671875
6257		-134.765625
6258		-142.578125
6259		-134.765625
6260		-142.578125
6261		-138.671875
6262		-144.531250
6263		-140.625000
6264		-146.484375
6265		-140.625000
6266		-146.484375
6267		-140.625000
6268		-148.437500
6269		-142.578125
6270		-148.437500
6271		-144.531250
6272		-150.390625
6273		-146.484375
6274		-150.390625
6275		-146.484375
6276		-152.343750
6277		-146.484375
6278		-152.343750
6279		-148.437500
6280		-154.296875
6281		-148.437500
6282		-156.250000
6283		-148.437500
6284		-154.296875
6285		-150.390625
6286		-154.296875
6287		-150.390625
6288		-156.250000
6289		-150.390625
6290		-154.296875
6291		-150.390625
6292		-156.250000
6293		-148.437500
6294		-154.296875
6295		-150.390625
6296		-154.296875
6297		-150.390625
6298		-154.296875
6299		-148.437500
6300		-156.250000
6301		-146.484375
6302		-152.343750
6303		-148.437500
6304		-152.343750
6305		-148.437500
6306		-154.296875
6307		-144.531250
6308		-150.390625
6309		-144.531250
6310		-150.390625
6311		-144.531250
6312		-148.437500
6313		-142.578125
6314		-146.484375
6315		-140.625000
6316		-146.484375
6317		-138.671875
6318		-144.531250
6319		-138.671875
6320		-142.578125
6321		-136.718750
6322		-142.578125
6323		-132.812500
6324		-140.625000
6325		-132.812500
6326		-138.671875
6327		-130.859375
6328		-134.765625
6329		-128.906250
6330		-132.812500
6331		-126.953125
6332		-130.859375
6333		-123.046875
6334		-130.859375
6335		-123.046875
6336		-126.953125
6337		-121.093750
6338		-123.046875
6339		-117.187500
6340		-123.046875
6341		-113.281250
6342		-117.187500
6343		-109.375000
6344		-115.234375
6345		-111.328125
6346		-113.281250
6347		-107.421875
6348		-109.375000
6349		-103.515625
6350		-109.375000
6351		-99.609375
6352		-105.468750
6353		-97.656250
6354		-99.609375
6355		-95.703125
6356		-97.656250
6357		-89.843750
6358		-97.656250
6359		-87.890625
6360		-91.796875
6361		-83.984375
6362		-87.890625
6363		-82.031250
6364		-83.984375
6365		-78.125000
6366		-82.031250
6367		-72.265625
6368		-78.125000
6369		-72.265625
6370		-74.218750
6371		-68.359375
6372		-70.312500
6373		-62.500000
6374		-68.359375
6375		-60.546875
6376		-62.500000
6377		-54.687500
6378		-58.593750
6379		-52.734375
6380		-54.687500
6381		-48.828125
6382		-52.734375
6383		-42.968750
6384		-48.828125
6385		-41.015625
6386		-44.921875
6387		-39.062500
6388		-41.015625
6389		-35.156250
6390		-37.109375
6391		-29.296875
6392		-33.203125
6393		-23.437500
6394		-31.250000
6395		-23.437500
6396		-25.390625
6397		-19.531250
6398		-21.484375
6399		-15.625000
6400		-19.531250
6401		-9.765625
6402		-13.671875
6403		-7.812500
6404		-9.765625
6405		-3.906250
6406		-7.812500
6407		1.953125
6408		-5.859375
6409		3.906250
6410		0.000000
6411		7.812500
6412		3.906250
6413		9.765625
6414		7.812500
6415		13.671875
6416		11.718750
6417		17.578125
6418		13.671875
6419		21.484375
6420		19.531250
6421		25.390625
6422		21.484375
6423		29.296875
6424		23.437500
6425		33.203125
6426		29.296875
6427		37.109375
6428		33.203125
6429		39.062500
6430		37.109375
6431		41.015625
6432		39.062500
6433		46.875000
6434		41.015625
6435		48.828125
6436		44.921875
6437		50.781250
6438		48.828125
6439		54.687500
6440		50.781250
6441		60.546875
6442		52.734375
6443		60.546875
6444		56.640625
6445		64.453125
6446		60.546875
6447		66.406250
6448		64.453125
6449		70.312500
6450		66.406250
6451		74.218750
6452		66.406250
6453		76.171875
6454		72.265625
6455		76.171875
6456		74.218750
6457		80.078125
6458		74.218750
6459		83.984375
6460		80.078125
6461		85.937500
6462		82.031250
6463		85.937500
6464		83.984375
6465		87.890625
6466		85.937500
6467		91.796875
6468		87.890625
6469		93.750000
6470		89.843750
6471		95.703125
6472		93.750000
6473		97.656250
6474		93.750000
6475		101.562500
6476		97.656250
6477		101.562500
6478		95.703125
6479		103.515625
6480		101.562500
6481		105.468750
6482		103.515625
6483		107.421875
6484		103.515625
6485		111.328125
6486		103.515625
6487		109.375000
6488		107.421875
6489		111.328125
6490		107.421875
6491		115.234375
6492		109.375000
6493		113.281250
6494		109.375000
6495		117.187500
6496		111.328125
6497		115.234375
6498		113.281250
6499		117.187500
6500		113.281250
6501		117.187500
6502		113.281250
6503		121.093750
6504		115.234375
6505		119.140625
6506		115.234375
6507		121.093750
6508		115.234375
6509		121.093750
6510		119.140625
6511		121.093750
6512		119.140625
6513		123.046875
6514		119.140625
6515		123.046875
6516		119.140625
6517		123.046875
6518		121.093750
6519		123.046875
6520		119.140625
6521		125.000000
6522		121.093750
6523		123.046875
6524		119.140625
6525		125.000000
6526		121.093750
6527		123.046875
6528		121.093750
6529		125.000000
6530		121.093750
6531		123.046875
6532		119.140625
6533		123.046875
6534		119.140625
6535		123.046875
6536		119.140625
6537		123.046875
6538		119.140625
6539		123.046875
6540		119.140625
6541		121.093750
6542		119.140625
6543		121.093750
6544		117.187500
6545		121.093750
6546		117.187500
6547		119.140625
6548		115.234375
6549		119.140625
6550		115.234375
6551		119.140625
6552		113.281250
6553		117.187500
6554		113.281250
6555		117.187500
6556		111.328125
6557		115.234375
6558		111.328125
6559		113.281250
6560		109.375000
6561		113.281250
6562		107.421875
6563		111.328125
6564		105.468750
6565		109.375000
6566		103.515625
6567		107.421875
6568		103.515625
6569		107.421875
6570		99.609375
6571		105.468750
6572		97.656250
6573		103.515625
6574		97.656250
6575		101.562500
6576		95.703125
6577		101.562500
6578		93.750000
6579		99.609375
6580		91.796875
6581		95.703125
6582		89.843750
6583		93.750000
6584		85.937500
6585		91.796875
6586		83.984375
6587		89.843750
6588		82.031250
6589		87.890625
6590		80.078125
6591		85.937500
6592		76.171875
6593		82.031250
6594		74.218750
6595		80.078125
6596		72.265625
6597		78.125000
6598		68.359375
6599		74.218750
6600		66.406250
6601		70.312500
6602		62.500000
6603		70.312500
6604		58.593750
6605		66.406250
6606		56.640625
6607		62.500000
6608		54.687500
6609		60.546875
6610		50.781250
6611		56.640625
6612		48.828125
6613		54.687500
6614		44.921875
6615		50.781250
6616		41.015625
6617		46.875000
6618		37.109375
6619		44.921875
6620		35.156250
6621		41.015625
6622		29.296875
6623		39.062500
6624		27.343750
6625		35.156250
6626		25.390625
6627		31.250000
6628		21.484375
6629		27.343750
6630		17.578125
6631		23.437500
6632		13.671875
6633		19.531250
6634		9.765625
6635		15.625000
6636		5.859375
6637		11.718750
6638		3.906250
6639		9.765625
6640		-1.953125
6641		5.859375
6642		-3.906250
6643		1.953125
6644		-9.765625
6645		-1.953125
6646		-11.718750
6647		-5.859375
6648		-15.625000
6649		-9.765625
6650		-19.531250
6651		-13.671875
6652		-23.437500
6653		-17.578125
6654		-27.343750
6655		-19.531250
6656		-31.250000
6657		-25.390625
6658		-35.156250
6659		-27.343750
6660		-37.109375
6661		-31.250000
6662		-41.015625
6663		-35.156250
6664		-44.921875
6665		-39.062500
6666		-48.828125
6667		-42.968750
6668		-52.734375
6669		-46.875000
6670		-56.640625
6671		-50.781250
6672		-60.546875
6673		-54.687500
6674		-64.453125
6675		-56.640625
6676		-66.406250
6677		-60.546875
6678		-70.312500
6679		-64.453125
6680		-74.218750
6681		-68.359375
6682		-78.125000
6683		-72.265625
6684		-82.031250
6685		-74.218750
6686		-83.984375
6687		-78.125000
6688		-87.890625
6689		-82.031250
6690		-89.843750
6691		-85.937500
6692		-93.750000
6693		-87.890625
6694		-97.656250
6695		-91.796875
6696		-99.609375
6697		-95.703125
6698		-103.515625
6699		-97.656250
6700		-107.421875
6701		-101.562500
6702		-109.375000
6703		-103.515625
6704		-111.328125
6705		-107.421875
6706		-115.234375
6707		-109.375000
6708		-117.187500
6709		-113.281250
6710		-121.093750
6711		-113.281250
6712		-123.046875
6713		-117.187500
6714		-125.000000
6715		-119.140625
6716		-126.953125
6717		-123.046875
6718		-130.859375
6719		-125.000000
6720		-130.859375
6721		-126.953125
6722		-132.812500
6723		-128.906250
6724		-136.718750
6725		-130.859375
6726		-136.718750
6727		-132.812500
6728		-140.625000
6729		-134.765625
6730		-140.625000
6731		-136.718750
6732		-142.578125
6733		-138.671875
6734		-144.531250
6735		-140.625000
6736		-146.484375
6737		-140.625000
6738		-146.484375
6739		-142.578125
6740		-150.390625
6741		-144.531250
6742		-150.390625
6743		-146.484375
6744		-150.390625
6745		-146.484375
6746		-150.390625
6747		-146.484375
6748		-152.343750
6749		-148.437500
6750		-152.343750
6751		-148.437500
6752		-154.296875
6753		-148.437500
6754		-154.296875
6755		-150.390625
6756		-154.296875
6757		-150.390625
6758		-154.296875
6759		-150.390625
6760		-154.296875
6761		-150.390625
6762		-154.296875
6763		-150.390625
6764		-154.296875
6765		-150.390625
6766		-154.296875
6767		-150.390625
6768		-154.296875
6769		-150.390625
6770		-154.296875
6771		-150.390625
6772		-152.343750
6773		-148.437500
6774		-152.343750
6775		-148.437500
6776		-152.343750
6777		-148.437500
6778		-150.390625
6779		-146.484375
6780		-150.390625
6781		-144.531250
6782		-148.437500
6783		-144.531250
6784		-146.484375
6785		-142.578125
6786		-146.484375
6787		-142.578125
6788		-144.531250
6789		-140.625000
6790		-142.578125
6791		-136.718750
6792		-140.625000
6793		-136.718750
6794		-140.625000
6795		-134.765625
6796		-138.671875
6797		-132.812500
6798		-136.718750
6799		-130.859375
6800		-134.765625
6801		-128.906250
6802		-130.859375
6803		-126.953125
6804		-130.859375
6805		-125.000000
6806		-126.953125
6807		-123.046875
6808		-125.000000
6809		-119.140625
6810		-123.046875
6811		-117.187500
6812		-119.140625
6813		-115.234375
6814		-117.187500
6815		-111.328125
6816		-113.281250
6817		-109.375000
6818		-111.328125
6819		-105.468750
6820		-109.375000
6821		-103.515625
6822		-105.468750
6823		-99.609375
6824		-101.562500
6825		-97.656250
6826		-99.609375
6827		-93.750000
6828		-95.703125
6829		-89.843750
6830		-91.796875
6831		-87.890625
6832		-89.843750
6833		-83.984375
6834		-85.937500
6835		-80.078125
6836		-82.031250
6837		-76.171875
6838		-80.078125
6839		-74.218750
6840		-76.171875
6841		-70.312500
6842		-72.265625
6843		-66.406250
6844		-68.359375
6845		-62.500000
6846		-64.453125
6847		-58.593750
6848		-62.500000
6849		-54.687500
6850		-58.593750
6851		-52.734375
6852		-54.687500
6853		-48.828125
6854		-50.781250
6855		-44.921875
6856		-46.875000
6857		-41.015625
6858		-42.968750
6859		-37.109375
6860		-39.062500
6861		-33.203125
6862		-35.156250
6863		-29.296875
6864		-31.250000
6865		-25.390625
6866		-27.343750
6867		-21.484375
6868		-23.437500
6869		-17.578125
6870		-19.531250
6871		-13.671875
6872		-15.625000
6873		-9.765625
6874		-11.718750
6875		-5.859375
6876		-7.812500
6877		-3.906250
6878		-5.859375
6879		0.000000
6880		-1.953125
6881		5.859375
6882		1.953125
6883		7.812500
6884		5.859375
6885		11.718750
6886		9.765625
6887		15.625000
6888		13.671875
6889		19.531250
6890		15.625000
6891		23.437500
6892		19.531250
6893		25.390625
6894		23.437500
6895		29.296875
6896		27.343750
6897		33.203125
6898		31.250000
6899		37.109375
6900		33.203125
6901		39.062500
6902		37.109375
6903		42.968750
6904		41.015625
6905		46.875000
6906		42.968750
6907		48.828125
6908		46.875000
6909		52.734375
6910		48.828125
6911		56.640625
6912		52.734375
6913		58.593750
6914		56.640625
6915		62.500000
6916		58.593750
6917		64.453125
6918		62.500000
6919		66.406250
6920		64.453125
6921		70.312500
6922		68.359375
6923		72.265625
6924		70.312500
6925		74.218750
6926		72.265625
6927		78.125000
6928		76.171875
6929		80.078125
6930		78.125000
6931		83.984375
6932		80.078125
6933		85.937500
6934		82.031250
6935		87.890625
6936		85.937500
6937		89.843750
6938		87.890625
6939		91.796875
6940		89.843750
6941		93.750000
6942		91.796875
6943		95.703125
6944		93.750000
6945		97.656250
6946		95.703125
6947		99.609375
6948		97.656250
6949		101.562500
6950		99.609375
6951		103.515625
6952		101.562500
6953		105.468750
6954		103.515625
6955		107.421875
6956		103.515625
6957		109.375000
6958		105.468750
6959		109.375000
6960		107.421875
6961		111.328125
6962		109.375000
6963		113.281250
6964		109.375000
6965		115.234375
6966		111.328125
6967		115.234375
6968		113.281250
6969		117.187500
6970		113.281250
6971		117.187500
6972		115.234375
6973		119.140625
6974		115.234375
6975		119.140625
6976		117.187500
6977		119.140625
6978		117.187500
6979		121.093750
6980		117.187500
6981		121.093750
6982		119.140625
6983		121.093750
6984		119.140625
6985		123.046875
6986		119.140625
6987		123.046875
6988		119.140625
6989		123.046875
6990		119.140625
6991		123.046875
6992		121.093750
6993		123.046875
6994		121.093750
6995		125.000000
6996		121.093750
6997		123.046875
6998		121.093750
6999		125.000000
7000		121.093750
7001		125.000000
7002		121.093750
7003		123.046875
7004		119.140625
7005		123.046875
7006		119.140625
7007		123.046875
7008		119.140625
7009		123.046875
7010		119.140625
7011		123.046875
7012		119.140625
7013		123.046875
7014		117.187500
7015		121.093750
7016		117.187500
7017		121.093750
7018		117.187500
7019		119.140625
7020		115.234375
7021		119.140625
7022		115.234375
7023		119.140625
7024		113.281250
7025		117.187500
7026		113.281250
7027		117.187500
7028		111.328125
7029		115.234375
7030		109.375000
7031		113.281250
7032		109.375000
7033		113.281250
7034		107.421875
7035		111.328125
7036		105.468750
7037		109.375000
7038		103.515625
7039		109.375000
7040		103.515625
7041		107.421875
7042		101.562500
7043		105.468750
7044		99.609375
7045		103.515625
7046		97.656250
7047		101.562500
7048		95.703125
7049		99.609375
7050		93.750000
7051		97.656250
7052		91.796875
7053		95.703125
7054		89.843750
7055		93.750000
7056		85.937500
7057		91.796875
7058		83.984375
7059		89.843750
7060		82.031250
7061		85.937500
7062		80.078125
7063		83.984375
7064		76.171875
7065		82.031250
7066		74.218750
7067		80.078125
7068		72.265625
7069		76.171875
7070		68.359375
7071		74.218750
7072		66.406250
7073		70.312500
7074		62.500000
7075		68.359375
7076		60.546875
7077		66.406250
7078		56.640625
7079		62.500000
7080		54.687500
7081		60.546875
7082		50.781250
7083		56.640625
7084		46.875000
7085		52.734375
7086		44.921875
7087		48.828125
7088		41.015625
7089		46.875000
7090		37.109375
7091		42.968750
7092		35.156250
7093		39.062500
7094		31.250000
7095		37.109375
7096		27.343750
7097		33.203125
7098		23.437500
7099		29.296875
7100		21.484375
7101		27.343750
7102		17.578125
7103		23.437500
7104		11.718750
7105		19.531250
7106		9.765625
7107		15.625000
7108		5.859375
7109		11.718750
7110		1.953125
7111		7.812500
7112		-1.953125
7113		3.906250
7114		-5.859375
7115		0.000000
7116		-7.812500
7117		-3.906250
7118		-11.718750
7119		-5.859375
7120		-15.625000
7121		-9.765625
7122		-19.531250
7123		-13.671875
7124		-23.437500
7125		-17.578125
7126		-27.343750
7127		-21.484375
7128		-31.250000
7129		-25.390625
7130		-35.156250
7131		-29.296875
7132		-39.062500
7133		-33.203125
7134		-42.968750
7135		-35.156250
7136		-44.921875
7137		-39.062500
7138		-48.828125
7139		-42.968750
7140		-52.734375
7141		-46.875000
7142		-56.640625
7143		-50.781250
7144		-60.546875
7145		-54.687500
7146		-64.453125
7147		-58.593750
7148		-68.359375
7149		-62.500000
7150		-72.265625
7151		-64.453125
7152		-74.218750
7153		-68.359375
7154		-78.125000
7155		-72.265625
7156		-82.031250
7157		-76.171875
7158		-83.984375
7159		-80.078125
7160		-87.890625
7161		-82.031250
7162		-91.796875
7163		-85.937500
7164		-93.750000
7165		-89.843750
7166		-97.656250
7167		-91.796875
7168		-99.609375
7169		-95.703125
7170		-103.515625
7171		-97.656250
7172		-107.421875
7173		-101.562500
7174		-109.375000
7175		-103.515625
7176		-111.328125
7177		-107.421875
7178		-115.234375
7179		-109.375000
7180		-117.187500
7181		-111.328125
7182		-121.093750
7183		-115.234375
7184		-123.046875
7185		-117.187500
7186		-125.000000
7187		-121.093750
7188		-128.906250
7189		-123.046875
7190		-128.906250
7191		-125.000000
7192		-132.812500
7193		-126.953125
7194		-132.812500
7195		-128.906250
7196		-136.718750
7197		-130.859375
7198		-138.671875
7199		-132.812500
7200		-140.625000
7201		-134.765625
7202		-140.625000
7203		-136.718750
7204		-142.578125
7205		-138.671875
7206		-144.531250
7207		-140.625000
7208		-146.484375
7209		-142.578125
7210		-146.484375
7211		-142.578125
7212		-148.437500
7213		-144.531250
7214		-148.437500
7215		-144.531250
7216		-150.390625
7217		-146.484375
7218		-150.390625
7219		-146.484375
7220		-152.343750
7221		-148.437500
7222		-152.343750
7223		-148.437500
7224		-152.343750
7225		-148.437500
7226		-152.343750
7227		-150.390625
7228		-154.296875
7229		-150.390625
7230		-154.296875
7231		-150.390625
7232		-154.296875
7233		-150.390625
7234		-154.296875
7235		-150.390625
7236		-154.296875
7237		-150.390625
7238		-154.296875
7239		-150.390625
7240		-154.296875
7241		-148.437500
7242		-152.343750
7243		-148.437500
7244		-152.343750
7245		-148.437500
7246		-150.390625
7247		-148.437500
7248		-150.390625
7249		-146.484375
7250		-150.390625
7251		-144.531250
7252		-148.437500
7253		-144.531250
7254		-148.437500
7255		-142.578125
7256		-146.484375
7257		-142.578125
7258		-144.531250
7259		-140.625000
7260		-142.578125
7261		-138.671875
7262		-142.578125
7263		-138.671875
7264		-140.625000
7265		-134.765625
7266		-138.671875
7267		-134.765625
7268		-136.718750
7269		-132.812500
7270		-134.765625
7271		-130.859375
7272		-132.812500
7273		-126.953125
7274		-130.859375
7275		-126.953125
7276		-128.906250
7277		-123.046875
7278		-125.000000
7279		-121.093750
7280		-125.000000
7281		-119.140625
7282		-121.093750
7283		-115.234375
7284		-119.140625
7285		-113.281250
7286		-115.234375
7287		-111.328125
7288		-113.281250
7289		-107.421875
7290		-109.375000
7291		-105.468750
7292		-107.421875
7293		-101.562500
7294		-103.515625
7295		-99.609375
7296		-101.562500
7297		-95.703125
7298		-97.656250
7299		-91.796875
7300		-95.703125
7301		-89.843750
7302		-91.796875
7303		-85.937500
7304		-87.890625
7305		-82.031250
7306		-83.984375
7307		-78.125000
7308		-82.031250
7309		-76.171875
7310		-78.125000
7311		-72.265625
7312		-74.218750
7313		-68.359375
7314		-70.312500
7315		-64.453125
7316		-66.406250
7317		-60.546875
7318		-62.500000
7319		-56.640625
7320		-60.546875
7321		-52.734375
7322		-56.640625
7323		-48.828125
7324		-52.734375
7325		-46.875000
7326		-48.828125
7327		-42.968750
7328		-44.921875
7329		-39.062500
7330		-41.015625
7331		-35.156250
7332		-37.109375
7333		-31.250000
7334		-33.203125
7335		-27.343750
7336		-29.296875
7337		-23.437500
7338		-25.390625
7339		-19.531250
7340		-21.484375
7341		-15.625000
7342		-17.578125
7343		-11.718750
7344		-13.671875
7345		-7.812500
7346		-9.765625
7347		-3.906250
7348		-7.812500
7349		0.000000
7350		-3.906250
7351		3.906250
7352		0.000000
7353		5.859375
7354		3.906250
7355		9.765625
7356		7.812500
7357		13.671875
7358		11.718750
7359		17.578125
7360		13.671875
7361		21.484375
7362		17.578125
7363		25.390625
7364		21.484375
7365		27.343750
7366		25.390625
7367		31.250000
7368		29.296875
7369		35.156250
7370		33.203125
7371		37.109375
7372		35.156250
7373		41.015625
7374		37.109375
7375		44.921875
7376		42.968750
7377		46.875000
7378		44.921875
7379		50.781250
7380		48.828125
7381		54.687500
7382		50.781250
7383		56.640625
7384		54.687500
7385		60.546875
7386		58.593750
7387		62.500000
7388		60.546875
7389		66.406250
7390		62.500000
7391		68.359375
7392		66.406250
7393		72.265625
7394		68.359375
7395		74.218750
7396		72.265625
7397		76.171875
7398		74.218750
7399		80.078125
7400		76.171875
7401		82.031250
7402		80.078125
7403		83.984375
7404		82.031250
7405		85.937500
7406		83.984375
7407		89.843750
7408		85.937500
7409		91.796875
7410		87.890625
7411		93.750000
7412		91.796875
7413		95.703125
7414		93.750000
7415		97.656250
7416		95.703125
7417		99.609375
7418		95.703125
7419		101.562500
7420		99.609375
7421		103.515625
7422		101.562500
7423		105.468750
7424		101.562500
7425		107.421875
7426		103.515625
7427		107.421875
7428		105.468750
7429		109.375000
7430		107.421875
7431		111.328125
7432		107.421875
7433		113.281250
7434		109.375000
7435		113.281250
7436		111.328125
7437		115.234375
7438		111.328125
7439		115.234375
7440		113.281250
7441		117.187500
7442		115.234375
7443		117.187500
7444		115.234375
7445		119.140625
7446		115.234375
7447		119.140625
7448		117.187500
7449		121.093750
7450		117.187500
7451		121.093750
7452		119.140625
7453		121.093750
7454		119.140625
7455		121.093750
7456		119.140625
7457		123.046875
7458		119.140625
7459		123.046875
7460		119.140625
7461		125.000000
7462		121.093750
7463		123.046875
7464		121.093750
7465		123.046875
7466		121.093750
7467		125.000000
7468		121.093750
7469		123.046875
7470		121.093750
7471		123.046875
7472		121.093750
7473		123.046875
7474		121.093750
7475		125.000000
7476		119.140625
7477		123.046875
7478		119.140625
7479		123.046875
7480		119.140625
7481		123.046875
7482		119.140625
7483		123.046875
7484		119.140625
7485		121.093750
7486		117.187500
7487		121.093750
7488		117.187500
7489		121.093750
7490		115.234375
7491		119.140625
7492		115.234375
7493		119.140625
7494		113.281250
7495		117.187500
7496		113.281250
7497		117.187500
7498		111.328125
7499		115.234375
7500		109.375000
7501		115.234375
7502		109.375000
7503		113.281250
7504		107.421875
7505		111.328125
7506		105.468750
7507		111.328125
7508		105.468750
7509		109.375000
7510		103.515625
7511		107.421875
7512		99.609375
7513		105.468750
7514		99.609375
7515		103.515625
7516		97.656250
7517		101.562500
7518		95.703125
7519		99.609375
7520		93.750000
7521		99.609375
7522		91.796875
7523		95.703125
7524		89.843750
7525		93.750000
7526		87.890625
7527		91.796875
7528		85.937500
7529		89.843750
7530		82.031250
7531		87.890625
7532		80.078125
7533		85.937500
7534		78.125000
7535		83.984375
7536		74.218750
7537		80.078125
7538		72.265625
7539		78.125000
7540		70.312500
7541		74.218750
7542		66.406250
7543		72.265625
7544		64.453125
7545		70.312500
7546		62.500000
7547		66.406250
7548		58.593750
7549		64.453125
7550		54.687500
7551		60.546875
7552		52.734375
7553		58.593750
7554		48.828125
7555		54.687500
7556		46.875000
7557		50.781250
7558		42.968750
7559		48.828125
7560		39.062500
7561		44.921875
7562		37.109375
7563		41.015625
7564		33.203125
7565		37.109375
7566		29.296875
7567		35.156250
7568		25.390625
7569		31.250000
7570		21.484375
7571		27.343750
7572		19.531250
7573		25.390625
7574		15.625000
7575		21.484375
7576		11.718750
7577		17.578125
7578		7.812500
7579		13.671875
7580		3.906250
7581		9.765625
7582		0.000000
7583		5.859375
7584		-3.906250
7585		1.953125
7586		-7.812500
7587		-1.953125
7588		-9.765625
7589		-3.906250
7590		-13.671875
7591		-7.812500
7592		-17.578125
7593		-11.718750
7594		-21.484375
7595		-15.625000
7596		-25.390625
7597		-19.531250
7598		-29.296875
7599		-23.437500
7600		-33.203125
7601		-27.343750
7602		-37.109375
7603		-31.250000
7604		-41.015625
7605		-35.156250
7606		-42.968750
7607		-39.062500
7608		-48.828125
7609		-42.968750
7610		-52.734375
7611		-44.921875
7612		-54.687500
7613		-48.828125
7614		-58.593750
7615		-52.734375
7616		-62.500000
7617		-56.640625
7618		-66.406250
7619		-60.546875
7620		-70.312500
7621		-64.453125
7622		-72.265625
7623		-68.359375
7624		-76.171875
7625		-70.312500
7626		-80.078125
7627		-74.218750
7628		-83.984375
7629		-78.125000
7630		-85.937500
7631		-80.078125
7632		-89.843750
7633		-83.984375
7634		-93.750000
7635		-87.890625
7636		-97.656250
7637		-91.796875
7638		-99.609375
7639		-93.750000
7640		-103.515625
7641		-97.656250
7642		-105.468750
7643		-99.609375
7644		-109.375000
7645		-103.515625
7646		-111.328125
7647		-105.468750
7648		-115.234375
7649		-109.375000
7650		-117.187500
7651		-111.328125
7652		-119.140625
7653		-115.234375
7654		-121.093750
7655		-117.187500
7656		-125.000000
7657		-119.140625
7658		-126.953125
7659		-123.046875
7660		-128.906250
7661		-125.000000
7662		-130.859375
7663		-126.953125
7664		-132.812500
7665		-128.906250
7666		-136.718750
7667		-130.859375
7668		-136.718750
7669		-132.812500
7670		-138.671875
7671		-134.765625
7672		-140.625000
7673		-136.718750
7674		-142.578125
7675		-138.671875
7676		-144.531250
7677		-140.625000
7678		-146.484375
7679		-142.578125
7680		-146.484375
7681		-142.578125
7682		-148.437500
7683		-144.531250
7684		-150.390625
7685		-146.484375
7686		-150.390625
7687		-146.484375
7688		-152.343750
7689		-148.437500
7690		-152.343750
7691		-148.437500
7692		-152.343750
7693		-150.390625
7694		-154.296875
7695		-150.390625
7696		-154.296875
7697		-150.390625
7698		-154.296875
7699		-150.390625
7700		-154.296875
7701		-152.343750
7702		-154.296875
7703		-152.343750
7704		-156.250000
7705		-152.343750
7706		-154.296875
7707		-152.343750
7708		-154.296875
7709		-152.343750
7710		-154.296875
7711		-150.390625
7712		-154.296875
7713		-150.390625
7714		-154.296875
7715		-150.390625
7716		-152.343750
7717		-148.437500
7718		-152.343750
7719		-148.437500
7720		-152.343750
7721		-148.437500
7722		-150.390625
7723		-146.484375
7724		-150.390625
7725		-146.484375
7726		-148.437500
7727		-144.531250
7728		-146.484375
7729		-142.578125
7730		-146.484375
7731		-142.578125
7732		-144.531250
7733		-140.625000
7734		-142.578125
7735		-138.671875
7736		-140.625000
7737		-136.718750
7738		-138.671875
7739		-134.765625
7740		-136.718750
7741		-132.812500
7742		-134.765625
7743		-130.859375
7744		-134.765625
7745		-128.906250
7746		-130.859375
7747		-126.953125
7748		-128.906250
7749		-125.000000
7750		-126.953125
7751		-121.093750
7752		-123.046875
7753		-119.140625
7754		-121.093750
7755		-115.234375
7756		-119.140625
7757		-113.281250
7758		-115.234375
7759		-111.328125
7760		-113.281250
7761		-107.421875
7762		-111.328125
7763		-105.468750
7764		-107.421875
7765		-101.562500
7766		-105.468750
7767		-99.609375
7768		-101.562500
7769		-95.703125
7770		-97.656250
7771		-91.796875
7772		-95.703125
7773		-89.843750
7774		-91.796875
7775		-85.937500
7776		-87.890625
7777		-82.031250
7778		-83.984375
7779		-80.078125
7780		-80.078125
7781		-76.171875
7782		-78.125000
7783		-72.265625
7784		-74.218750
7785		-68.359375
7786		-70.312500
7787		-64.453125
7788		-66.406250
7789		-60.546875
7790		-62.500000
7791		-58.593750
7792		-58.593750
7793		-54.687500
7794		-56.640625
7795		-50.781250
7796		-52.734375
7797		-46.875000
7798		-48.828125
7799		-42.968750
7800		-44.921875
7801		-39.062500
7802		-42.968750
7803		-35.156250
7804		-37.109375
7805		-31.250000
7806		-33.203125
7807		-27.343750
7808		-29.296875
7809		-23.437500
7810		-25.390625
7811		-19.531250
7812		-23.437500
7813		-13.671875
7814		-19.531250
7815		-11.718750
7816		-13.671875
7817		-7.812500
7818		-11.718750
7819		-3.906250
7820		-7.812500
7821		0.000000
7822		-3.906250
7823		1.953125
7824		0.000000
7825		5.859375
7826		3.906250
7827		9.765625
7828		5.859375
7829		15.625000
7830		9.765625
7831		17.578125
7832		11.718750
7833		21.484375
7834		19.531250
7835		25.390625
7836		21.484375
7837		27.343750
7838		25.390625
7839		31.250000
7840		27.343750
7841		35.156250
7842		31.250000
7843		37.109375
7844		35.156250
7845		42.968750
7846		37.109375
7847		44.921875
7848		39.062500
7849		48.828125
7850		44.921875
7851		52.734375
7852		46.875000
7853		52.734375
7854		50.781250
7855		56.640625
7856		54.687500
7857		60.546875
7858		56.640625
7859		62.500000
7860		60.546875
7861		66.406250
7862		62.500000
7863		68.359375
7864		64.453125
7865		72.265625
7866		66.406250
7867		76.171875
7868		72.265625
7869		78.125000
7870		72.265625
7871		80.078125
7872		76.171875
7873		82.031250
7874		78.125000
7875		83.984375
7876		82.031250
7877		85.937500
7878		83.984375
7879		89.843750
7880		85.937500
7881		91.796875
7882		87.890625
7883		93.750000
7884		89.843750
7885		95.703125
7886		91.796875
7887		99.609375
7888		93.750000
7889		99.609375
7890		95.703125
7891		99.609375
7892		97.656250
7893		101.562500
7894		99.609375
7895		105.468750
7896		99.609375
7897		107.421875
7898		101.562500
7899		109.375000
7900		103.515625
7901		109.375000
7902		105.468750
7903		111.328125
7904		105.468750
7905		113.281250
7906		109.375000
7907		113.281250
7908		111.328125
7909		113.281250
7910		111.328125
7911		115.234375
7912		111.328125
7913		117.187500
7914		111.328125
7915		119.140625
7916		113.281250
7917		119.140625
7918		113.281250
7919		121.093750
7920		113.281250
7921		121.093750
7922		115.234375
7923		123.046875
7924		117.187500
7925		121.093750
7926		119.140625
7927		121.093750
7928		117.187500
7929		123.046875
7930		117.187500
7931		123.046875
7932		117.187500
7933		125.000000
7934		117.187500
7935		125.000000
7936		117.187500
7937		125.000000
7938		117.187500
7939		125.000000
7940		119.140625
7941		125.000000
7942		119.140625
7943		123.046875
7944		119.140625
7945		123.046875
7946		117.187500
7947		125.000000
7948		117.187500
7949		125.000000
7950		117.187500
7951		125.000000
7952		117.187500
7953		123.046875
7954		115.234375
7955		123.046875
7956		115.234375
7957		121.093750
7958		115.234375
7959		119.140625
7960		115.234375
7961		119.140625
7962		113.281250
7963		119.140625
7964		111.328125
7965		119.140625
7966		111.328125
7967		119.140625
7968		109.375000
7969		117.187500
7970		109.375000
7971		115.234375
7972		107.421875
7973		113.281250
7974		107.421875
7975		111.328125
7976		107.421875
7977		109.375000
7978		103.515625
7979		109.375000
7980		101.562500
7981		109.375000
7982		99.609375
7983		107.421875
7984		97.656250
7985		105.468750
7986		95.703125
7987		103.515625
7988		93.750000
7989		101.562500
7990		93.750000
7991		99.609375
7992		91.796875
7993		95.703125
7994		89.843750
7995		93.750000
7996		85.937500
7997		93.750000
7998		83.984375
7999		91.796875
8000		82.031250
8001		89.843750
8002		80.078125
8003		85.937500
8004		76.171875
8005		83.984375
8006		76.171875
8007		82.031250
8008		72.265625
8009		78.125000
8010		70.312500
8011		76.171875
8012		66.406250
8013		72.265625
8014		62.500000
8015		72.265625
8016		60.546875
8017		68.359375
8018		56.640625
8019		66.406250
8020		54.687500
8021		62.500000
8022		50.781250
8023		58.593750
8024		50.781250
8025		54.687500
8026		46.875000
8027		52.734375
8028		42.968750
8029		48.828125
8030		39.062500
8031		46.875000
8032		35.156250
8033		42.968750
8034		31.250000
8035		41.015625
8036		29.296875
8037		37.109375
8038		25.390625
8039		33.203125
8040		21.484375
8041		29.296875
8042		19.531250
8043		25.390625
8044		15.625000
8045		21.484375
8046		9.765625
8047		17.578125
8048		5.859375
8049		13.671875
8050		3.906250
8051		11.718750
8052		0.000000
8053		7.812500
8054		-3.906250
8055		3.906250
8056		-9.765625
8057		0.000000
8058		-9.765625
8059		-3.906250
8060		-13.671875
8061		-7.812500
8062		-19.531250
8063		-11.718750
8064		-23.437500
8065		-13.671875
8066		-27.343750
8067		-17.578125
8068		-29.296875
8069		-21.484375
8070		-35.156250
8071		-25.390625
8072		-39.062500
8073		-29.296875
8074		-39.062500
8075		-33.203125
8076		-42.968750
8077		-37.109375
8078		-46.875000
8079		-41.015625
8080		-52.734375
8081		-44.921875
8082		-56.640625
8083		-46.875000
8084		-60.546875
8085		-50.781250
8086		-64.453125
8087		-54.687500
8088		-66.406250
8089		-58.593750
8090		-70.312500
8091		-60.546875
8092		-72.265625
8093		-66.406250
8094		-76.171875
8095		-70.312500
8096		-80.078125
8097		-74.218750
8098		-83.984375
8099		-76.171875
8100		-87.890625
8101		-80.078125
8102		-91.796875
8103		-82.031250
8104		-93.750000
8105		-85.937500
8106		-97.656250
8107		-89.843750
8108		-99.609375
8109		-91.796875
8110		-101.562500
8111		-97.656250
8112		-105.468750
8113		-99.609375
8114		-111.328125
8115		-101.562500
8116		-113.281250
8117		-105.468750
8118		-115.234375
8119		-107.421875
8120		-117.187500
8121		-109.375000
8122		-121.093750
8123		-111.328125
8124		-123.046875
8125		-115.234375
8126		-125.000000
8127		-119.140625
8128		-126.953125
8129		-123.046875
8130		-130.859375
8131		-123.046875
8132		-134.765625
8133		-125.000000
8134		-134.765625
8135		-128.906250
8136		-136.718750
8137		-128.906250
8138		-138.671875
8139		-130.859375
8140		-140.625000
8141		-132.812500
8142		-142.578125
8143		-134.765625
8144		-142.578125
8145		-138.671875
8146		-146.484375
8147		-140.625000
8148		-146.484375
8149		-140.625000
8150		-148.437500
8151		-142.578125
8152		-150.390625
8153		-142.578125
8154		-152.343750
8155		-144.531250
8156		-152.343750
8157		-146.484375
8158		-154.296875
8159		-146.484375
8160		-152.343750
8161		-148.437500
8162		-154.296875
8163		-150.390625
8164		-156.250000
8165		-148.437500
8166		-156.250000
8167		-150.390625
8168		-156.250000
8169		-150.390625
8170		-158.203125
8171		-150.390625
8172		-158.203125
8173		-150.390625
8174		-158.203125
8175		-150.390625
8176		-156.250000
8177		-152.343750
8178		-156.250000
8179		-152.343750
8180		-156.250000
8181		-150.390625
8182		-156.250000
8183		-150.390625
8184		-156.250000
8185		-150.390625
8186		-156.250000
8187		-148.437500
8188		-156.250000
8189		-148.437500
8190		-154.296875
8191		-148.437500
8192		-154.296875
8193		-148.437500
8194		-150.390625
8195		-146.484375
8196		-150.390625
8197		-146.484375
8198		-150.390625
8199		-142.578125
8200		-148.437500
8201		-140.625000
8202		-146.484375
8203		-140.625000
8204		-146.484375
8205		-138.671875
8206		-144.531250
8207		-136.718750
8208		-142.578125
8209		-134.765625
8210		-138.671875
8211		-134.765625
8212		-136.718750
8213		-132.812500
8214		-136.718750
8215		-128.906250
8216		-134.765625
8217		-126.953125
8218		-132.812500
8219		-125.000000
8220		-128.906250
8221		-123.046875
8222		-126.953125
8223		-119.140625
8224		-123.046875
8225		-117.187500
8226		-123.046875
8227		-115.234375
8228		-117.187500
8229		-113.281250
8230		-115.234375
8231		-107.421875
8232		-113.281250
8233		-105.468750
8234		-111.328125
8235		-103.515625
8236		-107.421875
8237		-99.609375
8238		-105.468750
8239		-97.656250
8240		-101.562500
8241		-93.750000
8242		-99.609375
8243		-91.796875
8244		-93.750000
8245		-87.890625
8246		-89.843750
8247		-83.984375
8248		-87.890625
8249		-82.031250
8250		-85.937500
8251		-76.171875
8252		-80.078125
8253		-74.218750
8254		-76.171875
8255		-70.312500
8256		-74.218750
8257		-66.406250
8258		-70.312500
8259		-62.500000
8260		-66.406250
8261		-60.546875
8262		-62.500000
8263		-56.640625
8264		-58.593750
8265		-50.781250
8266		-56.640625
8267		-48.828125
8268		-52.734375
8269		-42.968750
8270		-46.875000
8271		-41.015625
8272		-44.921875
8273		-37.109375
8274		-42.968750
8275		-33.203125
8276		-37.109375
8277		-29.296875
8278		-33.203125
8279		-27.343750
8280		-27.343750
8281		-21.484375
8282		-27.343750
8283		-17.578125
8284		-21.484375
8285		-13.671875
8286		-19.531250
8287		-9.765625
8288		-15.625000
8289		-5.859375
8290		-9.765625
8291		-1.953125
8292		-7.812500
8293		0.000000
8294		-1.953125
8295		3.906250
8296		1.953125
8297		7.812500
8298		3.906250
8299		11.718750
8300		7.812500
8301		15.625000
8302		11.718750
8303		19.531250
8304		13.671875
8305		23.437500
8306		19.531250
8307		27.343750
8308		21.484375
8309		29.296875
8310		23.437500
8311		31.250000
8312		29.296875
8313		35.156250
8314		33.203125
8315		41.015625
8316		35.156250
8317		42.968750
8318		39.062500
8319		46.875000
8320		41.015625
8321		48.828125
8322		44.921875
8323		52.734375
8324		48.828125
8325		54.687500
8326		50.781250
8327		58.593750
8328		54.687500
8329		60.546875
8330		58.593750
8331		64.453125
8332		60.546875
8333		68.359375
8334		62.500000
8335		70.312500
8336		64.453125
8337		72.265625
8338		68.359375
8339		76.171875
8340		70.312500
8341		78.125000
8342		72.265625
8343		82.031250
8344		76.171875
8345		82.031250
8346		80.078125
8347		83.984375
8348		82.031250
8349		87.890625
8350		82.031250
8351		89.843750
8352		85.937500
8353		93.750000
8354		85.937500
8355		93.750000
8356		89.843750
8357		95.703125
8358		91.796875
8359		99.609375
8360		93.750000
8361		99.609375
8362		97.656250
8363		101.562500
8364		99.609375
8365		103.515625
8366		97.656250
8367		105.468750
8368		101.562500
8369		107.421875
8370		101.562500
8371		109.375000
8372		103.515625
8373		111.328125
8374		105.468750
8375		113.281250
8376		107.421875
8377		113.281250
8378		107.421875
8379		113.281250
8380		111.328125
8381		113.281250
8382		109.375000
8383		117.187500
8384		111.328125
8385		117.187500
8386		111.328125
8387		119.140625
8388		113.281250
8389		119.140625
8390		113.281250
8391		121.093750
8392		113.281250
8393		121.093750
8394		115.234375
8395		121.093750
8396		117.187500
8397		121.093750
8398		117.187500
8399		123.046875
8400		117.187500
8401		123.046875
8402		117.187500
8403		125.000000
8404		117.187500
8405		123.046875
8406		117.187500
8407		125.000000
8408		119.140625
8409		125.000000
8410		119.140625
8411		125.000000
8412		119.140625
8413		123.046875
8414		119.140625
8415		123.046875
8416		117.187500
8417		125.000000
8418		117.187500
8419		125.000000
8420		117.187500
8421		123.046875
8422		117.187500
8423		123.046875
8424		117.187500
8425		123.046875
8426		115.234375
8427		123.046875
8428		117.187500
8429		121.093750
8430		115.234375
8431		119.140625
8432		113.281250
8433		119.140625
8434		113.281250
8435		119.140625
8436		111.328125
8437		119.140625
8438		111.328125
8439		117.187500
8440		109.375000
8441		117.187500
8442		107.421875
8443		115.234375
8444		107.421875
8445		113.281250
8446		107.421875
8447		111.328125
8448		105.468750
8449		109.375000
8450		101.562500
8451		109.375000
8452		101.562500
8453		107.421875
8454		99.609375
8455		105.468750
8456		97.656250
8457		105.468750
8458		95.703125
8459		103.515625
8460		93.750000
8461		101.562500
8462		93.750000
8463		99.609375
8464		91.796875
8465		95.703125
8466		85.937500
8467		93.750000
8468		85.937500
8469		93.750000
8470		82.031250
8471		91.796875
8472		82.031250
8473		87.890625
8474		78.125000
8475		85.937500
8476		76.171875
8477		83.984375
8478		76.171875
8479		82.031250
8480		72.265625
8481		76.171875
8482		68.359375
8483		74.218750
8484		66.406250
8485		72.265625
8486		60.546875
8487		70.312500
8488		60.546875
8489		68.359375
8490		56.640625
8491		64.453125
8492		52.734375
8493		62.500000
8494		50.781250
8495		58.593750
8496		48.828125
8497		54.687500
8498		44.921875
8499		50.781250
8500		41.015625
8501		48.828125
8502		37.109375
8503		44.921875
8504		33.203125
8505		42.968750
8506		31.250000
8507		39.062500
8508		27.343750
8509		35.156250
8510		23.437500
8511		33.203125
8512		21.484375
8513		27.343750
8514		17.578125
8515		23.437500
8516		13.671875
8517		21.484375
8518		9.765625
8519		17.578125
8520		5.859375
8521		13.671875
8522		3.906250
8523		9.765625
8524		-1.953125
8525		5.859375
8526		-5.859375
8527		3.906250
8528		-7.812500
8529		0.000000
8530		-11.718750
8531		-5.859375
8532		-13.671875
8533		-9.765625
8534		-19.531250
8535		-11.718750
8536		-23.437500
8537		-15.625000
8538		-25.390625
8539		-19.531250
8540		-33.203125
8541		-23.437500
8542		-35.156250
8543		-27.343750
8544		-39.062500
8545		-29.296875
8546		-41.015625
8547		-35.156250
8548		-44.921875
8549		-39.062500
8550		-50.781250
8551		-42.968750
8552		-52.734375
8553		-44.921875
8554		-56.640625
8555		-48.828125
8556		-60.546875
8557		-52.734375
8558		-64.453125
8559		-56.640625
8560		-68.359375
8561		-60.546875
8562		-70.312500
8563		-62.500000
8564		-74.218750
8565		-68.359375
8566		-80.078125
8567		-72.265625
8568		-82.031250
8569		-74.218750
8570		-85.937500
8571		-76.171875
8572		-87.890625
8573		-80.078125
8574		-91.796875
8575		-83.984375
8576		-95.703125
8577		-87.890625
8578		-97.656250
8579		-89.843750
8580		-99.609375
8581		-95.703125
8582		-103.515625
8583		-97.656250
8584		-107.421875
8585		-101.562500
8586		-111.328125
8587		-103.515625
8588		-113.281250
8589		-105.468750
8590		-115.234375
8591		-107.421875
8592		-119.140625
8593		-111.328125
8594		-121.093750
8595		-115.234375
8596		-123.046875
8597		-117.187500
8598		-125.000000
8599		-121.093750
8600		-128.906250
8601		-123.046875
8602		-130.859375
8603		-125.000000
8604		-134.765625
8605		-125.000000
8606		-134.765625
8607		-128.906250
8608		-138.671875
8609		-130.859375
8610		-140.625000
8611		-132.812500
8612		-140.625000
8613		-134.765625
8614		-142.578125
8615		-138.671875
8616		-144.531250
8617		-138.671875
8618		-146.484375
8619		-140.625000
8620		-148.437500
8621		-140.625000
8622		-148.437500
8623		-142.578125
8624		-152.343750
8625		-144.531250
8626		-152.343750
8627		-146.484375
8628		-154.296875
8629		-146.484375
8630		-152.343750
8631		-148.437500
8632		-152.343750
8633		-150.390625
8634		-156.250000
8635		-148.437500
8636		-156.250000
8637		-150.390625
8638		-156.250000
8639		-150.390625
8640		-158.203125
8641		-150.390625
8642		-158.203125
8643		-150.390625
8644		-158.203125
8645		-150.390625
8646		-156.250000
8647		-152.343750
8648		-156.250000
8649		-152.343750
8650		-156.250000
8651		-152.343750
8652		-158.203125
8653		-150.390625
8654		-158.203125
8655		-150.390625
8656		-156.250000
8657		-148.437500
8658		-156.250000
8659		-148.437500
8660		-156.250000
8661		-148.437500
8662		-154.296875
8663		-148.437500
8664		-152.343750
8665		-148.437500
8666		-150.390625
8667		-146.484375
8668		-150.390625
8669		-144.531250
8670		-150.390625
8671		-142.578125
8672		-148.437500
8673		-142.578125
8674		-146.484375
8675		-140.625000
8676		-146.484375
8677		-138.671875
8678		-144.531250
8679		-136.718750
8680		-142.578125
8681		-136.718750
8682		-138.671875
8683		-134.765625
8684		-136.718750
8685		-130.859375
8686		-136.718750
8687		-128.906250
8688		-134.765625
8689		-126.953125
8690		-132.812500
8691		-125.000000
8692		-128.906250
8693		-121.093750
8694		-126.953125
8695		-119.140625
8696		-125.000000
8697		-117.187500
8698		-119.140625
8699		-115.234375
8700		-117.187500
8701		-113.281250
8702		-117.187500
8703		-107.421875
8704		-113.281250
8705		-105.468750
8706		-111.328125
8707		-101.562500
8708		-107.421875
8709		-99.609375
8710		-105.468750
8711		-95.703125
8712		-101.562500
8713		-91.796875
8714		-95.703125
8715		-91.796875
8716		-91.796875
8717		-87.890625
8718		-89.843750
8719		-82.031250
8720		-87.890625
8721		-78.125000
8722		-83.984375
8723		-76.171875
8724		-82.031250
8725		-72.265625
8726		-78.125000
8727		-68.359375
8728		-74.218750
8729		-64.453125
8730		-70.312500
8731		-62.500000
8732		-64.453125
8733		-58.593750
8734		-60.546875
8735		-54.687500
8736		-60.546875
8737		-50.781250
8738		-54.687500
8739		-46.875000
8740		-50.781250
8741		-42.968750
8742		-48.828125
8743		-39.062500
8744		-44.921875
8745		-35.156250
8746		-41.015625
8747		-33.203125
8748		-35.156250
8749		-29.296875
8750		-31.250000
8751		-25.390625
8752		-27.343750
8753		-21.484375
8754		-25.390625
8755		-17.578125
8756		-21.484375
8757		-13.671875
8758		-17.578125
8759		-9.765625
8760		-13.671875
8761		-5.859375
8762		-9.765625
8763		-1.953125
8764		-5.859375
8765		0.000000
8766		-1.953125
8767		3.906250
8768		1.953125
8769		9.765625
8770		3.906250
8771		13.671875
8772		7.812500
8773		15.625000
8774		11.718750
8775		19.531250
8776		15.625000
8777		23.437500
8778		17.578125
8779		27.343750
8780		21.484375
8781		29.296875
8782		27.343750
8783		33.203125
8784		31.250000
8785		35.156250
8786		33.203125
8787		41.015625
8788		35.156250
8789		44.921875
8790		39.062500
8791		46.875000
8792		41.015625
8793		50.781250
8794		44.921875
8795		52.734375
8796		48.828125
8797		56.640625
8798		52.734375
8799		58.593750
8800		56.640625
8801		60.546875
8802		58.593750
8803		66.406250
8804		60.546875
8805		68.359375
8806		62.500000
8807		72.265625
8808		66.406250
8809		74.218750
8810		68.359375
8811		76.171875
8812		70.312500
8813		78.125000
8814		74.218750
8815		80.078125
8816		78.125000
8817		82.031250
8818		80.078125
8819		83.984375
8820		80.078125
8821		87.890625
8822		83.984375
8823		89.843750
8824		83.984375
8825		91.796875
8826		87.890625
8827		93.750000
8828		89.843750
8829		97.656250
8830		91.796875
8831		99.609375
8832		95.703125
8833		99.609375
8834		97.656250
8835		101.562500
8836		97.656250
8837		103.515625
8838		99.609375
8839		107.421875
8840		99.609375
8841		107.421875
8842		101.562500
8843		109.375000
8844		103.515625
8845		111.328125
8846		105.468750
8847		111.328125
8848		105.468750
8849		111.328125
8850		109.375000
8851		113.281250
8852		109.375000
8853		115.234375
8854		109.375000
8855		117.187500
8856		111.328125
8857		117.187500
8858		111.328125
8859		119.140625
8860		113.281250
8861		119.140625
8862		113.281250
8863		121.093750
8864		113.281250
8865		119.140625
8866		117.187500
8867		119.140625
8868		117.187500
8869		119.140625
8870		115.234375
8871		121.093750
8872		115.234375
8873		123.046875
8874		117.187500
8875		123.046875
8876		117.187500
8877		123.046875
8878		117.187500
8879		123.046875
8880		117.187500
8881		125.000000
8882		119.140625
8883		123.046875
8884		119.140625
8885		121.093750
8886		117.187500
8887		123.046875
8888		117.187500
8889		123.046875
8890		117.187500
8891		123.046875
8892		117.187500
8893		123.046875
8894		115.234375
8895		121.093750
8896		115.234375
8897		121.093750
8898		115.234375
8899		121.093750
8900		115.234375
8901		119.140625
8902		115.234375
8903		119.140625
8904		111.328125
8905		119.140625
8906		111.328125
8907		117.187500
8908		109.375000
8909		117.187500
8910		109.375000
8911		115.234375
8912		107.421875
8913		115.234375
8914		107.421875
8915		113.281250
8916		107.421875
8917		111.328125
8918		105.468750
8919		109.375000
8920		103.515625
8921		109.375000
8922		101.562500
8923		107.421875
8924		99.609375
8925		107.421875
8926		97.656250
8927		105.468750
8928		95.703125
8929		103.515625
8930		93.750000
8931		101.562500
8932		93.750000
8933		99.609375
8934		91.796875
8935		95.703125
8936		87.890625
8937		93.750000
8938		85.937500
8939		93.750000
8940		83.984375
8941		91.796875
8942		82.031250
8943		87.890625
8944		80.078125
8945		85.937500
8946		76.171875
8947		83.984375
8948		74.218750
8949		83.984375
8950		72.265625
8951		78.125000
8952		70.312500
8953		74.218750
8954		66.406250
8955		74.218750
8956		62.500000
8957		72.265625
8958		60.546875
8959		68.359375
8960		58.593750
8961		64.453125
8962		54.687500
8963		62.500000
8964		50.781250
8965		58.593750
8966		50.781250
8967		54.687500
8968		46.875000
8969		52.734375
8970		42.968750
8971		48.828125
8972		39.062500
8973		46.875000
8974		33.203125
8975		42.968750
8976		31.250000
8977		39.062500
8978		29.296875
8979		37.109375
8980		25.390625
8981		33.203125
8982		23.437500
8983		29.296875
8984		19.531250
8985		25.390625
8986		15.625000
8987		21.484375
8988		9.765625
8989		19.531250
8990		5.859375
8991		15.625000
8992		3.906250
8993		11.718750
8994		0.000000
8995		7.812500
8996		-3.906250
8997		3.906250
8998		-5.859375
8999		0.000000
9000		-9.765625
9001		-1.953125
9002		-13.671875
9003		-7.812500
9004		-17.578125
9005		-11.718750
9006		-21.484375
9007		-13.671875
9008		-25.390625
9009		-17.578125
9010		-29.296875
9011		-21.484375
9012		-35.156250
9013		-25.390625
9014		-37.109375
9015		-29.296875
9016		-39.062500
9017		-31.250000
9018		-42.968750
9019		-37.109375
9020		-48.828125
9021		-41.015625
9022		-50.781250
9023		-42.968750
9024		-56.640625
9025		-46.875000
9026		-60.546875
9027		-50.781250
9028		-62.500000
9029		-54.687500
9030		-66.406250
9031		-58.593750
9032		-70.312500
9033		-62.500000
9034		-72.265625
9035		-66.406250
9036		-76.171875
9037		-70.312500
9038		-80.078125
9039		-74.218750
9040		-83.984375
9041		-76.171875
9042		-87.890625
9043		-80.078125
9044		-89.843750
9045		-82.031250
9046		-93.750000
9047		-85.937500
9048		-97.656250
9049		-89.843750
9050		-99.609375
9051		-91.796875
9052		-101.562500
9053		-97.656250
9054		-107.421875
9055		-99.609375
9056		-111.328125
9057		-101.562500
9058		-113.281250
9059		-103.515625
9060		-115.234375
9061		-107.421875
9062		-117.187500
9063		-109.375000
9064		-121.093750
9065		-113.281250
9066		-123.046875
9067		-115.234375
9068		-125.000000
9069		-119.140625
9070		-126.953125
9071		-123.046875
9072		-130.859375
9073		-123.046875
9074		-134.765625
9075		-125.000000
9076		-134.765625
9077		-128.906250
9078		-138.671875
9079		-128.906250
9080		-138.671875
9081		-132.812500
9082		-142.578125
9083		-132.812500
9084		-142.578125
9085		-136.718750
9086		-142.578125
9087		-138.671875
9088		-144.531250
9089		-140.625000
9090		-148.437500
9091		-140.625000
9092		-148.437500
9093		-144.531250
9094		-150.390625
9095		-144.531250
9096		-152.343750
9097		-146.484375
9098		-152.343750
9099		-146.484375
9100		-152.343750
9101		-148.437500
9102		-154.296875
9103		-150.390625
9104		-156.250000
9105		-148.437500
9106		-158.203125
9107		-148.437500
9108		-158.203125
9109		-150.390625
9110		-158.203125
9111		-150.390625
9112		-158.203125
9113		-152.343750
9114		-158.203125
9115		-152.343750
9116		-158.203125
9117		-150.390625
9118		-156.250000
9119		-154.296875
9120		-156.250000
9121		-154.296875
9122		-158.203125
9123		-152.343750
9124		-158.203125
9125		-150.390625
9126		-158.203125
9127		-150.390625
9128		-158.203125
9129		-150.390625
9130		-158.203125
9131		-150.390625
9132		-156.250000
9133		-148.437500
9134		-154.296875
9135		-148.437500
9136		-152.343750
9137		-148.437500
9138		-152.343750
9139		-146.484375
9140		-152.343750
9141		-144.531250
9142		-150.390625
9143		-144.531250
9144		-148.437500
9145		-142.578125
9146		-148.437500
9147		-140.625000
9148		-146.484375
9149		-138.671875
9150		-144.531250
9151		-138.671875
9152		-140.625000
9153		-136.718750
9154		-138.671875
9155		-134.765625
9156		-138.671875
9157		-130.859375
9158		-136.718750
9159		-128.906250
9160		-134.765625
9161		-126.953125
9162		-132.812500
9163		-125.000000
9164		-128.906250
9165		-121.093750
9166		-125.000000
9167		-119.140625
9168		-125.000000
9169		-117.187500
9170		-119.140625
9171		-115.234375
9172		-117.187500
9173		-111.328125
9174		-117.187500
9175		-109.375000
9176		-113.281250
9177		-105.468750
9178		-109.375000
9179		-103.515625
9180		-107.421875
9181		-99.609375
9182		-105.468750
9183		-95.703125
9184		-99.609375
9185		-93.750000
9186		-95.703125
9187		-89.843750
9188		-91.796875
9189		-85.937500
9190		-91.796875
9191		-82.031250
9192		-87.890625
9193		-78.125000
9194		-83.984375
9195		-76.171875
9196		-80.078125
9197		-72.265625
9198		-78.125000
9199		-68.359375
9200		-72.265625
9201		-64.453125
9202		-68.359375
9203		-62.500000
9204		-64.453125
9205		-58.593750
9206		-60.546875
9207		-52.734375
9208		-58.593750
9209		-50.781250
9210		-54.687500
9211		-44.921875
9212		-50.781250
9213		-41.015625
9214		-46.875000
9215		-39.062500
9216		-42.968750
9217		-33.203125
9218		-39.062500
9219		-31.250000
9220		-35.156250
9221		-27.343750
9222		-31.250000
9223		-23.437500
9224		-27.343750
9225		-19.531250
9226		-25.390625
9227		-15.625000
9228		-21.484375
9229		-11.718750
9230		-17.578125
9231		-7.812500
9232		-13.671875
9233		-3.906250
9234		-9.765625
9235		-1.953125
9236		-3.906250
9237		1.953125
9238		0.000000
9239		5.859375
9240		1.953125
9241		9.765625
9242		5.859375
9243		13.671875
9244		7.812500
9245		17.578125
9246		13.671875
9247		21.484375
9248		15.625000
9249		25.390625
9250		19.531250
9251		27.343750
9252		23.437500
9253		29.296875
9254		27.343750
9255		33.203125
9256		31.250000
9257		39.062500
9258		33.203125
9259		41.015625
9260		37.109375
9261		44.921875
9262		41.015625
9263		46.875000
9264		42.968750
9265		50.781250
9266		46.875000
9267		54.687500
9268		48.828125
9269		56.640625
9270		52.734375
9271		58.593750
9272		56.640625
9273		62.500000
9274		58.593750
9275		66.406250
9276		60.546875
9277		68.359375
9278		64.453125
9279		72.265625
9280		66.406250
9281		74.218750
9282		68.359375
9283		76.171875
9284		70.312500
9285		78.125000
9286		76.171875
9287		80.078125
9288		78.125000
9289		83.984375
9290		80.078125
9291		85.937500
9292		80.078125
9293		87.890625
9294		83.984375
9295		91.796875
9296		85.937500
9297		93.750000
9298		87.890625
9299		95.703125
9300		89.843750
9301		97.656250
9302		91.796875
9303		97.656250
9304		95.703125
9305		99.609375
9306		97.656250
9307		103.515625
9308		97.656250
9309		105.468750
9310		99.609375
9311		107.421875
9312		99.609375
9313		107.421875
9314		101.562500
9315		109.375000
9316		103.515625
9317		111.328125
9318		105.468750
9319		113.281250
9320		109.375000
9321		111.328125
9322		109.375000
9323		113.281250
9324		109.375000
9325		115.234375
9326		109.375000
9327		117.187500
9328		111.328125
9329		119.140625
9330		111.328125
9331		119.140625
9332		113.281250
9333		119.140625
9334		113.281250
9335		119.140625
9336		115.234375
9337		121.093750
9338		117.187500
9339		119.140625
9340		115.234375
9341		123.046875
9342		115.234375
9343		123.046875
9344		117.187500
9345		123.046875
9346		117.187500
9347		123.046875
9348		117.187500
9349		123.046875
9350		117.187500
9351		125.000000
9352		117.187500
9353		123.046875
9354		119.140625
9355		123.046875
9356		119.140625
9357		123.046875
9358		117.187500
9359		125.000000
9360		117.187500
9361		123.046875
9362		117.187500
9363		123.046875
9364		115.234375
9365		123.046875
9366		115.234375
9367		123.046875
9368		115.234375
9369		123.046875
9370		117.187500
9371		119.140625
9372		115.234375
9373		119.140625
9374		113.281250
9375		119.140625
9376		111.328125
9377		119.140625
9378		111.328125
9379		119.140625
9380		109.375000
9381		117.187500
9382		109.375000
9383		115.234375
9384		107.421875
9385		115.234375
9386		107.421875
9387		113.281250
9388		107.421875
9389		111.328125
9390		103.515625
9391		109.375000
9392		103.515625
9393		109.375000
9394		101.562500
9395		107.421875
9396		99.609375
9397		107.421875
9398		97.656250
9399		105.468750
9400		95.703125
9401		103.515625
9402		93.750000
9403		101.562500
9404		93.750000
9405		97.656250
9406		91.796875
9407		95.703125
9408		87.890625
9409		95.703125
9410		85.937500
9411		93.750000
9412		83.984375
9413		89.843750
9414		80.078125
9415		87.890625
9416		80.078125
9417		85.937500
9418		76.171875
9419		83.984375
9420		74.218750
9421		80.078125
9422		72.265625
9423		78.125000
9424		70.312500
9425		76.171875
9426		64.453125
9427		74.218750
9428		62.500000
9429		70.312500
9430		60.546875
9431		68.359375
9432		56.640625
9433		64.453125
9434		52.734375
9435		62.500000
9436		52.734375
9437		58.593750
9438		48.828125
9439		54.687500
9440		44.921875
9441		50.781250
9442		41.015625
9443		50.781250
9444		39.062500
9445		46.875000
9446		35.156250
9447		42.968750
9448		31.250000
9449		39.062500
9450		29.296875
9451		35.156250
9452		23.437500
9453		31.250000
9454		23.437500
9455		27.343750
9456		19.531250
9457		23.437500
9458		13.671875
9459		21.484375
9460		9.765625
9461		17.578125
9462		7.812500
9463		15.625000
9464		1.953125
9465		11.718750
9466		0.000000
9467		7.812500
9468		-5.859375
9469		3.906250
9470		-5.859375
9471		0.000000
9472		-9.765625
9473		-3.906250
9474		-15.625000
9475		-7.812500
9476		-19.531250
9477		-11.718750
9478		-23.437500
9479		-15.625000
9480		-27.343750
9481		-17.578125
9482		-29.296875
9483		-23.437500
9484		-35.156250
9485		-25.390625
9486		-37.109375
9487		-29.296875
9488		-41.015625
9489		-35.156250
9490		-44.921875
9491		-39.062500
9492		-48.828125
9493		-41.015625
9494		-52.734375
9495		-44.921875
9496		-56.640625
9497		-48.828125
9498		-60.546875
9499		-52.734375
9500		-64.453125
9501		-54.687500
9502		-68.359375
9503		-58.593750
9504		-70.312500
9505		-64.453125
9506		-72.265625
9507		-68.359375
9508		-78.125000
9509		-72.265625
9510		-82.031250
9511		-74.218750
9512		-83.984375
9513		-76.171875
9514		-87.890625
9515		-80.078125
9516		-91.796875
9517		-83.984375
9518		-95.703125
9519		-85.937500
9520		-97.656250
9521		-89.843750
9522		-99.609375
9523		-93.750000
9524		-103.515625
9525		-97.656250
9526		-109.375000
9527		-99.609375
9528		-111.328125
9529		-103.515625
9530		-113.281250
9531		-105.468750
9532		-115.234375
9533		-109.375000
9534		-119.140625
9535		-109.375000
9536		-121.093750
9537		-113.281250
9538		-123.046875
9539		-115.234375
9540		-125.000000
9541		-121.093750
9542		-128.906250
9543		-123.046875
9544		-132.812500
9545		-123.046875
9546		-134.765625
9547		-126.953125
9548		-134.765625
9549		-128.906250
9550		-136.718750
9551		-130.859375
9552		-140.625000
9553		-132.812500
9554		-140.625000
9555		-134.765625
9556		-142.578125
9557		-138.671875
9558		-146.484375
9559		-140.625000
9560		-148.437500
9561		-140.625000
9562		-150.390625
9563		-142.578125
9564		-150.390625
9565		-142.578125
9566		-152.343750
9567		-144.531250
9568		-152.343750
9569		-146.484375
9570		-154.296875
9571		-146.484375
9572		-152.343750
9573		-150.390625
9574		-154.296875
9575		-150.390625
9576		-156.250000
9577		-150.390625
9578		-158.203125
9579		-150.390625
9580		-158.203125
9581		-150.390625
9582		-158.203125
9583		-150.390625
9584		-158.203125
9585		-152.343750
9586		-158.203125
9587		-152.343750
9588		-158.203125
9589		-152.343750
9590		-156.250000
9591		-154.296875
9592		-158.203125
9593		-152.343750
9594		-158.203125
9595		-152.343750
9596		-158.203125
9597		-150.390625
9598		-158.203125
9599		-150.390625
9600		-156.250000
9601		-150.390625
9602		-156.250000
9603		-150.390625
9604		-156.250000
9605		-148.437500
9606		-152.343750
9607		-148.437500
9608		-152.343750
9609		-148.437500
9610		-152.343750
9611		-144.531250
9612		-150.390625
9613		-144.531250
9614		-150.390625
9615		-142.578125
9616		-148.437500
9617		-142.578125
9618		-146.484375
9619		-140.625000
9620		-144.531250
9621		-136.718750
9622		-142.578125
9623		-136.718750
9624		-140.625000
9625		-134.765625
9626		-138.671875
9627		-132.812500
9628		-138.671875
9629		-130.859375
9630		-134.765625
9631		-128.906250
9632		-132.812500
9633		-125.000000
9634		-130.859375
9635		-123.046875
9636		-128.906250
9637		-121.093750
9638		-126.953125
9639		-119.140625
9640		-121.093750
9641		-117.187500
9642		-119.140625
9643		-113.281250
9644		-119.140625
9645		-111.328125
9646		-115.234375
9647		-107.421875
9648		-111.328125
9649		-105.468750
9650		-109.375000
9651		-101.562500
9652		-105.468750
9653		-97.656250
9654		-103.515625
9655		-95.703125
9656		-97.656250
9657		-91.796875
9658		-95.703125
9659		-89.843750
9660		-91.796875
9661		-83.984375
9662		-89.843750
9663		-82.031250
9664		-85.937500
9665		-78.125000
9666		-82.031250
9667		-74.218750
9668		-78.125000
9669		-70.312500
9670		-74.218750
9671		-68.359375
9672		-72.265625
9673		-64.453125
9674		-66.406250
9675		-60.546875
9676		-62.500000
9677		-56.640625
9678		-62.500000
9679		-52.734375
9680		-56.640625
9681		-48.828125
9682		-54.687500
9683		-44.921875
9684		-50.781250
9685		-41.015625
9686		-44.921875
9687		-37.109375
9688		-41.015625
9689		-35.156250
9690		-37.109375
9691		-31.250000
9692		-33.203125
9693		-27.343750
9694		-29.296875
9695		-21.484375
9696		-27.343750
9697		-17.578125
9698		-23.437500
9699		-15.625000
9700		-19.531250
9701		-9.765625
9702		-13.671875
9703		-5.859375
9704		-11.718750
9705		-3.906250
9706		-7.812500
9707		0.000000
9708		-1.953125
9709		1.953125
9710		0.000000
9711		7.812500
9712		1.953125
9713		11.718750
9714		7.812500
9715		15.625000
9716		11.718750
9717		17.578125
9718		11.718750
9719		23.437500
9720		17.578125
9721		25.390625
9722		21.484375
9723		27.343750
9724		25.390625
9725		31.250000
9726		29.296875
9727		37.109375
9728		31.250000
9729		39.062500
9730		35.156250
9731		42.968750
9732		37.109375
9733		44.921875
9734		41.015625
9735		48.828125
9736		42.968750
9737		50.781250
9738		44.921875
9739		54.687500
9740		52.734375
9741		56.640625
9742		54.687500
9743		60.546875
9744		56.640625
9745		64.453125
9746		58.593750
9747		68.359375
9748		62.500000
9749		70.312500
9750		64.453125
9751		72.265625
9752		68.359375
9753		74.218750
9754		68.359375
9755		78.125000
9756		72.265625
9757		78.125000
9758		76.171875
9759		82.031250
9760		80.078125
9761		83.984375
9762		80.078125
9763		87.890625
9764		82.031250
9765		89.843750
9766		83.984375
9767		91.796875
9768		87.890625
9769		93.750000
9770		87.890625
9771		97.656250
9772		89.843750
9773		97.656250
9774		93.750000
9775		99.609375
9776		95.703125
9777		99.609375
9778		97.656250
9779		103.515625
9780		95.703125
9781		105.468750
9782		99.609375
9783		107.421875
9784		101.562500
9785		107.421875
9786		101.562500
9787		109.375000
9788		105.468750
9789		111.328125
9790		105.468750
9791		111.328125
9792		109.375000
9793		113.281250
9794		109.375000
9795		115.234375
9796		109.375000
9797		115.234375
9798		109.375000
9799		117.187500
9800		111.328125
9801		119.140625
9802		113.281250
9803		119.140625
9804		113.281250
9805		121.093750
9806		115.234375
9807		121.093750
9808		117.187500
9809		119.140625
9810		115.234375
9811		121.093750
9812		115.234375
9813		121.093750
9814		115.234375
9815		123.046875
9816		117.187500
9817		123.046875
9818		115.234375
9819		123.046875
9820		117.187500
9821		123.046875
9822		117.187500
9823		123.046875
9824		119.140625
9825		123.046875
9826		119.140625
9827		121.093750
9828		117.187500
9829		123.046875
9830		117.187500
9831		123.046875
9832		115.234375
9833		123.046875
9834		117.187500
9835		123.046875
9836		115.234375
9837		123.046875
9838		115.234375
9839		123.046875
9840		115.234375
9841		121.093750
9842		115.234375
9843		119.140625
9844		113.281250
9845		119.140625
9846		111.328125
9847		119.140625
9848		111.328125
9849		119.140625
9850		111.328125
9851		117.187500
9852		109.375000
9853		117.187500
9854		107.421875
9855		115.234375
9856		107.421875
9857		113.281250
9858		107.421875
9859		111.328125
9860		105.468750
9861		111.328125
9862		103.515625
9863		109.375000
9864		101.562500
9865		107.421875
9866		99.609375
9867		107.421875
9868		97.656250
9869		105.468750
9870		97.656250
9871		103.515625
9872		95.703125
9873		101.562500
9874		93.750000
9875		99.609375
9876		91.796875
9877		95.703125
9878		89.843750
9879		95.703125
9880		87.890625
9881		93.750000
9882		83.984375
9883		91.796875
9884		82.031250
9885		89.843750
9886		80.078125
9887		87.890625
9888		76.171875
9889		85.937500
9890		76.171875
9891		82.031250
9892		74.218750
9893		78.125000
9894		70.312500
9895		76.171875
9896		68.359375
9897		74.218750
9898		62.500000
9899		72.265625
9900		60.546875
9901		68.359375
9902		58.593750
9903		66.406250
9904		54.687500
9905		62.500000
9906		52.734375
9907		58.593750
9908		50.781250
9909		56.640625
9910		46.875000
9911		52.734375
9912		42.968750
9913		48.828125
9914		39.062500
9915		46.875000
9916		35.156250
9917		44.921875
9918		33.203125
9919		41.015625
9920		29.296875
9921		37.109375
9922		25.390625
9923		35.156250
9924		23.437500
9925		31.250000
9926		19.531250
9927		25.390625
9928		15.625000
9929		21.484375
9930		11.718750
9931		19.531250
9932		7.812500
9933		17.578125
9934		5.859375
9935		11.718750
9936		1.953125
9937		9.765625
9938		-3.906250
9939		5.859375
9940		-5.859375
9941		1.953125
9942		-7.812500
9943		-1.953125
9944		-11.718750
9945		-7.812500
9946		-19.531250
9947		-9.765625
9948		-21.484375
9949		-13.671875
9950		-25.390625
9951		-15.625000
9952		-29.296875
9953		-19.531250
9954		-35.156250
9955		-23.437500
9956		-37.109375
9957		-27.343750
9958		-39.062500
9959		-31.250000
9960		-42.968750
9961		-37.109375
9962		-48.828125
9963		-41.015625
9964		-50.781250
9965		-42.968750
9966		-56.640625
9967		-46.875000
9968		-58.593750
9969		-50.781250
9970		-62.500000
9971		-54.687500
9972		-64.453125
9973		-58.593750
9974		-68.359375
9975		-62.500000
9976		-72.265625
9977		-66.406250
9978		-76.171875
9979		-70.312500
9980		-80.078125
9981		-70.312500
9982		-83.984375
9983		-74.218750
9984		-87.890625
9985		-78.125000
9986		-89.843750
9987		-82.031250
9988		-93.750000
9989		-85.937500
9990		-95.703125
9991		-89.843750
9992		-97.656250
9993		-93.750000
9994		-101.562500
9995		-95.703125
9996		-105.468750
9997		-97.656250
9998		-109.375000
9999		-101.562500
10000		-113.281250
