Channel              :		CH1
Frequency            :		1.061kHz
Period               :		0.942ms
PK-PK                :		320.3mV
Probe attenuation    :		1X
Voltage per ADC value:		0.122070mV
Time interval        :		2.00000us

index		CH1_Voltage(mV)
1		103.515625
2		103.515625
3		95.703125
4		101.562500
5		91.796875
6		97.656250
7		87.890625
8		93.750000
9		85.937500
10		91.796875
11		82.031250
12		87.890625
13		78.125000
14		83.984375
15		76.171875
16		82.031250
17		72.265625
18		78.125000
19		68.359375
20		74.218750
21		64.453125
22		72.265625
23		60.546875
24		68.359375
25		58.593750
26		64.453125
27		54.687500
28		60.546875
29		50.781250
30		56.640625
31		46.875000
32		52.734375
33		42.968750
34		48.828125
35		39.062500
36		44.921875
37		35.156250
38		41.015625
39		31.250000
40		37.109375
41		27.343750
42		33.203125
43		23.437500
44		29.296875
45		19.531250
46		25.390625
47		15.625000
48		21.484375
49		9.765625
50		17.578125
51		5.859375
52		13.671875
53		1.953125
54		11.718750
55		-3.906250
56		5.859375
57		-7.812500
58		0.000000
59		-9.765625
60		-3.906250
61		-15.625000
62		-7.812500
63		-19.531250
64		-11.718750
65		-23.437500
66		-17.578125
67		-27.343750
68		-21.484375
69		-31.250000
70		-21.484375
71		-37.109375
72		-29.296875
73		-41.015625
74		-33.203125
75		-46.875000
76		-37.109375
77		-48.828125
78		-41.015625
79		-54.687500
80		-46.875000
81		-56.640625
82		-50.781250
83		-60.546875
84		-54.687500
85		-66.406250
86		-58.593750
87		-70.312500
88		-60.546875
89		-74.218750
90		-64.453125
91		-76.171875
92		-70.312500
93		-82.031250
94		-74.218750
95		-85.937500
96		-78.125000
97		-87.890625
98		-80.078125
99		-91.796875
100		-85.937500
101		-97.656250
102		-89.843750
103		-99.609375
104		-93.750000
105		-103.515625
106		-95.703125
107		-107.421875
108		-99.609375
109		-109.375000
110		-103.515625
111		-113.281250
112		-107.421875
113		-117.187500
114		-111.328125
115		-119.140625
116		-113.281250
117		-123.046875
118		-117.187500
119		-126.953125
120		-121.093750
121		-130.859375
122		-121.093750
123		-132.812500
124		-125.000000
125		-134.765625
126		-126.953125
127		-138.671875
128		-130.859375
129		-142.578125
130		-132.812500
131		-142.578125
132		-136.718750
133		-144.531250
134		-140.625000
135		-148.437500
136		-142.578125
137		-152.343750
138		-142.578125
139		-152.343750
140		-144.531250
141		-154.296875
142		-146.484375
143		-156.250000
144		-148.437500
145		-158.203125
146		-150.390625
147		-160.156250
148		-152.343750
149		-160.156250
150		-156.250000
151		-162.109375
152		-158.203125
153		-164.062500
154		-158.203125
155		-166.015625
156		-158.203125
157		-166.015625
158		-160.156250
159		-167.968750
160		-160.156250
161		-167.968750
162		-162.109375
163		-167.968750
164		-162.109375
165		-167.968750
166		-164.062500
167		-167.968750
168		-164.062500
169		-169.921875
170		-162.109375
171		-169.921875
172		-162.109375
173		-169.921875
174		-162.109375
175		-169.921875
176		-162.109375
177		-169.921875
178		-162.109375
179		-169.921875
180		-162.109375
181		-167.968750
182		-162.109375
183		-166.015625
184		-162.109375
185		-166.015625
186		-160.156250
187		-167.968750
188		-158.203125
189		-166.015625
190		-158.203125
191		-166.015625
192		-158.203125
193		-162.109375
194		-156.250000
195		-160.156250
196		-156.250000
197		-160.156250
198		-154.296875
199		-156.250000
200		-152.343750
201		-154.296875
202		-150.390625
203		-154.296875
204		-146.484375
205		-152.343750
206		-142.578125
207		-150.390625
208		-142.578125
209		-148.437500
210		-140.625000
211		-146.484375
212		-138.671875
213		-144.531250
214		-134.765625
215		-140.625000
216		-134.765625
217		-136.718750
218		-130.859375
219		-134.765625
220		-126.953125
221		-132.812500
222		-125.000000
223		-128.906250
224		-121.093750
225		-126.953125
226		-119.140625
227		-123.046875
228		-115.234375
229		-119.140625
230		-111.328125
231		-117.187500
232		-109.375000
233		-111.328125
234		-105.468750
235		-109.375000
236		-101.562500
237		-107.421875
238		-95.703125
239		-101.562500
240		-93.750000
241		-99.609375
242		-89.843750
243		-93.750000
244		-83.984375
245		-89.843750
246		-82.031250
247		-85.937500
248		-78.125000
249		-82.031250
250		-76.171875
251		-78.125000
252		-70.312500
253		-74.218750
254		-64.453125
255		-70.312500
256		-62.500000
257		-68.359375
258		-56.640625
259		-62.500000
260		-52.734375
261		-56.640625
262		-48.828125
263		-52.734375
264		-44.921875
265		-48.828125
266		-41.015625
267		-44.921875
268		-37.109375
269		-39.062500
270		-31.250000
271		-37.109375
272		-27.343750
273		-35.156250
274		-23.437500
275		-29.296875
276		-17.578125
277		-23.437500
278		-15.625000
279		-21.484375
280		-11.718750
281		-15.625000
282		-5.859375
283		-9.765625
284		-3.906250
285		-5.859375
286		1.953125
287		-1.953125
288		5.859375
289		1.953125
290		11.718750
291		5.859375
292		15.625000
293		9.765625
294		17.578125
295		13.671875
296		23.437500
297		17.578125
298		27.343750
299		23.437500
300		29.296875
301		27.343750
302		33.203125
303		31.250000
304		39.062500
305		33.203125
306		42.968750
307		37.109375
308		46.875000
309		41.015625
310		50.781250
311		44.921875
312		54.687500
313		50.781250
314		58.593750
315		52.734375
316		60.546875
317		58.593750
318		64.453125
319		62.500000
320		68.359375
321		64.453125
322		74.218750
323		68.359375
324		76.171875
325		70.312500
326		78.125000
327		74.218750
328		82.031250
329		78.125000
330		85.937500
331		80.078125
332		87.890625
333		85.937500
334		89.843750
335		87.890625
336		93.750000
337		91.796875
338		97.656250
339		91.796875
340		101.562500
341		95.703125
342		103.515625
343		97.656250
344		107.421875
345		101.562500
346		107.421875
347		103.515625
348		111.328125
349		105.468750
350		113.281250
351		109.375000
352		115.234375
353		111.328125
354		119.140625
355		111.328125
356		121.093750
357		115.234375
358		123.046875
359		117.187500
360		125.000000
361		119.140625
362		126.953125
363		121.093750
364		128.906250
365		123.046875
366		128.906250
367		126.953125
368		130.859375
369		126.953125
370		132.812500
371		128.906250
372		134.765625
373		128.906250
374		136.718750
375		130.859375
376		138.671875
377		132.812500
378		138.671875
379		132.812500
380		142.578125
381		134.765625
382		142.578125
383		136.718750
384		142.578125
385		138.671875
386		142.578125
387		136.718750
388		144.531250
389		138.671875
390		146.484375
391		138.671875
392		146.484375
393		138.671875
394		146.484375
395		140.625000
396		148.437500
397		140.625000
398		148.437500
399		142.578125
400		148.437500
401		144.531250
402		146.484375
403		144.531250
404		148.437500
405		142.578125
406		148.437500
407		142.578125
408		150.390625
409		142.578125
410		148.437500
411		142.578125
412		148.437500
413		142.578125
414		148.437500
415		142.578125
416		148.437500
417		142.578125
418		146.484375
419		142.578125
420		146.484375
421		140.625000
422		146.484375
423		138.671875
424		146.484375
425		140.625000
426		146.484375
427		138.671875
428		146.484375
429		138.671875
430		144.531250
431		136.718750
432		144.531250
433		136.718750
434		142.578125
435		136.718750
436		140.625000
437		134.765625
438		138.671875
439		132.812500
440		138.671875
441		130.859375
442		138.671875
443		128.906250
444		136.718750
445		126.953125
446		134.765625
447		126.953125
448		134.765625
449		125.000000
450		130.859375
451		123.046875
452		128.906250
453		123.046875
454		126.953125
455		119.140625
456		125.000000
457		117.187500
458		123.046875
459		113.281250
460		121.093750
461		113.281250
462		119.140625
463		109.375000
464		117.187500
465		107.421875
466		115.234375
467		105.468750
468		113.281250
469		103.515625
470		109.375000
471		99.609375
472		105.468750
473		95.703125
474		103.515625
475		93.750000
476		101.562500
477		91.796875
478		99.609375
479		87.890625
480		95.703125
481		83.984375
482		93.750000
483		83.984375
484		89.843750
485		80.078125
486		85.937500
487		76.171875
488		82.031250
489		70.312500
490		80.078125
491		68.359375
492		76.171875
493		64.453125
494		74.218750
495		60.546875
496		70.312500
497		58.593750
498		64.453125
499		52.734375
500		62.500000
501		50.781250
502		58.593750
503		46.875000
504		52.734375
505		41.015625
506		48.828125
507		39.062500
508		46.875000
509		33.203125
510		42.968750
511		31.250000
512		39.062500
513		27.343750
514		35.156250
515		21.484375
516		31.250000
517		19.531250
518		27.343750
519		15.625000
520		21.484375
521		11.718750
522		17.578125
523		5.859375
524		13.671875
525		0.000000
526		9.765625
527		-3.906250
528		5.859375
529		-7.812500
530		1.953125
531		-11.718750
532		-1.953125
533		-15.625000
534		-5.859375
535		-17.578125
536		-11.718750
537		-23.437500
538		-15.625000
539		-29.296875
540		-21.484375
541		-33.203125
542		-23.437500
543		-35.156250
544		-27.343750
545		-41.015625
546		-31.250000
547		-44.921875
548		-35.156250
549		-48.828125
550		-41.015625
551		-52.734375
552		-44.921875
553		-56.640625
554		-50.781250
555		-62.500000
556		-54.687500
557		-64.453125
558		-56.640625
559		-68.359375
560		-60.546875
561		-74.218750
562		-64.453125
563		-78.125000
564		-68.359375
565		-82.031250
566		-74.218750
567		-83.984375
568		-76.171875
569		-87.890625
570		-82.031250
571		-91.796875
572		-85.937500
573		-97.656250
574		-87.890625
575		-101.562500
576		-91.796875
577		-103.515625
578		-95.703125
579		-107.421875
580		-99.609375
581		-109.375000
582		-101.562500
583		-115.234375
584		-105.468750
585		-115.234375
586		-109.375000
587		-119.140625
588		-113.281250
589		-123.046875
590		-117.187500
591		-126.953125
592		-117.187500
593		-130.859375
594		-121.093750
595		-132.812500
596		-125.000000
597		-134.765625
598		-126.953125
599		-138.671875
600		-128.906250
601		-138.671875
602		-132.812500
603		-140.625000
604		-136.718750
605		-144.531250
606		-138.671875
607		-146.484375
608		-138.671875
609		-150.390625
610		-142.578125
611		-150.390625
612		-144.531250
613		-154.296875
614		-144.531250
615		-154.296875
616		-148.437500
617		-156.250000
618		-150.390625
619		-156.250000
620		-152.343750
621		-158.203125
622		-154.296875
623		-160.156250
624		-154.296875
625		-162.109375
626		-154.296875
627		-164.062500
628		-154.296875
629		-164.062500
630		-156.250000
631		-166.015625
632		-158.203125
633		-166.015625
634		-160.156250
635		-166.015625
636		-160.156250
637		-164.062500
638		-162.109375
639		-166.015625
640		-160.156250
641		-167.968750
642		-160.156250
643		-167.968750
644		-160.156250
645		-167.968750
646		-160.156250
647		-167.968750
648		-162.109375
649		-167.968750
650		-160.156250
651		-167.968750
652		-160.156250
653		-164.062500
654		-162.109375
655		-164.062500
656		-160.156250
657		-164.062500
658		-158.203125
659		-164.062500
660		-156.250000
661		-164.062500
662		-156.250000
663		-162.109375
664		-154.296875
665		-160.156250
666		-154.296875
667		-160.156250
668		-150.390625
669		-156.250000
670		-152.343750
671		-154.296875
672		-150.390625
673		-152.343750
674		-146.484375
675		-152.343750
676		-144.531250
677		-150.390625
678		-142.578125
679		-148.437500
680		-140.625000
681		-146.484375
682		-138.671875
683		-142.578125
684		-136.718750
685		-140.625000
686		-134.765625
687		-136.718750
688		-130.859375
689		-134.765625
690		-128.906250
691		-134.765625
692		-123.046875
693		-128.906250
694		-121.093750
695		-126.953125
696		-119.140625
697		-123.046875
698		-115.234375
699		-121.093750
700		-111.328125
701		-115.234375
702		-109.375000
703		-113.281250
704		-105.468750
705		-109.375000
706		-101.562500
707		-105.468750
708		-97.656250
709		-103.515625
710		-93.750000
711		-99.609375
712		-89.843750
713		-95.703125
714		-85.937500
715		-91.796875
716		-83.984375
717		-87.890625
718		-80.078125
719		-85.937500
720		-76.171875
721		-78.125000
722		-72.265625
723		-74.218750
724		-66.406250
725		-72.265625
726		-62.500000
727		-68.359375
728		-58.593750
729		-64.453125
730		-54.687500
731		-58.593750
732		-50.781250
733		-54.687500
734		-46.875000
735		-52.734375
736		-42.968750
737		-44.921875
738		-39.062500
739		-41.015625
740		-35.156250
741		-39.062500
742		-29.296875
743		-35.156250
744		-25.390625
745		-29.296875
746		-19.531250
747		-25.390625
748		-15.625000
749		-21.484375
750		-11.718750
751		-15.625000
752		-7.812500
753		-11.718750
754		-3.906250
755		-5.859375
756		0.000000
757		-1.953125
758		3.906250
759		0.000000
760		9.765625
761		3.906250
762		13.671875
763		7.812500
764		17.578125
765		11.718750
766		21.484375
767		15.625000
768		25.390625
769		21.484375
770		29.296875
771		25.390625
772		33.203125
773		31.250000
774		37.109375
775		33.203125
776		42.968750
777		37.109375
778		44.921875
779		41.015625
780		48.828125
781		42.968750
782		52.734375
783		48.828125
784		56.640625
785		52.734375
786		60.546875
787		56.640625
788		62.500000
789		60.546875
790		66.406250
791		64.453125
792		72.265625
793		68.359375
794		76.171875
795		70.312500
796		78.125000
797		72.265625
798		80.078125
799		76.171875
800		83.984375
801		80.078125
802		87.890625
803		82.031250
804		89.843750
805		87.890625
806		91.796875
807		89.843750
808		95.703125
809		89.843750
810		99.609375
811		93.750000
812		101.562500
813		97.656250
814		105.468750
815		99.609375
816		107.421875
817		101.562500
818		109.375000
819		105.468750
820		113.281250
821		109.375000
822		113.281250
823		111.328125
824		115.234375
825		111.328125
826		119.140625
827		113.281250
828		121.093750
829		117.187500
830		123.046875
831		119.140625
832		125.000000
833		121.093750
834		126.953125
835		123.046875
836		130.859375
837		125.000000
838		130.859375
839		126.953125
840		132.812500
841		128.906250
842		136.718750
843		128.906250
844		136.718750
845		130.859375
846		138.671875
847		132.812500
848		138.671875
849		132.812500
850		140.625000
851		134.765625
852		142.578125
853		136.718750
854		142.578125
855		138.671875
856		142.578125
857		138.671875
858		142.578125
859		138.671875
860		146.484375
861		138.671875
862		148.437500
863		138.671875
864		146.484375
865		140.625000
866		148.437500
867		140.625000
868		148.437500
869		140.625000
870		148.437500
871		144.531250
872		148.437500
873		144.531250
874		148.437500
875		142.578125
876		150.390625
877		142.578125
878		150.390625
879		142.578125
880		150.390625
881		142.578125
882		150.390625
883		142.578125
884		150.390625
885		142.578125
886		150.390625
887		142.578125
888		150.390625
889		144.531250
890		148.437500
891		142.578125
892		148.437500
893		140.625000
894		148.437500
895		140.625000
896		148.437500
897		140.625000
898		146.484375
899		138.671875
900		146.484375
901		138.671875
902		146.484375
903		138.671875
904		144.531250
905		138.671875
906		142.578125
907		136.718750
908		140.625000
909		132.812500
910		140.625000
911		132.812500
912		140.625000
913		130.859375
914		138.671875
915		128.906250
916		136.718750
917		128.906250
918		134.765625
919		126.953125
920		134.765625
921		126.953125
922		130.859375
923		125.000000
924		128.906250
925		121.093750
926		128.906250
927		119.140625
928		126.953125
929		117.187500
930		125.000000
931		115.234375
932		123.046875
933		113.281250
934		121.093750
935		109.375000
936		117.187500
937		109.375000
938		115.234375
939		107.421875
940		111.328125
941		103.515625
942		109.375000
943		99.609375
944		107.421875
945		95.703125
946		103.515625
947		95.703125
948		101.562500
949		89.843750
950		97.656250
951		87.890625
952		95.703125
953		85.937500
954		91.796875
955		83.984375
956		89.843750
957		80.078125
958		85.937500
959		74.218750
960		82.031250
961		70.312500
962		80.078125
963		66.406250
964		76.171875
965		64.453125
966		74.218750
967		60.546875
968		68.359375
969		58.593750
970		64.453125
971		54.687500
972		62.500000
973		50.781250
974		56.640625
975		44.921875
976		52.734375
977		41.015625
978		50.781250
979		39.062500
980		46.875000
981		35.156250
982		42.968750
983		31.250000
984		39.062500
985		25.390625
986		35.156250
987		23.437500
988		31.250000
989		19.531250
990		25.390625
991		15.625000
992		21.484375
993		9.765625
994		17.578125
995		5.859375
996		15.625000
997		1.953125
998		9.765625
999		-1.953125
1000		7.812500
1001		-7.812500
1002		1.953125
1003		-11.718750
1004		-1.953125
1005		-13.671875
1006		-5.859375
1007		-17.578125
1008		-11.718750
1009		-23.437500
1010		-15.625000
1011		-29.296875
1012		-19.531250
1013		-33.203125
1014		-23.437500
1015		-37.109375
1016		-27.343750
1017		-39.062500
1018		-33.203125
1019		-44.921875
1020		-37.109375
1021		-46.875000
1022		-39.062500
1023		-50.781250
1024		-44.921875
1025		-56.640625
1026		-48.828125
1027		-60.546875
1028		-52.734375
1029		-66.406250
1030		-56.640625
1031		-68.359375
1032		-60.546875
1033		-72.265625
1034		-64.453125
1035		-76.171875
1036		-68.359375
1037		-80.078125
1038		-72.265625
1039		-83.984375
1040		-76.171875
1041		-87.890625
1042		-82.031250
1043		-91.796875
1044		-83.984375
1045		-95.703125
1046		-87.890625
1047		-99.609375
1048		-89.843750
1049		-103.515625
1050		-93.750000
1051		-107.421875
1052		-97.656250
1053		-109.375000
1054		-99.609375
1055		-111.328125
1056		-105.468750
1057		-115.234375
1058		-109.375000
1059		-119.140625
1060		-113.281250
1061		-123.046875
1062		-115.234375
1063		-125.000000
1064		-117.187500
1065		-128.906250
1066		-121.093750
1067		-130.859375
1068		-123.046875
1069		-134.765625
1070		-125.000000
1071		-136.718750
1072		-128.906250
1073		-136.718750
1074		-132.812500
1075		-140.625000
1076		-134.765625
1077		-144.531250
1078		-136.718750
1079		-148.437500
1080		-138.671875
1081		-146.484375
1082		-140.625000
1083		-150.390625
1084		-142.578125
1085		-152.343750
1086		-144.531250
1087		-154.296875
1088		-146.484375
1089		-154.296875
1090		-148.437500
1091		-156.250000
1092		-152.343750
1093		-158.203125
1094		-152.343750
1095		-160.156250
1096		-152.343750
1097		-162.109375
1098		-154.296875
1099		-162.109375
1100		-156.250000
1101		-162.109375
1102		-156.250000
1103		-164.062500
1104		-156.250000
1105		-164.062500
1106		-158.203125
1107		-164.062500
1108		-160.156250
1109		-164.062500
1110		-160.156250
1111		-166.015625
1112		-158.203125
1113		-166.015625
1114		-160.156250
1115		-166.015625
1116		-160.156250
1117		-166.015625
1118		-160.156250
1119		-166.015625
1120		-160.156250
1121		-166.015625
1122		-158.203125
1123		-164.062500
1124		-160.156250
1125		-162.109375
1126		-160.156250
1127		-164.062500
1128		-156.250000
1129		-164.062500
1130		-156.250000
1131		-162.109375
1132		-154.296875
1133		-162.109375
1134		-154.296875
1135		-160.156250
1136		-152.343750
1137		-158.203125
1138		-152.343750
1139		-158.203125
1140		-150.390625
1141		-154.296875
1142		-150.390625
1143		-152.343750
1144		-146.484375
1145		-152.343750
1146		-144.531250
1147		-150.390625
1148		-142.578125
1149		-148.437500
1150		-140.625000
1151		-144.531250
1152		-138.671875
1153		-144.531250
1154		-136.718750
1155		-140.625000
1156		-134.765625
1157		-136.718750
1158		-132.812500
1159		-134.765625
1160		-128.906250
1161		-132.812500
1162		-125.000000
1163		-130.859375
1164		-123.046875
1165		-126.953125
1166		-119.140625
1167		-125.000000
1168		-115.234375
1169		-123.046875
1170		-113.281250
1171		-117.187500
1172		-109.375000
1173		-113.281250
1174		-107.421875
1175		-111.328125
1176		-103.515625
1177		-107.421875
1178		-99.609375
1179		-105.468750
1180		-95.703125
1181		-101.562500
1182		-93.750000
1183		-97.656250
1184		-87.890625
1185		-93.750000
1186		-85.937500
1187		-89.843750
1188		-80.078125
1189		-85.937500
1190		-78.125000
1191		-80.078125
1192		-74.218750
1193		-76.171875
1194		-70.312500
1195		-74.218750
1196		-64.453125
1197		-68.359375
1198		-60.546875
1199		-64.453125
1200		-56.640625
1201		-60.546875
1202		-52.734375
1203		-58.593750
1204		-48.828125
1205		-52.734375
1206		-44.921875
1207		-48.828125
1208		-41.015625
1209		-42.968750
1210		-37.109375
1211		-39.062500
1212		-31.250000
1213		-37.109375
1214		-27.343750
1215		-31.250000
1216		-23.437500
1217		-27.343750
1218		-19.531250
1219		-23.437500
1220		-15.625000
1221		-19.531250
1222		-9.765625
1223		-15.625000
1224		-5.859375
1225		-9.765625
1226		-1.953125
1227		-3.906250
1228		1.953125
1229		-1.953125
1230		5.859375
1231		1.953125
1232		11.718750
1233		5.859375
1234		15.625000
1235		11.718750
1236		19.531250
1237		13.671875
1238		23.437500
1239		19.531250
1240		27.343750
1241		25.390625
1242		31.250000
1243		29.296875
1244		35.156250
1245		33.203125
1246		39.062500
1247		35.156250
1248		42.968750
1249		39.062500
1250		46.875000
1251		41.015625
1252		50.781250
1253		46.875000
1254		54.687500
1255		50.781250
1256		58.593750
1257		52.734375
1258		60.546875
1259		58.593750
1260		64.453125
1261		62.500000
1262		68.359375
1263		64.453125
1264		72.265625
1265		66.406250
1266		76.171875
1267		70.312500
1268		80.078125
1269		74.218750
1270		83.984375
1271		78.125000
1272		85.937500
1273		80.078125
1274		87.890625
1275		85.937500
1276		91.796875
1277		87.890625
1278		93.750000
1279		89.843750
1280		99.609375
1281		91.796875
1282		99.609375
1283		95.703125
1284		103.515625
1285		97.656250
1286		105.468750
1287		101.562500
1288		107.421875
1289		103.515625
1290		111.328125
1291		107.421875
1292		113.281250
1293		109.375000
1294		115.234375
1295		113.281250
1296		119.140625
1297		113.281250
1298		121.093750
1299		115.234375
1300		123.046875
1301		117.187500
1302		125.000000
1303		119.140625
1304		126.953125
1305		121.093750
1306		128.906250
1307		123.046875
1308		130.859375
1309		126.953125
1310		130.859375
1311		128.906250
1312		132.812500
1313		128.906250
1314		136.718750
1315		128.906250
1316		136.718750
1317		130.859375
1318		138.671875
1319		132.812500
1320		138.671875
1321		134.765625
1322		140.625000
1323		134.765625
1324		142.578125
1325		138.671875
1326		142.578125
1327		140.625000
1328		142.578125
1329		138.671875
1330		146.484375
1331		138.671875
1332		146.484375
1333		140.625000
1334		146.484375
1335		140.625000
1336		148.437500
1337		140.625000
1338		148.437500
1339		142.578125
1340		148.437500
1341		142.578125
1342		148.437500
1343		144.531250
1344		148.437500
1345		144.531250
1346		148.437500
1347		142.578125
1348		150.390625
1349		144.531250
1350		150.390625
1351		142.578125
1352		150.390625
1353		142.578125
1354		150.390625
1355		142.578125
1356		150.390625
1357		142.578125
1358		150.390625
1359		144.531250
1360		148.437500
1361		144.531250
1362		148.437500
1363		142.578125
1364		148.437500
1365		140.625000
1366		148.437500
1367		140.625000
1368		148.437500
1369		138.671875
1370		146.484375
1371		138.671875
1372		146.484375
1373		136.718750
1374		144.531250
1375		138.671875
1376		144.531250
1377		138.671875
1378		142.578125
1379		134.765625
1380		142.578125
1381		134.765625
1382		140.625000
1383		130.859375
1384		140.625000
1385		130.859375
1386		138.671875
1387		128.906250
1388		136.718750
1389		126.953125
1390		134.765625
1391		126.953125
1392		134.765625
1393		125.000000
1394		130.859375
1395		123.046875
1396		128.906250
1397		119.140625
1398		126.953125
1399		117.187500
1400		125.000000
1401		117.187500
1402		123.046875
1403		113.281250
1404		121.093750
1405		111.328125
1406		119.140625
1407		109.375000
1408		117.187500
1409		107.421875
1410		113.281250
1411		105.468750
1412		111.328125
1413		101.562500
1414		109.375000
1415		97.656250
1416		107.421875
1417		95.703125
1418		103.515625
1419		91.796875
1420		101.562500
1421		89.843750
1422		97.656250
1423		85.937500
1424		95.703125
1425		85.937500
1426		91.796875
1427		82.031250
1428		87.890625
1429		78.125000
1430		83.984375
1431		76.171875
1432		83.984375
1433		70.312500
1434		80.078125
1435		66.406250
1436		76.171875
1437		64.453125
1438		72.265625
1439		60.546875
1440		68.359375
1441		56.640625
1442		64.453125
1443		54.687500
1444		60.546875
1445		50.781250
1446		56.640625
1447		44.921875
1448		52.734375
1449		41.015625
1450		50.781250
1451		37.109375
1452		44.921875
1453		33.203125
1454		42.968750
1455		29.296875
1456		39.062500
1457		23.437500
1458		33.203125
1459		23.437500
1460		29.296875
1461		17.578125
1462		25.390625
1463		13.671875
1464		21.484375
1465		7.812500
1466		17.578125
1467		5.859375
1468		13.671875
1469		0.000000
1470		9.765625
1471		-3.906250
1472		5.859375
1473		-7.812500
1474		0.000000
1475		-11.718750
1476		-3.906250
1477		-15.625000
1478		-7.812500
1479		-19.531250
1480		-13.671875
1481		-25.390625
1482		-15.625000
1483		-29.296875
1484		-19.531250
1485		-33.203125
1486		-23.437500
1487		-37.109375
1488		-29.296875
1489		-41.015625
1490		-33.203125
1491		-44.921875
1492		-37.109375
1493		-48.828125
1494		-41.015625
1495		-52.734375
1496		-46.875000
1497		-58.593750
1498		-50.781250
1499		-62.500000
1500		-54.687500
1501		-66.406250
1502		-58.593750
1503		-70.312500
1504		-62.500000
1505		-74.218750
1506		-66.406250
1507		-76.171875
1508		-68.359375
1509		-80.078125
1510		-72.265625
1511		-83.984375
1512		-78.125000
1513		-87.890625
1514		-82.031250
1515		-93.750000
1516		-83.984375
1517		-97.656250
1518		-87.890625
1519		-101.562500
1520		-91.796875
1521		-103.515625
1522		-95.703125
1523		-107.421875
1524		-97.656250
1525		-111.328125
1526		-101.562500
1527		-113.281250
1528		-107.421875
1529		-115.234375
1530		-109.375000
1531		-121.093750
1532		-111.328125
1533		-123.046875
1534		-115.234375
1535		-126.953125
1536		-117.187500
1537		-128.906250
1538		-121.093750
1539		-132.812500
1540		-123.046875
1541		-134.765625
1542		-126.953125
1543		-136.718750
1544		-130.859375
1545		-138.671875
1546		-132.812500
1547		-142.578125
1548		-134.765625
1549		-144.531250
1550		-136.718750
1551		-146.484375
1552		-138.671875
1553		-148.437500
1554		-142.578125
1555		-150.390625
1556		-142.578125
1557		-152.343750
1558		-144.531250
1559		-154.296875
1560		-146.484375
1561		-154.296875
1562		-150.390625
1563		-154.296875
1564		-150.390625
1565		-158.203125
1566		-150.390625
1567		-160.156250
1568		-152.343750
1569		-162.109375
1570		-154.296875
1571		-162.109375
1572		-154.296875
1573		-164.062500
1574		-156.250000
1575		-164.062500
1576		-156.250000
1577		-164.062500
1578		-158.203125
1579		-162.109375
1580		-160.156250
1581		-164.062500
1582		-158.203125
1583		-166.015625
1584		-158.203125
1585		-166.015625
1586		-158.203125
1587		-166.015625
1588		-158.203125
1589		-166.015625
1590		-158.203125
1591		-164.062500
1592		-158.203125
1593		-166.015625
1594		-158.203125
1595		-162.109375
1596		-158.203125
1597		-162.109375
1598		-158.203125
1599		-162.109375
1600		-156.250000
1601		-162.109375
1602		-154.296875
1603		-160.156250
1604		-154.296875
1605		-160.156250
1606		-152.343750
1607		-158.203125
1608		-152.343750
1609		-156.250000
1610		-150.390625
1611		-154.296875
1612		-150.390625
1613		-152.343750
1614		-148.437500
1615		-152.343750
1616		-144.531250
1617		-150.390625
1618		-142.578125
1619		-148.437500
1620		-140.625000
1621		-146.484375
1622		-138.671875
1623		-144.531250
1624		-136.718750
1625		-140.625000
1626		-134.765625
1627		-140.625000
1628		-132.812500
1629		-134.765625
1630		-130.859375
1631		-132.812500
1632		-125.000000
1633		-130.859375
1634		-123.046875
1635		-128.906250
1636		-121.093750
1637		-125.000000
1638		-117.187500
1639		-123.046875
1640		-113.281250
1641		-119.140625
1642		-109.375000
1643		-117.187500
1644		-107.421875
1645		-111.328125
1646		-105.468750
1647		-107.421875
1648		-101.562500
1649		-105.468750
1650		-97.656250
1651		-101.562500
1652		-93.750000
1653		-99.609375
1654		-89.843750
1655		-95.703125
1656		-85.937500
1657		-89.843750
1658		-82.031250
1659		-87.890625
1660		-78.125000
1661		-82.031250
1662		-76.171875
1663		-78.125000
1664		-72.265625
1665		-74.218750
1666		-66.406250
1667		-70.312500
1668		-62.500000
1669		-66.406250
1670		-58.593750
1671		-62.500000
1672		-54.687500
1673		-58.593750
1674		-48.828125
1675		-54.687500
1676		-46.875000
1677		-50.781250
1678		-42.968750
1679		-44.921875
1680		-39.062500
1681		-41.015625
1682		-33.203125
1683		-39.062500
1684		-29.296875
1685		-33.203125
1686		-23.437500
1687		-27.343750
1688		-19.531250
1689		-25.390625
1690		-15.625000
1691		-21.484375
1692		-11.718750
1693		-15.625000
1694		-7.812500
1695		-9.765625
1696		-3.906250
1697		-5.859375
1698		0.000000
1699		-1.953125
1700		5.859375
1701		0.000000
1702		9.765625
1703		3.906250
1704		13.671875
1705		9.765625
1706		17.578125
1707		13.671875
1708		21.484375
1709		17.578125
1710		25.390625
1711		23.437500
1712		29.296875
1713		27.343750
1714		33.203125
1715		31.250000
1716		39.062500
1717		33.203125
1718		41.015625
1719		39.062500
1720		46.875000
1721		41.015625
1722		50.781250
1723		44.921875
1724		54.687500
1725		48.828125
1726		56.640625
1727		52.734375
1728		60.546875
1729		56.640625
1730		64.453125
1731		60.546875
1732		66.406250
1733		64.453125
1734		72.265625
1735		66.406250
1736		76.171875
1737		68.359375
1738		78.125000
1739		72.265625
1740		82.031250
1741		76.171875
1742		85.937500
1743		80.078125
1744		87.890625
1745		83.984375
1746		89.843750
1747		87.890625
1748		93.750000
1749		89.843750
1750		97.656250
1751		91.796875
1752		99.609375
1753		95.703125
1754		103.515625
1755		97.656250
1756		105.468750
1757		99.609375
1758		107.421875
1759		101.562500
1760		111.328125
1761		107.421875
1762		111.328125
1763		109.375000
1764		115.234375
1765		111.328125
1766		119.140625
1767		113.281250
1768		119.140625
1769		115.234375
1770		123.046875
1771		117.187500
1772		125.000000
1773		119.140625
1774		126.953125
1775		121.093750
1776		128.906250
1777		123.046875
1778		130.859375
1779		126.953125
1780		130.859375
1781		128.906250
1782		132.812500
1783		128.906250
1784		134.765625
1785		130.859375
1786		136.718750
1787		132.812500
1788		138.671875
1789		132.812500
1790		138.671875
1791		134.765625
1792		140.625000
1793		136.718750
1794		142.578125
1795		136.718750
1796		142.578125
1797		138.671875
1798		142.578125
1799		140.625000
1800		144.531250
1801		138.671875
1802		146.484375
1803		140.625000
1804		148.437500
1805		140.625000
1806		148.437500
1807		140.625000
1808		150.390625
1809		142.578125
1810		148.437500
1811		142.578125
1812		150.390625
1813		144.531250
1814		148.437500
1815		144.531250
1816		148.437500
1817		144.531250
1818		152.343750
1819		144.531250
1820		150.390625
1821		144.531250
1822		152.343750
1823		144.531250
1824		152.343750
1825		144.531250
1826		150.390625
1827		144.531250
1828		150.390625
1829		144.531250
1830		150.390625
1831		144.531250
1832		148.437500
1833		142.578125
1834		150.390625
1835		142.578125
1836		148.437500
1837		140.625000
1838		148.437500
1839		140.625000
1840		148.437500
1841		140.625000
1842		146.484375
1843		138.671875
1844		146.484375
1845		140.625000
1846		144.531250
1847		138.671875
1848		142.578125
1849		136.718750
1850		142.578125
1851		134.765625
1852		142.578125
1853		134.765625
1854		140.625000
1855		132.812500
1856		140.625000
1857		130.859375
1858		138.671875
1859		128.906250
1860		136.718750
1861		128.906250
1862		134.765625
1863		126.953125
1864		132.812500
1865		126.953125
1866		130.859375
1867		121.093750
1868		128.906250
1869		121.093750
1870		128.906250
1871		119.140625
1872		126.953125
1873		115.234375
1874		123.046875
1875		113.281250
1876		123.046875
1877		111.328125
1878		119.140625
1879		111.328125
1880		117.187500
1881		107.421875
1882		113.281250
1883		103.515625
1884		111.328125
1885		101.562500
1886		109.375000
1887		99.609375
1888		107.421875
1889		95.703125
1890		103.515625
1891		93.750000
1892		99.609375
1893		89.843750
1894		99.609375
1895		87.890625
1896		95.703125
1897		85.937500
1898		89.843750
1899		82.031250
1900		87.890625
1901		76.171875
1902		85.937500
1903		74.218750
1904		82.031250
1905		68.359375
1906		78.125000
1907		66.406250
1908		76.171875
1909		64.453125
1910		70.312500
1911		60.546875
1912		68.359375
1913		56.640625
1914		64.453125
1915		52.734375
1916		60.546875
1917		48.828125
1918		56.640625
1919		44.921875
1920		54.687500
1921		39.062500
1922		48.828125
1923		37.109375
1924		46.875000
1925		33.203125
1926		42.968750
1927		29.296875
1928		37.109375
1929		27.343750
1930		33.203125
1931		21.484375
1932		29.296875
1933		17.578125
1934		23.437500
1935		13.671875
1936		21.484375
1937		7.812500
1938		15.625000
1939		5.859375
1940		13.671875
1941		0.000000
1942		7.812500
1943		-3.906250
1944		3.906250
1945		-7.812500
1946		0.000000
1947		-11.718750
1948		-3.906250
1949		-15.625000
1950		-7.812500
1951		-21.484375
1952		-13.671875
1953		-25.390625
1954		-15.625000
1955		-29.296875
1956		-19.531250
1957		-33.203125
1958		-23.437500
1959		-39.062500
1960		-29.296875
1961		-41.015625
1962		-31.250000
1963		-44.921875
1964		-37.109375
1965		-48.828125
1966		-42.968750
1967		-54.687500
1968		-46.875000
1969		-58.593750
1970		-48.828125
1971		-62.500000
1972		-52.734375
1973		-66.406250
1974		-56.640625
1975		-72.265625
1976		-62.500000
1977		-74.218750
1978		-66.406250
1979		-78.125000
1980		-70.312500
1981		-80.078125
1982		-74.218750
1983		-83.984375
1984		-78.125000
1985		-89.843750
1986		-82.031250
1987		-93.750000
1988		-83.984375
1989		-97.656250
1990		-87.890625
1991		-99.609375
1992		-91.796875
1993		-103.515625
1994		-95.703125
1995		-107.421875
1996		-97.656250
1997		-109.375000
1998		-101.562500
1999		-113.281250
2000		-107.421875
2001		-115.234375
2002		-109.375000
2003		-121.093750
2004		-113.281250
2005		-123.046875
2006		-115.234375
2007		-126.953125
2008		-117.187500
2009		-128.906250
2010		-121.093750
2011		-132.812500
2012		-125.000000
2013		-132.812500
2014		-126.953125
2015		-136.718750
2016		-130.859375
2017		-138.671875
2018		-132.812500
2019		-142.578125
2020		-134.765625
2021		-144.531250
2022		-136.718750
2023		-146.484375
2024		-138.671875
2025		-150.390625
2026		-140.625000
2027		-148.437500
2028		-142.578125
2029		-152.343750
2030		-144.531250
2031		-152.343750
2032		-146.484375
2033		-154.296875
2034		-150.390625
2035		-156.250000
2036		-150.390625
2037		-158.203125
2038		-150.390625
2039		-160.156250
2040		-152.343750
2041		-160.156250
2042		-152.343750
2043		-162.109375
2044		-154.296875
2045		-164.062500
2046		-156.250000
2047		-162.109375
2048		-156.250000
2049		-162.109375
2050		-158.203125
2051		-164.062500
2052		-158.203125
2053		-166.015625
2054		-156.250000
2055		-164.062500
2056		-158.203125
2057		-164.062500
2058		-158.203125
2059		-166.015625
2060		-158.203125
2061		-164.062500
2062		-158.203125
2063		-164.062500
2064		-156.250000
2065		-162.109375
2066		-158.203125
2067		-162.109375
2068		-158.203125
2069		-162.109375
2070		-156.250000
2071		-162.109375
2072		-154.296875
2073		-162.109375
2074		-154.296875
2075		-160.156250
2076		-152.343750
2077		-160.156250
2078		-152.343750
2079		-158.203125
2080		-150.390625
2081		-156.250000
2082		-150.390625
2083		-152.343750
2084		-148.437500
2085		-152.343750
2086		-146.484375
2087		-152.343750
2088		-144.531250
2089		-148.437500
2090		-142.578125
2091		-146.484375
2092		-140.625000
2093		-144.531250
2094		-138.671875
2095		-142.578125
2096		-134.765625
2097		-140.625000
2098		-132.812500
2099		-136.718750
2100		-130.859375
2101		-134.765625
2102		-128.906250
2103		-134.765625
2104		-125.000000
2105		-130.859375
2106		-123.046875
2107		-126.953125
2108		-119.140625
2109		-123.046875
2110		-115.234375
2111		-121.093750
2112		-113.281250
2113		-117.187500
2114		-109.375000
2115		-115.234375
2116		-107.421875
2117		-109.375000
2118		-103.515625
2119		-107.421875
2120		-99.609375
2121		-103.515625
2122		-95.703125
2123		-101.562500
2124		-91.796875
2125		-97.656250
2126		-87.890625
2127		-91.796875
2128		-83.984375
2129		-89.843750
2130		-80.078125
2131		-85.937500
2132		-78.125000
2133		-80.078125
2134		-74.218750
2135		-76.171875
2136		-68.359375
2137		-72.265625
2138		-64.453125
2139		-70.312500
2140		-60.546875
2141		-66.406250
2142		-56.640625
2143		-62.500000
2144		-50.781250
2145		-56.640625
2146		-46.875000
2147		-52.734375
2148		-42.968750
2149		-46.875000
2150		-41.015625
2151		-42.968750
2152		-37.109375
2153		-39.062500
2154		-31.250000
2155		-35.156250
2156		-27.343750
2157		-31.250000
2158		-23.437500
2159		-27.343750
2160		-19.531250
2161		-23.437500
2162		-13.671875
2163		-19.531250
2164		-7.812500
2165		-15.625000
2166		-5.859375
2167		-9.765625
2168		-1.953125
2169		-3.906250
2170		3.906250
2171		-1.953125
2172		7.812500
2173		1.953125
2174		11.718750
2175		7.812500
2176		15.625000
2177		9.765625
2178		19.531250
2179		15.625000
2180		23.437500
2181		19.531250
2182		27.343750
2183		23.437500
2184		31.250000
2185		29.296875
2186		35.156250
2187		31.250000
2188		39.062500
2189		35.156250
2190		44.921875
2191		39.062500
2192		46.875000
2193		42.968750
2194		50.781250
2195		44.921875
2196		54.687500
2197		48.828125
2198		58.593750
2199		52.734375
2200		60.546875
2201		58.593750
2202		64.453125
2203		62.500000
2204		70.312500
2205		64.453125
2206		72.265625
2207		66.406250
2208		76.171875
2209		72.265625
2210		80.078125
2211		74.218750
2212		83.984375
2213		78.125000
2214		85.937500
2215		80.078125
2216		89.843750
2217		85.937500
2218		91.796875
2219		89.843750
2220		95.703125
2221		89.843750
2222		97.656250
2223		91.796875
2224		101.562500
2225		95.703125
2226		103.515625
2227		99.609375
2228		107.421875
2229		101.562500
2230		109.375000
2231		105.468750
2232		111.328125
2233		109.375000
2234		113.281250
2235		111.328125
2236		115.234375
2237		111.328125
2238		119.140625
2239		113.281250
2240		121.093750
2241		115.234375
2242		125.000000
2243		117.187500
2244		125.000000
2245		121.093750
2246		128.906250
2247		123.046875
2248		128.906250
2249		125.000000
2250		130.859375
2251		126.953125
2252		132.812500
2253		126.953125
2254		134.765625
2255		128.906250
2256		136.718750
2257		130.859375
2258		138.671875
2259		130.859375
2260		138.671875
2261		134.765625
2262		140.625000
2263		134.765625
2264		142.578125
2265		136.718750
2266		142.578125
2267		138.671875
2268		142.578125
2269		140.625000
2270		144.531250
2271		138.671875
2272		146.484375
2273		140.625000
2274		146.484375
2275		140.625000
2276		150.390625
2277		140.625000
2278		148.437500
2279		142.578125
2280		150.390625
2281		142.578125
2282		150.390625
2283		144.531250
2284		150.390625
2285		146.484375
2286		150.390625
2287		144.531250
2288		150.390625
2289		144.531250
2290		150.390625
2291		144.531250
2292		152.343750
2293		144.531250
2294		150.390625
2295		144.531250
2296		152.343750
2297		144.531250
2298		150.390625
2299		144.531250
2300		152.343750
2301		146.484375
2302		150.390625
2303		142.578125
2304		150.390625
2305		142.578125
2306		150.390625
2307		142.578125
2308		150.390625
2309		140.625000
2310		148.437500
2311		140.625000
2312		148.437500
2313		140.625000
2314		148.437500
2315		138.671875
2316		146.484375
2317		140.625000
2318		144.531250
2319		138.671875
2320		142.578125
2321		136.718750
2322		144.531250
2323		134.765625
2324		142.578125
2325		134.765625
2326		140.625000
2327		132.812500
2328		140.625000
2329		130.859375
2330		138.671875
2331		128.906250
2332		136.718750
2333		128.906250
2334		134.765625
2335		126.953125
2336		132.812500
2337		123.046875
2338		130.859375
2339		123.046875
2340		130.859375
2341		119.140625
2342		126.953125
2343		117.187500
2344		126.953125
2345		115.234375
2346		123.046875
2347		115.234375
2348		123.046875
2349		113.281250
2350		119.140625
2351		111.328125
2352		115.234375
2353		107.421875
2354		113.281250
2355		103.515625
2356		111.328125
2357		101.562500
2358		109.375000
2359		99.609375
2360		105.468750
2361		95.703125
2362		103.515625
2363		91.796875
2364		101.562500
2365		89.843750
2366		97.656250
2367		87.890625
2368		95.703125
2369		83.984375
2370		89.843750
2371		80.078125
2372		87.890625
2373		76.171875
2374		83.984375
2375		72.265625
2376		82.031250
2377		70.312500
2378		78.125000
2379		66.406250
2380		74.218750
2381		62.500000
2382		70.312500
2383		60.546875
2384		68.359375
2385		56.640625
2386		62.500000
2387		52.734375
2388		58.593750
2389		46.875000
2390		56.640625
2391		44.921875
2392		52.734375
2393		41.015625
2394		48.828125
2395		37.109375
2396		42.968750
2397		33.203125
2398		41.015625
2399		27.343750
2400		37.109375
2401		25.390625
2402		31.250000
2403		21.484375
2404		27.343750
2405		15.625000
2406		23.437500
2407		11.718750
2408		21.484375
2409		5.859375
2410		17.578125
2411		3.906250
2412		11.718750
2413		0.000000
2414		7.812500
2415		-5.859375
2416		3.906250
2417		-7.812500
2418		0.000000
2419		-11.718750
2420		-5.859375
2421		-17.578125
2422		-9.765625
2423		-21.484375
2424		-13.671875
2425		-27.343750
2426		-17.578125
2427		-29.296875
2428		-19.531250
2429		-35.156250
2430		-25.390625
2431		-37.109375
2432		-29.296875
2433		-41.015625
2434		-33.203125
2435		-44.921875
2436		-39.062500
2437		-48.828125
2438		-42.968750
2439		-54.687500
2440		-46.875000
2441		-58.593750
2442		-50.781250
2443		-62.500000
2444		-54.687500
2445		-68.359375
2446		-58.593750
2447		-72.265625
2448		-62.500000
2449		-74.218750
2450		-66.406250
2451		-78.125000
2452		-70.312500
2453		-82.031250
2454		-74.218750
2455		-87.890625
2456		-80.078125
2457		-89.843750
2458		-82.031250
2459		-93.750000
2460		-85.937500
2461		-97.656250
2462		-87.890625
2463		-101.562500
2464		-91.796875
2465		-103.515625
2466		-95.703125
2467		-105.468750
2468		-99.609375
2469		-109.375000
2470		-103.515625
2471		-113.281250
2472		-107.421875
2473		-117.187500
2474		-109.375000
2475		-121.093750
2476		-113.281250
2477		-123.046875
2478		-115.234375
2479		-126.953125
2480		-119.140625
2481		-128.906250
2482		-121.093750
2483		-132.812500
2484		-123.046875
2485		-132.812500
2486		-126.953125
2487		-134.765625
2488		-130.859375
2489		-138.671875
2490		-132.812500
2491		-142.578125
2492		-134.765625
2493		-144.531250
2494		-136.718750
2495		-146.484375
2496		-138.671875
2497		-148.437500
2498		-140.625000
2499		-150.390625
2500		-142.578125
2501		-150.390625
2502		-144.531250
2503		-152.343750
2504		-148.437500
2505		-154.296875
2506		-148.437500
2507		-156.250000
2508		-148.437500
2509		-158.203125
2510		-152.343750
2511		-160.156250
2512		-152.343750
2513		-160.156250
2514		-152.343750
2515		-162.109375
2516		-154.296875
2517		-162.109375
2518		-156.250000
2519		-160.156250
2520		-158.203125
2521		-162.109375
2522		-158.203125
2523		-164.062500
2524		-158.203125
2525		-164.062500
2526		-158.203125
2527		-164.062500
2528		-158.203125
2529		-164.062500
2530		-158.203125
2531		-164.062500
2532		-158.203125
2533		-164.062500
2534		-158.203125
2535		-164.062500
2536		-158.203125
2537		-162.109375
2538		-158.203125
2539		-162.109375
2540		-156.250000
2541		-164.062500
2542		-156.250000
2543		-162.109375
2544		-154.296875
2545		-162.109375
2546		-152.343750
2547		-160.156250
2548		-152.343750
2549		-160.156250
2550		-150.390625
2551		-156.250000
2552		-150.390625
2553		-154.296875
2554		-150.390625
2555		-152.343750
2556		-148.437500
2557		-152.343750
2558		-144.531250
2559		-150.390625
2560		-144.531250
2561		-148.437500
2562		-142.578125
2563		-148.437500
2564		-138.671875
2565		-144.531250
2566		-136.718750
2567		-142.578125
2568		-134.765625
2569		-138.671875
2570		-134.765625
2571		-136.718750
2572		-130.859375
2573		-132.812500
2574		-126.953125
2575		-132.812500
2576		-125.000000
2577		-128.906250
2578		-121.093750
2579		-126.953125
2580		-117.187500
2581		-123.046875
2582		-115.234375
2583		-121.093750
2584		-111.328125
2585		-117.187500
2586		-109.375000
2587		-111.328125
2588		-107.421875
2589		-109.375000
2590		-101.562500
2591		-107.421875
2592		-97.656250
2593		-101.562500
2594		-95.703125
2595		-99.609375
2596		-89.843750
2597		-95.703125
2598		-85.937500
2599		-91.796875
2600		-83.984375
2601		-89.843750
2602		-80.078125
2603		-83.984375
2604		-78.125000
2605		-80.078125
2606		-72.265625
2607		-76.171875
2608		-66.406250
2609		-74.218750
2610		-62.500000
2611		-68.359375
2612		-60.546875
2613		-64.453125
2614		-54.687500
2615		-60.546875
2616		-50.781250
2617		-56.640625
2618		-46.875000
2619		-52.734375
2620		-44.921875
2621		-46.875000
2622		-39.062500
2623		-42.968750
2624		-35.156250
2625		-39.062500
2626		-29.296875
2627		-35.156250
2628		-25.390625
2629		-31.250000
2630		-21.484375
2631		-25.390625
2632		-17.578125
2633		-21.484375
2634		-13.671875
2635		-17.578125
2636		-9.765625
2637		-11.718750
2638		-5.859375
2639		-7.812500
2640		-1.953125
2641		-5.859375
2642		3.906250
2643		0.000000
2644		7.812500
2645		1.953125
2646		11.718750
2647		5.859375
2648		17.578125
2649		11.718750
2650		21.484375
2651		17.578125
2652		25.390625
2653		19.531250
2654		27.343750
2655		25.390625
2656		31.250000
2657		29.296875
2658		37.109375
2659		33.203125
2660		41.015625
2661		35.156250
2662		44.921875
2663		39.062500
2664		48.828125
2665		42.968750
2666		52.734375
2667		46.875000
2668		56.640625
2669		50.781250
2670		58.593750
2671		56.640625
2672		62.500000
2673		60.546875
2674		66.406250
2675		62.500000
2676		70.312500
2677		66.406250
2678		74.218750
2679		68.359375
2680		76.171875
2681		72.265625
2682		80.078125
2683		76.171875
2684		83.984375
2685		78.125000
2686		85.937500
2687		83.984375
2688		89.843750
2689		85.937500
2690		91.796875
2691		87.890625
2692		97.656250
2693		89.843750
2694		97.656250
2695		93.750000
2696		101.562500
2697		95.703125
2698		105.468750
2699		99.609375
2700		107.421875
2701		101.562500
2702		109.375000
2703		103.515625
2704		111.328125
2705		109.375000
2706		113.281250
2707		111.328125
2708		117.187500
2709		111.328125
2710		119.140625
2711		113.281250
2712		121.093750
2713		117.187500
2714		123.046875
2715		117.187500
2716		126.953125
2717		121.093750
2718		128.906250
2719		121.093750
2720		128.906250
2721		125.000000
2722		130.859375
2723		126.953125
2724		132.812500
2725		126.953125
2726		134.765625
2727		128.906250
2728		136.718750
2729		130.859375
2730		138.671875
2731		132.812500
2732		140.625000
2733		134.765625
2734		140.625000
2735		134.765625
2736		142.578125
2737		138.671875
2738		142.578125
2739		138.671875
2740		142.578125
2741		138.671875
2742		146.484375
2743		138.671875
2744		146.484375
2745		140.625000
2746		148.437500
2747		140.625000
2748		148.437500
2749		140.625000
2750		148.437500
2751		142.578125
2752		150.390625
2753		142.578125
2754		150.390625
2755		144.531250
2756		148.437500
2757		144.531250
2758		150.390625
2759		144.531250
2760		150.390625
2761		144.531250
2762		152.343750
2763		144.531250
2764		152.343750
2765		144.531250
2766		152.343750
2767		144.531250
2768		152.343750
2769		144.531250
2770		150.390625
2771		146.484375
2772		150.390625
2773		146.484375
2774		150.390625
2775		142.578125
2776		150.390625
2777		142.578125
2778		150.390625
2779		142.578125
2780		150.390625
2781		140.625000
2782		148.437500
2783		140.625000
2784		148.437500
2785		140.625000
2786		148.437500
2787		140.625000
2788		146.484375
2789		140.625000
2790		144.531250
2791		136.718750
2792		144.531250
2793		136.718750
2794		142.578125
2795		134.765625
2796		142.578125
2797		134.765625
2798		140.625000
2799		130.859375
2800		140.625000
2801		130.859375
2802		138.671875
2803		128.906250
2804		136.718750
2805		128.906250
2806		132.812500
2807		126.953125
2808		132.812500
2809		123.046875
2810		132.812500
2811		121.093750
2812		128.906250
2813		121.093750
2814		128.906250
2815		117.187500
2816		125.000000
2817		117.187500
2818		123.046875
2819		113.281250
2820		121.093750
2821		113.281250
2822		119.140625
2823		109.375000
2824		115.234375
2825		107.421875
2826		113.281250
2827		103.515625
2828		111.328125
2829		99.609375
2830		109.375000
2831		97.656250
2832		105.468750
2833		95.703125
2834		103.515625
2835		91.796875
2836		99.609375
2837		89.843750
2838		97.656250
2839		87.890625
2840		93.750000
2841		83.984375
2842		89.843750
2843		80.078125
2844		87.890625
2845		76.171875
2846		83.984375
2847		72.265625
2848		80.078125
2849		68.359375
2850		78.125000
2851		66.406250
2852		74.218750
2853		62.500000
2854		70.312500
2855		60.546875
2856		66.406250
2857		56.640625
2858		62.500000
2859		50.781250
2860		58.593750
2861		48.828125
2862		56.640625
2863		42.968750
2864		52.734375
2865		39.062500
2866		48.828125
2867		35.156250
2868		44.921875
2869		31.250000
2870		41.015625
2871		29.296875
2872		35.156250
2873		25.390625
2874		31.250000
2875		17.578125
2876		27.343750
2877		15.625000
2878		23.437500
2879		11.718750
2880		19.531250
2881		7.812500
2882		15.625000
2883		1.953125
2884		11.718750
2885		-1.953125
2886		7.812500
2887		-5.859375
2888		3.906250
2889		-7.812500
2890		-1.953125
2891		-11.718750
2892		-5.859375
2893		-17.578125
2894		-9.765625
2895		-23.437500
2896		-13.671875
2897		-27.343750
2898		-17.578125
2899		-29.296875
2900		-23.437500
2901		-35.156250
2902		-25.390625
2903		-39.062500
2904		-31.250000
2905		-42.968750
2906		-33.203125
2907		-46.875000
2908		-39.062500
2909		-52.734375
2910		-42.968750
2911		-56.640625
2912		-46.875000
2913		-58.593750
2914		-50.781250
2915		-64.453125
2916		-56.640625
2917		-68.359375
2918		-58.593750
2919		-72.265625
2920		-62.500000
2921		-74.218750
2922		-66.406250
2923		-78.125000
2924		-72.265625
2925		-82.031250
2926		-76.171875
2927		-87.890625
2928		-78.125000
2929		-89.843750
2930		-82.031250
2931		-95.703125
2932		-85.937500
2933		-97.656250
2934		-89.843750
2935		-101.562500
2936		-93.750000
2937		-105.468750
2938		-97.656250
2939		-107.421875
2940		-101.562500
2941		-109.375000
2942		-105.468750
2943		-115.234375
2944		-107.421875
2945		-117.187500
2946		-109.375000
2947		-121.093750
2948		-111.328125
2949		-123.046875
2950		-117.187500
2951		-126.953125
2952		-119.140625
2953		-130.859375
2954		-123.046875
2955		-130.859375
2956		-125.000000
2957		-132.812500
2958		-128.906250
2959		-136.718750
2960		-130.859375
2961		-140.625000
2962		-132.812500
2963		-142.578125
2964		-134.765625
2965		-144.531250
2966		-136.718750
2967		-146.484375
2968		-138.671875
2969		-148.437500
2970		-142.578125
2971		-150.390625
2972		-142.578125
2973		-150.390625
2974		-146.484375
2975		-152.343750
2976		-148.437500
2977		-156.250000
2978		-148.437500
2979		-158.203125
2980		-150.390625
2981		-158.203125
2982		-150.390625
2983		-158.203125
2984		-152.343750
2985		-162.109375
2986		-152.343750
2987		-162.109375
2988		-154.296875
2989		-162.109375
2990		-156.250000
2991		-160.156250
2992		-158.203125
2993		-164.062500
2994		-158.203125
2995		-164.062500
2996		-156.250000
2997		-166.015625
2998		-158.203125
2999		-164.062500
3000		-158.203125
3001		-164.062500
3002		-158.203125
3003		-164.062500
3004		-158.203125
3005		-164.062500
3006		-158.203125
3007		-162.109375
3008		-158.203125
3009		-162.109375
3010		-158.203125
3011		-164.062500
3012		-156.250000
3013		-164.062500
3014		-156.250000
3015		-162.109375
3016		-154.296875
3017		-160.156250
3018		-154.296875
3019		-160.156250
3020		-152.343750
3021		-158.203125
3022		-152.343750
3023		-154.296875
3024		-150.390625
3025		-154.296875
3026		-148.437500
3027		-152.343750
3028		-146.484375
3029		-152.343750
3030		-144.531250
3031		-150.390625
3032		-142.578125
3033		-148.437500
3034		-140.625000
3035		-144.531250
3036		-138.671875
3037		-144.531250
3038		-136.718750
3039		-142.578125
3040		-134.765625
3041		-136.718750
3042		-132.812500
3043		-134.765625
3044		-128.906250
3045		-134.765625
3046		-125.000000
3047		-130.859375
3048		-123.046875
3049		-128.906250
3050		-119.140625
3051		-125.000000
3052		-117.187500
3053		-121.093750
3054		-113.281250
3055		-119.140625
3056		-111.328125
3057		-115.234375
3058		-109.375000
3059		-111.328125
3060		-105.468750
3061		-107.421875
3062		-101.562500
3063		-105.468750
3064		-97.656250
3065		-101.562500
3066		-91.796875
3067		-99.609375
3068		-89.843750
3069		-95.703125
3070		-85.937500
3071		-91.796875
3072		-82.031250
3073		-85.937500
3074		-80.078125
3075		-82.031250
3076		-76.171875
3077		-78.125000
3078		-70.312500
3079		-74.218750
3080		-66.406250
3081		-70.312500
3082		-62.500000
3083		-68.359375
3084		-58.593750
3085		-62.500000
3086		-54.687500
3087		-60.546875
3088		-50.781250
3089		-54.687500
3090		-46.875000
3091		-48.828125
3092		-42.968750
3093		-44.921875
3094		-39.062500
3095		-42.968750
3096		-33.203125
3097		-37.109375
3098		-29.296875
3099		-33.203125
3100		-25.390625
3101		-29.296875
3102		-19.531250
3103		-25.390625
3104		-17.578125
3105		-21.484375
3106		-11.718750
3107		-15.625000
3108		-7.812500
3109		-9.765625
3110		-3.906250
3111		-5.859375
3112		1.953125
3113		-3.906250
3114		5.859375
3115		1.953125
3116		9.765625
3117		3.906250
3118		13.671875
3119		9.765625
3120		17.578125
3121		11.718750
3122		23.437500
3123		17.578125
3124		25.390625
3125		23.437500
3126		29.296875
3127		27.343750
3128		33.203125
3129		29.296875
3130		37.109375
3131		33.203125
3132		41.015625
3133		35.156250
3134		44.921875
3135		41.015625
3136		48.828125
3137		44.921875
3138		52.734375
3139		48.828125
3140		56.640625
3141		52.734375
3142		58.593750
3143		56.640625
3144		62.500000
3145		58.593750
3146		68.359375
3147		62.500000
3148		72.265625
3149		66.406250
3150		74.218750
3151		68.359375
3152		78.125000
3153		74.218750
3154		82.031250
3155		76.171875
3156		85.937500
3157		80.078125
3158		85.937500
3159		83.984375
3160		89.843750
3161		87.890625
3162		95.703125
3163		87.890625
3164		97.656250
3165		91.796875
3166		99.609375
3167		93.750000
3168		103.515625
3169		97.656250
3170		105.468750
3171		99.609375
3172		107.421875
3173		103.515625
3174		109.375000
3175		107.421875
3176		111.328125
3177		109.375000
3178		115.234375
3179		109.375000
3180		117.187500
3181		111.328125
3182		121.093750
3183		115.234375
3184		123.046875
3185		117.187500
3186		125.000000
3187		119.140625
3188		126.953125
3189		121.093750
3190		128.906250
3191		125.000000
3192		128.906250
3193		125.000000
3194		130.859375
3195		126.953125
3196		132.812500
3197		128.906250
3198		134.765625
3199		130.859375
3200		136.718750
3201		132.812500
3202		138.671875
3203		132.812500
3204		140.625000
3205		134.765625
3206		142.578125
3207		136.718750
3208		140.625000
3209		138.671875
3210		142.578125
3211		138.671875
3212		144.531250
3213		138.671875
3214		146.484375
3215		138.671875
3216		146.484375
3217		140.625000
3218		148.437500
3219		140.625000
3220		148.437500
3221		142.578125
3222		148.437500
3223		142.578125
3224		150.390625
3225		144.531250
3226		148.437500
3227		144.531250
3228		148.437500
3229		144.531250
3230		150.390625
3231		144.531250
3232		152.343750
3233		144.531250
3234		152.343750
3235		144.531250
3236		152.343750
3237		144.531250
3238		150.390625
3239		144.531250
3240		152.343750
3241		144.531250
3242		150.390625
3243		146.484375
3244		150.390625
3245		144.531250
3246		150.390625
3247		142.578125
3248		150.390625
3249		142.578125
3250		150.390625
3251		142.578125
3252		150.390625
3253		140.625000
3254		148.437500
3255		140.625000
3256		148.437500
3257		140.625000
3258		146.484375
3259		140.625000
3260		146.484375
3261		138.671875
3262		144.531250
3263		136.718750
3264		144.531250
3265		136.718750
3266		144.531250
3267		134.765625
3268		142.578125
3269		132.812500
3270		140.625000
3271		130.859375
3272		140.625000
3273		130.859375
3274		138.671875
3275		130.859375
3276		134.765625
3277		128.906250
3278		132.812500
3279		125.000000
3280		132.812500
3281		125.000000
3282		130.859375
3283		121.093750
3284		128.906250
3285		119.140625
3286		128.906250
3287		117.187500
3288		125.000000
3289		115.234375
3290		123.046875
3291		115.234375
3292		119.140625
3293		111.328125
3294		117.187500
3295		107.421875
3296		115.234375
3297		105.468750
3298		113.281250
3299		103.515625
3300		111.328125
3301		99.609375
3302		107.421875
3303		97.656250
3304		105.468750
3305		93.750000
3306		103.515625
3307		91.796875
3308		99.609375
3309		89.843750
3310		95.703125
3311		85.937500
3312		91.796875
3313		82.031250
3314		89.843750
3315		80.078125
3316		87.890625
3317		74.218750
3318		83.984375
3319		72.265625
3320		80.078125
3321		68.359375
3322		76.171875
3323		64.453125
3324		72.265625
3325		62.500000
3326		70.312500
3327		58.593750
3328		64.453125
3329		52.734375
3330		60.546875
3331		50.781250
3332		58.593750
3333		46.875000
3334		54.687500
3335		41.015625
3336		50.781250
3337		39.062500
3338		46.875000
3339		35.156250
3340		42.968750
3341		31.250000
3342		41.015625
3343		27.343750
3344		35.156250
3345		23.437500
3346		29.296875
3347		19.531250
3348		27.343750
3349		13.671875
3350		23.437500
3351		9.765625
3352		19.531250
3353		5.859375
3354		15.625000
3355		0.000000
3356		9.765625
3357		-1.953125
3358		5.859375
3359		-5.859375
3360		1.953125
3361		-9.765625
3362		-3.906250
3363		-15.625000
3364		-7.812500
3365		-19.531250
3366		-9.765625
3367		-23.437500
3368		-15.625000
3369		-27.343750
3370		-19.531250
3371		-33.203125
3372		-21.484375
3373		-35.156250
3374		-27.343750
3375		-39.062500
3376		-31.250000
3377		-42.968750
3378		-37.109375
3379		-48.828125
3380		-41.015625
3381		-52.734375
3382		-42.968750
3383		-56.640625
3384		-48.828125
3385		-60.546875
3386		-52.734375
3387		-64.453125
3388		-54.687500
3389		-68.359375
3390		-60.546875
3391		-72.265625
3392		-64.453125
3393		-74.218750
3394		-68.359375
3395		-78.125000
3396		-72.265625
3397		-83.984375
3398		-76.171875
3399		-87.890625
3400		-78.125000
3401		-91.796875
3402		-82.031250
3403		-95.703125
3404		-85.937500
3405		-97.656250
3406		-89.843750
3407		-103.515625
3408		-93.750000
3409		-103.515625
3410		-97.656250
3411		-107.421875
3412		-101.562500
3413		-113.281250
3414		-105.468750
3415		-117.187500
3416		-107.421875
3417		-119.140625
3418		-109.375000
3419		-121.093750
3420		-113.281250
3421		-125.000000
3422		-117.187500
3423		-126.953125
3424		-119.140625
3425		-128.906250
3426		-123.046875
3427		-130.859375
3428		-126.953125
3429		-134.765625
3430		-128.906250
3431		-136.718750
3432		-128.906250
3433		-140.625000
3434		-132.812500
3435		-142.578125
3436		-134.765625
3437		-144.531250
3438		-136.718750
3439		-146.484375
3440		-138.671875
3441		-148.437500
3442		-142.578125
3443		-148.437500
3444		-142.578125
3445		-150.390625
3446		-146.484375
3447		-152.343750
3448		-148.437500
3449		-156.250000
3450		-148.437500
3451		-156.250000
3452		-150.390625
3453		-158.203125
3454		-150.390625
3455		-160.156250
3456		-152.343750
3457		-160.156250
3458		-152.343750
3459		-162.109375
3460		-154.296875
3461		-160.156250
3462		-156.250000
3463		-162.109375
3464		-156.250000
3465		-162.109375
3466		-156.250000
3467		-162.109375
3468		-158.203125
3469		-162.109375
3470		-158.203125
3471		-162.109375
3472		-158.203125
3473		-162.109375
3474		-158.203125
3475		-162.109375
3476		-158.203125
3477		-162.109375
3478		-158.203125
3479		-160.156250
3480		-158.203125
3481		-162.109375
3482		-156.250000
3483		-162.109375
3484		-154.296875
3485		-162.109375
3486		-154.296875
3487		-160.156250
3488		-152.343750
3489		-160.156250
3490		-152.343750
3491		-158.203125
3492		-150.390625
3493		-156.250000
3494		-150.390625
3495		-154.296875
3496		-150.390625
3497		-152.343750
3498		-146.484375
3499		-152.343750
3500		-144.531250
3501		-150.390625
3502		-142.578125
3503		-148.437500
3504		-140.625000
3505		-146.484375
3506		-138.671875
3507		-146.484375
3508		-136.718750
3509		-142.578125
3510		-134.765625
3511		-138.671875
3512		-134.765625
3513		-136.718750
3514		-130.859375
3515		-134.765625
3516		-126.953125
3517		-132.812500
3518		-125.000000
3519		-130.859375
3520		-121.093750
3521		-126.953125
3522		-119.140625
3523		-125.000000
3524		-115.234375
3525		-121.093750
3526		-113.281250
3527		-119.140625
3528		-109.375000
3529		-113.281250
3530		-107.421875
3531		-109.375000
3532		-103.515625
3533		-107.421875
3534		-99.609375
3535		-105.468750
3536		-95.703125
3537		-101.562500
3538		-91.796875
3539		-95.703125
3540		-87.890625
3541		-93.750000
3542		-85.937500
3543		-89.843750
3544		-82.031250
3545		-83.984375
3546		-78.125000
3547		-80.078125
3548		-74.218750
3549		-78.125000
3550		-68.359375
3551		-74.218750
3552		-66.406250
3553		-70.312500
3554		-60.546875
3555		-64.453125
3556		-56.640625
3557		-62.500000
3558		-52.734375
3559		-56.640625
3560		-46.875000
3561		-50.781250
3562		-44.921875
3563		-46.875000
3564		-41.015625
3565		-42.968750
3566		-35.156250
3567		-39.062500
3568		-31.250000
3569		-37.109375
3570		-27.343750
3571		-31.250000
3572		-23.437500
3573		-29.296875
3574		-19.531250
3575		-23.437500
3576		-13.671875
3577		-19.531250
3578		-11.718750
3579		-13.671875
3580		-5.859375
3581		-9.765625
3582		-1.953125
3583		-5.859375
3584		3.906250
3585		-1.953125
3586		7.812500
3587		1.953125
3588		11.718750
3589		5.859375
3590		13.671875
3591		11.718750
3592		19.531250
3593		15.625000
3594		23.437500
3595		19.531250
3596		27.343750
3597		25.390625
3598		31.250000
3599		27.343750
3600		37.109375
3601		31.250000
3602		39.062500
3603		35.156250
3604		44.921875
3605		39.062500
3606		46.875000
3607		42.968750
3608		50.781250
3609		46.875000
3610		54.687500
3611		48.828125
3612		56.640625
3613		54.687500
3614		60.546875
3615		58.593750
3616		66.406250
3617		60.546875
3618		68.359375
3619		64.453125
3620		72.265625
3621		66.406250
3622		76.171875
3623		70.312500
3624		80.078125
3625		74.218750
3626		83.984375
3627		78.125000
3628		83.984375
3629		82.031250
3630		87.890625
3631		85.937500
3632		91.796875
3633		87.890625
3634		95.703125
3635		89.843750
3636		97.656250
3637		91.796875
3638		101.562500
3639		95.703125
3640		103.515625
3641		99.609375
3642		107.421875
3643		101.562500
3644		109.375000
3645		105.468750
3646		111.328125
3647		107.421875
3648		113.281250
3649		109.375000
3650		117.187500
3651		111.328125
3652		119.140625
3653		113.281250
3654		121.093750
3655		117.187500
3656		123.046875
3657		117.187500
3658		125.000000
3659		121.093750
3660		126.953125
3661		123.046875
3662		128.906250
3663		125.000000
3664		130.859375
3665		126.953125
3666		132.812500
3667		126.953125
3668		136.718750
3669		128.906250
3670		136.718750
3671		130.859375
3672		138.671875
3673		132.812500
3674		138.671875
3675		134.765625
3676		140.625000
3677		134.765625
3678		142.578125
3679		138.671875
3680		142.578125
3681		138.671875
3682		142.578125
3683		138.671875
3684		146.484375
3685		138.671875
3686		146.484375
3687		140.625000
3688		148.437500
3689		142.578125
3690		148.437500
3691		142.578125
3692		150.390625
3693		142.578125
3694		150.390625
3695		144.531250
3696		150.390625
3697		146.484375
3698		150.390625
3699		144.531250
3700		150.390625
3701		144.531250
3702		152.343750
3703		144.531250
3704		152.343750
3705		144.531250
3706		152.343750
3707		144.531250
3708		152.343750
3709		144.531250
3710		152.343750
3711		146.484375
3712		152.343750
3713		146.484375
3714		150.390625
3715		144.531250
3716		150.390625
3717		144.531250
3718		150.390625
3719		144.531250
3720		150.390625
3721		142.578125
3722		150.390625
3723		142.578125
3724		150.390625
3725		142.578125
3726		148.437500
3727		140.625000
3728		148.437500
3729		142.578125
3730		146.484375
3731		140.625000
3732		144.531250
3733		138.671875
3734		144.531250
3735		136.718750
3736		146.484375
3737		134.765625
3738		144.531250
3739		134.765625
3740		142.578125
3741		132.812500
3742		140.625000
3743		130.859375
3744		138.671875
3745		130.859375
3746		138.671875
3747		130.859375
3748		134.765625
3749		128.906250
3750		132.812500
3751		125.000000
3752		132.812500
3753		123.046875
3754		130.859375
3755		121.093750
3756		128.906250
3757		119.140625
3758		126.953125
3759		117.187500
3760		125.000000
3761		115.234375
3762		123.046875
3763		113.281250
3764		119.140625
3765		111.328125
3766		117.187500
3767		107.421875
3768		115.234375
3769		105.468750
3770		113.281250
3771		101.562500
3772		111.328125
3773		99.609375
3774		107.421875
3775		97.656250
3776		105.468750
3777		93.750000
3778		101.562500
3779		91.796875
3780		99.609375
3781		87.890625
3782		93.750000
3783		83.984375
3784		91.796875
3785		80.078125
3786		89.843750
3787		78.125000
3788		85.937500
3789		74.218750
3790		83.984375
3791		72.265625
3792		80.078125
3793		68.359375
3794		76.171875
3795		64.453125
3796		74.218750
3797		62.500000
3798		68.359375
3799		58.593750
3800		64.453125
3801		52.734375
3802		62.500000
3803		48.828125
3804		58.593750
3805		44.921875
3806		54.687500
3807		41.015625
3808		50.781250
3809		37.109375
3810		46.875000
3811		33.203125
3812		42.968750
3813		31.250000
3814		37.109375
3815		27.343750
3816		33.203125
3817		21.484375
3818		29.296875
3819		17.578125
3820		27.343750
3821		13.671875
3822		21.484375
3823		7.812500
3824		19.531250
3825		5.859375
3826		13.671875
3827		1.953125
3828		9.765625
3829		-1.953125
3830		5.859375
3831		-5.859375
3832		0.000000
3833		-9.765625
3834		-3.906250
3835		-15.625000
3836		-5.859375
3837		-19.531250
3838		-11.718750
3839		-23.437500
3840		-15.625000
3841		-29.296875
3842		-19.531250
3843		-33.203125
3844		-23.437500
3845		-35.156250
3846		-27.343750
3847		-39.062500
3848		-33.203125
3849		-42.968750
3850		-37.109375
3851		-50.781250
3852		-41.015625
3853		-52.734375
3854		-44.921875
3855		-56.640625
3856		-48.828125
3857		-62.500000
3858		-52.734375
3859		-66.406250
3860		-56.640625
3861		-68.359375
3862		-60.546875
3863		-72.265625
3864		-64.453125
3865		-76.171875
3866		-70.312500
3867		-80.078125
3868		-74.218750
3869		-83.984375
3870		-74.218750
3871		-87.890625
3872		-80.078125
3873		-93.750000
3874		-82.031250
3875		-95.703125
3876		-87.890625
3877		-99.609375
3878		-91.796875
3879		-101.562500
3880		-93.750000
3881		-105.468750
3882		-99.609375
3883		-107.421875
3884		-101.562500
3885		-113.281250
3886		-105.468750
3887		-117.187500
3888		-107.421875
3889		-121.093750
3890		-111.328125
3891		-121.093750
3892		-115.234375
3893		-125.000000
3894		-117.187500
3895		-128.906250
3896		-119.140625
3897		-128.906250
3898		-123.046875
3899		-132.812500
3900		-126.953125
3901		-134.765625
3902		-128.906250
3903		-138.671875
3904		-130.859375
3905		-140.625000
3906		-132.812500
3907		-142.578125
3908		-134.765625
3909		-144.531250
3910		-136.718750
3911		-146.484375
3912		-140.625000
3913		-148.437500
3914		-142.578125
3915		-148.437500
3916		-144.531250
3917		-150.390625
3918		-146.484375
3919		-154.296875
3920		-146.484375
3921		-156.250000
3922		-148.437500
3923		-156.250000
3924		-148.437500
3925		-158.203125
3926		-150.390625
3927		-158.203125
3928		-152.343750
3929		-160.156250
3930		-152.343750
3931		-160.156250
3932		-154.296875
3933		-160.156250
3934		-156.250000
3935		-162.109375
3936		-156.250000
3937		-162.109375
3938		-156.250000
3939		-162.109375
3940		-156.250000
3941		-164.062500
3942		-156.250000
3943		-164.062500
3944		-156.250000
3945		-164.062500
3946		-156.250000
3947		-164.062500
3948		-156.250000
3949		-162.109375
3950		-158.203125
3951		-162.109375
3952		-154.296875
3953		-162.109375
3954		-154.296875
3955		-162.109375
3956		-154.296875
3957		-160.156250
3958		-154.296875
3959		-160.156250
3960		-152.343750
3961		-160.156250
3962		-150.390625
3963		-158.203125
3964		-150.390625
3965		-154.296875
3966		-150.390625
3967		-152.343750
3968		-148.437500
3969		-152.343750
3970		-146.484375
3971		-152.343750
3972		-144.531250
3973		-148.437500
3974		-142.578125
3975		-148.437500
3976		-140.625000
3977		-146.484375
3978		-138.671875
3979		-144.531250
3980		-134.765625
3981		-140.625000
3982		-134.765625
3983		-138.671875
3984		-132.812500
3985		-134.765625
3986		-128.906250
3987		-134.765625
3988		-126.953125
3989		-130.859375
3990		-123.046875
3991		-128.906250
3992		-121.093750
3993		-125.000000
3994		-117.187500
3995		-123.046875
3996		-115.234375
3997		-121.093750
3998		-113.281250
3999		-115.234375
4000		-109.375000
4001		-111.328125
4002		-105.468750
4003		-109.375000
4004		-101.562500
4005		-107.421875
4006		-97.656250
4007		-101.562500
4008		-95.703125
4009		-99.609375
4010		-89.843750
4011		-95.703125
4012		-85.937500
4013		-91.796875
4014		-83.984375
4015		-85.937500
4016		-80.078125
4017		-82.031250
4018		-76.171875
4019		-78.125000
4020		-72.265625
4021		-78.125000
4022		-68.359375
4023		-72.265625
4024		-62.500000
4025		-68.359375
4026		-58.593750
4027		-64.453125
4028		-54.687500
4029		-58.593750
4030		-50.781250
4031		-56.640625
4032		-48.828125
4033		-50.781250
4034		-42.968750
4035		-44.921875
4036		-39.062500
4037		-42.968750
4038		-35.156250
4039		-39.062500
4040		-29.296875
4041		-35.156250
4042		-25.390625
4043		-31.250000
4044		-21.484375
4045		-27.343750
4046		-17.578125
4047		-21.484375
4048		-13.671875
4049		-15.625000
4050		-9.765625
4051		-11.718750
4052		-5.859375
4053		-7.812500
4054		0.000000
4055		-3.906250
4056		3.906250
4057		0.000000
4058		7.812500
4059		1.953125
4060		11.718750
4061		7.812500
4062		15.625000
4063		11.718750
4064		21.484375
4065		17.578125
4066		25.390625
4067		21.484375
4068		27.343750
4069		25.390625
4070		33.203125
4071		29.296875
4072		37.109375
4073		33.203125
4074		41.015625
4075		35.156250
4076		44.921875
4077		39.062500
4078		48.828125
4079		44.921875
4080		52.734375
4081		46.875000
4082		54.687500
4083		52.734375
4084		58.593750
4085		56.640625
4086		64.453125
4087		58.593750
4088		68.359375
4089		60.546875
4090		70.312500
4091		64.453125
4092		74.218750
4093		68.359375
4094		78.125000
4095		72.265625
4096		82.031250
4097		76.171875
4098		83.984375
4099		80.078125
4100		85.937500
4101		83.984375
4102		89.843750
4103		87.890625
4104		93.750000
4105		87.890625
4106		95.703125
4107		91.796875
4108		99.609375
4109		95.703125
4110		101.562500
4111		97.656250
4112		105.468750
4113		99.609375
4114		107.421875
4115		103.515625
4116		109.375000
4117		107.421875
4118		111.328125
4119		109.375000
4120		115.234375
4121		109.375000
4122		119.140625
4123		111.328125
4124		121.093750
4125		115.234375
4126		123.046875
4127		117.187500
4128		125.000000
4129		119.140625
4130		126.953125
4131		121.093750
4132		128.906250
4133		125.000000
4134		128.906250
4135		126.953125
4136		130.859375
4137		126.953125
4138		134.765625
4139		128.906250
4140		136.718750
4141		130.859375
4142		138.671875
4143		132.812500
4144		138.671875
4145		132.812500
4146		140.625000
4147		134.765625
4148		142.578125
4149		136.718750
4150		142.578125
4151		138.671875
4152		142.578125
4153		138.671875
4154		146.484375
4155		138.671875
4156		146.484375
4157		140.625000
4158		148.437500
4159		140.625000
4160		148.437500
4161		142.578125
4162		148.437500
4163		142.578125
4164		150.390625
4165		144.531250
4166		150.390625
4167		146.484375
4168		148.437500
4169		146.484375
4170		150.390625
4171		144.531250
4172		152.343750
4173		144.531250
4174		152.343750
4175		144.531250
4176		152.343750
4177		144.531250
4178		152.343750
4179		146.484375
4180		152.343750
4181		146.484375
4182		152.343750
4183		146.484375
4184		150.390625
4185		146.484375
4186		150.390625
4187		144.531250
4188		150.390625
4189		144.531250
4190		152.343750
4191		144.531250
4192		150.390625
4193		142.578125
4194		150.390625
4195		142.578125
4196		150.390625
4197		142.578125
4198		150.390625
4199		142.578125
4200		148.437500
4201		142.578125
4202		146.484375
4203		140.625000
4204		144.531250
4205		138.671875
4206		146.484375
4207		138.671875
4208		144.531250
4209		136.718750
4210		142.578125
4211		134.765625
4212		142.578125
4213		134.765625
4214		142.578125
4215		132.812500
4216		138.671875
4217		132.812500
4218		136.718750
4219		130.859375
4220		134.765625
4221		126.953125
4222		134.765625
4223		125.000000
4224		132.812500
4225		123.046875
4226		130.859375
4227		121.093750
4228		128.906250
4229		119.140625
4230		126.953125
4231		117.187500
4232		125.000000
4233		115.234375
4234		123.046875
4235		115.234375
4236		119.140625
4237		109.375000
4238		117.187500
4239		107.421875
4240		115.234375
4241		105.468750
4242		113.281250
4243		101.562500
4244		111.328125
4245		99.609375
4246		107.421875
4247		97.656250
4248		105.468750
4249		93.750000
4250		101.562500
4251		91.796875
4252		97.656250
4253		89.843750
4254		93.750000
4255		83.984375
4256		91.796875
4257		82.031250
4258		89.843750
4259		78.125000
4260		85.937500
4261		74.218750
4262		83.984375
4263		72.265625
4264		80.078125
4265		68.359375
4266		76.171875
4267		66.406250
4268		72.265625
4269		62.500000
4270		68.359375
4271		56.640625
4272		64.453125
4273		52.734375
4274		62.500000
4275		48.828125
4276		56.640625
4277		44.921875
4278		52.734375
4279		42.968750
4280		50.781250
4281		37.109375
4282		46.875000
4283		35.156250
4284		42.968750
4285		31.250000
4286		37.109375
4287		27.343750
4288		33.203125
4289		21.484375
4290		31.250000
4291		17.578125
4292		25.390625
4293		13.671875
4294		21.484375
4295		9.765625
4296		17.578125
4297		3.906250
4298		13.671875
4299		1.953125
4300		9.765625
4301		-1.953125
4302		3.906250
4303		-5.859375
4304		0.000000
4305		-11.718750
4306		-3.906250
4307		-15.625000
4308		-7.812500
4309		-19.531250
4310		-11.718750
4311		-23.437500
4312		-15.625000
4313		-27.343750
4314		-19.531250
4315		-33.203125
4316		-25.390625
4317		-35.156250
4318		-29.296875
4319		-39.062500
4320		-33.203125
4321		-44.921875
4322		-37.109375
4323		-50.781250
4324		-41.015625
4325		-52.734375
4326		-44.921875
4327		-58.593750
4328		-48.828125
4329		-62.500000
4330		-52.734375
4331		-64.453125
4332		-56.640625
4333		-68.359375
4334		-60.546875
4335		-72.265625
4336		-66.406250
4337		-76.171875
4338		-70.312500
4339		-82.031250
4340		-74.218750
4341		-83.984375
4342		-76.171875
4343		-89.843750
4344		-80.078125
4345		-93.750000
4346		-83.984375
4347		-95.703125
4348		-87.890625
4349		-99.609375
4350		-91.796875
4351		-101.562500
4352		-95.703125
4353		-105.468750
4354		-99.609375
4355		-109.375000
4356		-101.562500
4357		-111.328125
4358		-103.515625
4359		-117.187500
4360		-107.421875
4361		-121.093750
4362		-111.328125
4363		-123.046875
4364		-113.281250
4365		-125.000000
4366		-117.187500
4367		-126.953125
4368		-121.093750
4369		-128.906250
4370		-123.046875
4371		-132.812500
4372		-126.953125
4373		-136.718750
4374		-128.906250
4375		-138.671875
4376		-130.859375
4377		-138.671875
4378		-132.812500
4379		-142.578125
4380		-134.765625
4381		-144.531250
4382		-136.718750
4383		-148.437500
4384		-138.671875
4385		-146.484375
4386		-142.578125
4387		-148.437500
4388		-144.531250
4389		-152.343750
4390		-146.484375
4391		-154.296875
4392		-146.484375
4393		-154.296875
4394		-148.437500
4395		-156.250000
4396		-150.390625
4397		-158.203125
4398		-150.390625
4399		-158.203125
4400		-152.343750
4401		-160.156250
4402		-152.343750
4403		-158.203125
4404		-156.250000
4405		-162.109375
4406		-154.296875
4407		-162.109375
4408		-154.296875
4409		-162.109375
4410		-156.250000
4411		-162.109375
4412		-156.250000
4413		-162.109375
4414		-154.296875
4415		-162.109375
4416		-156.250000
4417		-162.109375
4418		-156.250000
4419		-160.156250
4420		-158.203125
4421		-160.156250
4422		-156.250000
4423		-162.109375
4424		-154.296875
4425		-162.109375
4426		-154.296875
4427		-162.109375
4428		-152.343750
4429		-160.156250
4430		-152.343750
4431		-158.203125
4432		-152.343750
4433		-158.203125
4434		-150.390625
4435		-154.296875
4436		-150.390625
4437		-152.343750
4438		-150.390625
4439		-152.343750
4440		-146.484375
4441		-152.343750
4442		-144.531250
4443		-150.390625
4444		-144.531250
4445		-148.437500
4446		-142.578125
4447		-146.484375
4448		-138.671875
4449		-144.531250
4450		-136.718750
4451		-142.578125
4452		-134.765625
4453		-138.671875
4454		-132.812500
4455		-136.718750
4456		-130.859375
4457		-134.765625
4458		-126.953125
4459		-132.812500
4460		-123.046875
4461		-130.859375
4462		-123.046875
4463		-126.953125
4464		-119.140625
4465		-125.000000
4466		-115.234375
4467		-121.093750
4468		-113.281250
4469		-117.187500
4470		-111.328125
4471		-113.281250
4472		-107.421875
4473		-109.375000
4474		-101.562500
4475		-107.421875
4476		-99.609375
4477		-103.515625
4478		-95.703125
4479		-101.562500
4480		-91.796875
4481		-97.656250
4482		-87.890625
4483		-93.750000
4484		-83.984375
4485		-89.843750
4486		-82.031250
4487		-83.984375
4488		-78.125000
4489		-80.078125
4490		-72.265625
4491		-78.125000
4492		-70.312500
4493		-74.218750
4494		-64.453125
4495		-70.312500
4496		-60.546875
4497		-66.406250
4498		-56.640625
4499		-62.500000
4500		-52.734375
4501		-58.593750
4502		-48.828125
4503		-50.781250
4504		-44.921875
4505		-46.875000
4506		-41.015625
4507		-44.921875
4508		-35.156250
4509		-41.015625
4510		-31.250000
4511		-35.156250
4512		-25.390625
4513		-31.250000
4514		-23.437500
4515		-27.343750
4516		-19.531250
4517		-23.437500
4518		-13.671875
4519		-17.578125
4520		-11.718750
4521		-13.671875
4522		-5.859375
4523		-9.765625
4524		-1.953125
4525		-7.812500
4526		1.953125
4527		-1.953125
4528		5.859375
4529		1.953125
4530		9.765625
4531		5.859375
4532		15.625000
4533		11.718750
4534		19.531250
4535		13.671875
4536		21.484375
4537		19.531250
4538		27.343750
4539		23.437500
4540		31.250000
4541		25.390625
4542		37.109375
4543		31.250000
4544		39.062500
4545		35.156250
4546		42.968750
4547		39.062500
4548		48.828125
4549		42.968750
4550		50.781250
4551		46.875000
4552		54.687500
4553		50.781250
4554		56.640625
4555		54.687500
4556		60.546875
4557		58.593750
4558		66.406250
4559		60.546875
4560		68.359375
4561		64.453125
4562		72.265625
4563		68.359375
4564		76.171875
4565		72.265625
4566		80.078125
4567		74.218750
4568		83.984375
4569		78.125000
4570		85.937500
4571		82.031250
4572		87.890625
4573		85.937500
4574		91.796875
4575		87.890625
4576		95.703125
4577		89.843750
4578		97.656250
4579		93.750000
4580		101.562500
4581		95.703125
4582		105.468750
4583		97.656250
4584		107.421875
4585		101.562500
4586		109.375000
4587		105.468750
4588		111.328125
4589		107.421875
4590		113.281250
4591		109.375000
4592		117.187500
4593		111.328125
4594		119.140625
4595		115.234375
4596		121.093750
4597		117.187500
4598		125.000000
4599		117.187500
4600		126.953125
4601		119.140625
4602		128.906250
4603		123.046875
4604		128.906250
4605		126.953125
4606		130.859375
4607		128.906250
4608		132.812500
4609		128.906250
4610		136.718750
4611		130.859375
4612		136.718750
4613		132.812500
4614		138.671875
4615		132.812500
4616		140.625000
4617		134.765625
4618		142.578125
4619		136.718750
4620		144.531250
4621		138.671875
4622		142.578125
4623		140.625000
4624		144.531250
4625		138.671875
4626		146.484375
4627		140.625000
4628		146.484375
4629		142.578125
4630		148.437500
4631		142.578125
4632		150.390625
4633		142.578125
4634		150.390625
4635		142.578125
4636		150.390625
4637		146.484375
4638		150.390625
4639		146.484375
4640		150.390625
4641		146.484375
4642		152.343750
4643		146.484375
4644		152.343750
4645		146.484375
4646		152.343750
4647		146.484375
4648		154.296875
4649		146.484375
4650		152.343750
4651		146.484375
4652		154.296875
4653		146.484375
4654		152.343750
4655		148.437500
4656		152.343750
4657		146.484375
4658		152.343750
4659		144.531250
4660		154.296875
4661		144.531250
4662		152.343750
4663		144.531250
4664		152.343750
4665		144.531250
4666		152.343750
4667		142.578125
4668		152.343750
4669		142.578125
4670		150.390625
4671		144.531250
4672		148.437500
4673		142.578125
4674		146.484375
4675		140.625000
4676		146.484375
4677		138.671875
4678		146.484375
4679		138.671875
4680		146.484375
4681		138.671875
4682		144.531250
4683		134.765625
4684		142.578125
4685		134.765625
4686		140.625000
4687		134.765625
4688		138.671875
4689		132.812500
4690		136.718750
4691		128.906250
4692		134.765625
4693		126.953125
4694		134.765625
4695		126.953125
4696		132.812500
4697		125.000000
4698		132.812500
4699		121.093750
4700		128.906250
4701		119.140625
4702		126.953125
4703		119.140625
4704		126.953125
4705		117.187500
4706		121.093750
4707		113.281250
4708		119.140625
4709		111.328125
4710		119.140625
4711		107.421875
4712		117.187500
4713		105.468750
4714		115.234375
4715		101.562500
4716		111.328125
4717		99.609375
4718		107.421875
4719		95.703125
4720		105.468750
4721		95.703125
4722		101.562500
4723		93.750000
4724		97.656250
4725		87.890625
4726		95.703125
4727		83.984375
4728		93.750000
4729		82.031250
4730		91.796875
4731		78.125000
4732		85.937500
4733		74.218750
4734		82.031250
4735		72.265625
4736		80.078125
4737		70.312500
4738		76.171875
4739		66.406250
4740		72.265625
4741		62.500000
4742		68.359375
4743		58.593750
4744		64.453125
4745		52.734375
4746		62.500000
4747		48.828125
4748		58.593750
4749		44.921875
4750		54.687500
4751		41.015625
4752		50.781250
4753		39.062500
4754		44.921875
4755		35.156250
4756		41.015625
4757		31.250000
4758		37.109375
4759		27.343750
4760		33.203125
4761		21.484375
4762		29.296875
4763		17.578125
4764		25.390625
4765		13.671875
4766		21.484375
4767		7.812500
4768		19.531250
4769		5.859375
4770		13.671875
4771		1.953125
4772		9.765625
4773		-1.953125
4774		3.906250
4775		-7.812500
4776		0.000000
4777		-11.718750
4778		-3.906250
4779		-15.625000
4780		-5.859375
4781		-19.531250
4782		-11.718750
4783		-25.390625
4784		-15.625000
4785		-29.296875
4786		-19.531250
4787		-31.250000
4788		-23.437500
4789		-35.156250
4790		-29.296875
4791		-41.015625
4792		-33.203125
4793		-44.921875
4794		-37.109375
4795		-48.828125
4796		-39.062500
4797		-52.734375
4798		-44.921875
4799		-58.593750
4800		-48.828125
4801		-60.546875
4802		-52.734375
4803		-66.406250
4804		-56.640625
4805		-68.359375
4806		-62.500000
4807		-72.265625
4808		-66.406250
4809		-78.125000
4810		-70.312500
4811		-82.031250
4812		-72.265625
4813		-85.937500
4814		-76.171875
4815		-87.890625
4816		-80.078125
4817		-91.796875
4818		-83.984375
4819		-95.703125
4820		-85.937500
4821		-97.656250
4822		-89.843750
4823		-101.562500
4824		-95.703125
4825		-105.468750
4826		-99.609375
4827		-109.375000
4828		-99.609375
4829		-113.281250
4830		-103.515625
4831		-115.234375
4832		-107.421875
4833		-119.140625
4834		-111.328125
4835		-121.093750
4836		-113.281250
4837		-125.000000
4838		-117.187500
4839		-126.953125
4840		-121.093750
4841		-128.906250
4842		-123.046875
4843		-132.812500
4844		-125.000000
4845		-134.765625
4846		-126.953125
4847		-138.671875
4848		-130.859375
4849		-140.625000
4850		-130.859375
4851		-142.578125
4852		-134.765625
4853		-144.531250
4854		-136.718750
4855		-144.531250
4856		-138.671875
4857		-146.484375
4858		-142.578125
4859		-150.390625
4860		-144.531250
4861		-152.343750
4862		-144.531250
4863		-154.296875
4864		-146.484375
4865		-154.296875
4866		-148.437500
4867		-156.250000
4868		-148.437500
4869		-158.203125
4870		-150.390625
4871		-158.203125
4872		-150.390625
4873		-158.203125
4874		-154.296875
4875		-158.203125
4876		-154.296875
4877		-160.156250
4878		-154.296875
4879		-160.156250
4880		-154.296875
4881		-162.109375
4882		-154.296875
4883		-162.109375
4884		-154.296875
4885		-162.109375
4886		-154.296875
4887		-162.109375
4888		-154.296875
4889		-160.156250
4890		-156.250000
4891		-160.156250
4892		-156.250000
4893		-160.156250
4894		-154.296875
4895		-162.109375
4896		-154.296875
4897		-160.156250
4898		-152.343750
4899		-160.156250
4900		-152.343750
4901		-158.203125
4902		-152.343750
4903		-158.203125
4904		-150.390625
4905		-156.250000
4906		-150.390625
4907		-154.296875
4908		-150.390625
4909		-152.343750
4910		-148.437500
4911		-152.343750
4912		-146.484375
4913		-150.390625
4914		-142.578125
4915		-148.437500
4916		-142.578125
4917		-148.437500
4918		-140.625000
4919		-146.484375
4920		-138.671875
4921		-144.531250
4922		-136.718750
4923		-140.625000
4924		-134.765625
4925		-138.671875
4926		-132.812500
4927		-136.718750
4928		-128.906250
4929		-134.765625
4930		-125.000000
4931		-130.859375
4932		-123.046875
4933		-128.906250
4934		-121.093750
4935		-126.953125
4936		-117.187500
4937		-123.046875
4938		-113.281250
4939		-119.140625
4940		-113.281250
4941		-115.234375
4942		-109.375000
4943		-111.328125
4944		-105.468750
4945		-109.375000
4946		-99.609375
4947		-107.421875
4948		-99.609375
4949		-103.515625
4950		-93.750000
4951		-99.609375
4952		-91.796875
4953		-97.656250
4954		-87.890625
4955		-91.796875
4956		-83.984375
4957		-87.890625
4958		-80.078125
4959		-82.031250
4960		-76.171875
4961		-80.078125
4962		-72.265625
4963		-78.125000
4964		-68.359375
4965		-74.218750
4966		-62.500000
4967		-68.359375
4968		-58.593750
4969		-64.453125
4970		-56.640625
4971		-60.546875
4972		-50.781250
4973		-54.687500
4974		-48.828125
4975		-50.781250
4976		-44.921875
4977		-46.875000
4978		-39.062500
4979		-42.968750
4980		-35.156250
4981		-39.062500
4982		-31.250000
4983		-35.156250
4984		-25.390625
4985		-31.250000
4986		-21.484375
4987		-27.343750
4988		-17.578125
4989		-21.484375
4990		-13.671875
4991		-17.578125
4992		-9.765625
4993		-11.718750
4994		-5.859375
4995		-9.765625
4996		0.000000
4997		-5.859375
4998		5.859375
4999		0.000000
5000		7.812500
5001		1.953125
5002		11.718750
5003		7.812500
5004		17.578125
5005		11.718750
5006		19.531250
5007		17.578125
5008		23.437500
5009		21.484375
5010		27.343750
5011		25.390625
5012		33.203125
5013		27.343750
5014		37.109375
5015		31.250000
5016		41.015625
5017		37.109375
5018		44.921875
5019		39.062500
5020		48.828125
5021		42.968750
5022		52.734375
5023		46.875000
5024		54.687500
5025		52.734375
5026		58.593750
5027		54.687500
5028		62.500000
5029		58.593750
5030		66.406250
5031		62.500000
5032		70.312500
5033		64.453125
5034		74.218750
5035		68.359375
5036		78.125000
5037		72.265625
5038		80.078125
5039		76.171875
5040		82.031250
5041		80.078125
5042		85.937500
5043		83.984375
5044		89.843750
5045		85.937500
5046		91.796875
5047		87.890625
5048		95.703125
5049		91.796875
5050		99.609375
5051		95.703125
5052		103.515625
5053		97.656250
5054		105.468750
5055		99.609375
5056		107.421875
5057		103.515625
5058		109.375000
5059		107.421875
5060		111.328125
5061		109.375000
5062		115.234375
5063		109.375000
5064		117.187500
5065		111.328125
5066		121.093750
5067		115.234375
5068		121.093750
5069		115.234375
5070		123.046875
5071		119.140625
5072		126.953125
5073		121.093750
5074		126.953125
5075		125.000000
5076		128.906250
5077		126.953125
5078		132.812500
5079		126.953125
5080		134.765625
5081		128.906250
5082		136.718750
5083		130.859375
5084		138.671875
5085		130.859375
5086		138.671875
5087		134.765625
5088		140.625000
5089		134.765625
5090		142.578125
5091		138.671875
5092		142.578125
5093		138.671875
5094		142.578125
5095		138.671875
5096		146.484375
5097		140.625000
5098		146.484375
5099		140.625000
5100		148.437500
5101		140.625000
5102		150.390625
5103		142.578125
5104		150.390625
5105		142.578125
5106		150.390625
5107		144.531250
5108		150.390625
5109		146.484375
5110		150.390625
5111		144.531250
5112		152.343750
5113		146.484375
5114		152.343750
5115		146.484375
5116		152.343750
5117		146.484375
5118		154.296875
5119		146.484375
5120		152.343750
5121		146.484375
5122		154.296875
5123		146.484375
5124		154.296875
5125		148.437500
5126		152.343750
5127		148.437500
5128		152.343750
5129		146.484375
5130		152.343750
5131		146.484375
5132		152.343750
5133		144.531250
5134		152.343750
5135		144.531250
5136		152.343750
5137		144.531250
5138		152.343750
5139		144.531250
5140		150.390625
5141		144.531250
5142		148.437500
5143		144.531250
5144		146.484375
5145		142.578125
5146		146.484375
5147		140.625000
5148		146.484375
5149		140.625000
5150		144.531250
5151		136.718750
5152		144.531250
5153		136.718750
5154		142.578125
5155		136.718750
5156		142.578125
5157		134.765625
5158		140.625000
5159		132.812500
5160		138.671875
5161		132.812500
5162		136.718750
5163		128.906250
5164		136.718750
5165		126.953125
5166		134.765625
5167		125.000000
5168		132.812500
5169		123.046875
5170		130.859375
5171		121.093750
5172		128.906250
5173		119.140625
5174		126.953125
5175		119.140625
5176		123.046875
5177		115.234375
5178		121.093750
5179		111.328125
5180		119.140625
5181		109.375000
5182		117.187500
5183		107.421875
5184		115.234375
5185		103.515625
5186		113.281250
5187		101.562500
5188		109.375000
5189		97.656250
5190		105.468750
5191		97.656250
5192		103.515625
5193		93.750000
5194		99.609375
5195		89.843750
5196		95.703125
5197		85.937500
5198		95.703125
5199		83.984375
5200		91.796875
5201		80.078125
5202		87.890625
5203		76.171875
5204		85.937500
5205		74.218750
5206		82.031250
5207		70.312500
5208		78.125000
5209		68.359375
5210		74.218750
5211		64.453125
5212		70.312500
5213		58.593750
5214		66.406250
5215		54.687500
5216		64.453125
5217		50.781250
5218		60.546875
5219		46.875000
5220		56.640625
5221		44.921875
5222		52.734375
5223		39.062500
5224		48.828125
5225		37.109375
5226		44.921875
5227		33.203125
5228		39.062500
5229		27.343750
5230		35.156250
5231		23.437500
5232		33.203125
5233		19.531250
5234		27.343750
5235		15.625000
5236		25.390625
5237		11.718750
5238		21.484375
5239		5.859375
5240		15.625000
5241		3.906250
5242		11.718750
5243		0.000000
5244		5.859375
5245		-3.906250
5246		1.953125
5247		-9.765625
5248		0.000000
5249		-13.671875
5250		-3.906250
5251		-17.578125
5252		-7.812500
5253		-21.484375
5254		-13.671875
5255		-25.390625
5256		-17.578125
5257		-29.296875
5258		-19.531250
5259		-33.203125
5260		-27.343750
5261		-37.109375
5262		-31.250000
5263		-42.968750
5264		-35.156250
5265		-46.875000
5266		-39.062500
5267		-50.781250
5268		-41.015625
5269		-56.640625
5270		-44.921875
5271		-58.593750
5272		-50.781250
5273		-64.453125
5274		-54.687500
5275		-66.406250
5276		-58.593750
5277		-70.312500
5278		-64.453125
5279		-74.218750
5280		-68.359375
5281		-78.125000
5282		-70.312500
5283		-83.984375
5284		-74.218750
5285		-85.937500
5286		-78.125000
5287		-89.843750
5288		-82.031250
5289		-93.750000
5290		-85.937500
5291		-97.656250
5292		-89.843750
5293		-99.609375
5294		-93.750000
5295		-103.515625
5296		-97.656250
5297		-107.421875
5298		-99.609375
5299		-111.328125
5300		-103.515625
5301		-115.234375
5302		-107.421875
5303		-117.187500
5304		-109.375000
5305		-121.093750
5306		-111.328125
5307		-123.046875
5308		-115.234375
5309		-125.000000
5310		-117.187500
5311		-126.953125
5312		-123.046875
5313		-130.859375
5314		-125.000000
5315		-134.765625
5316		-125.000000
5317		-136.718750
5318		-128.906250
5319		-138.671875
5320		-130.859375
5321		-142.578125
5322		-132.812500
5323		-144.531250
5324		-134.765625
5325		-144.531250
5326		-136.718750
5327		-146.484375
5328		-140.625000
5329		-148.437500
5330		-142.578125
5331		-152.343750
5332		-144.531250
5333		-152.343750
5334		-146.484375
5335		-154.296875
5336		-146.484375
5337		-156.250000
5338		-148.437500
5339		-156.250000
5340		-150.390625
5341		-158.203125
5342		-150.390625
5343		-156.250000
5344		-154.296875
5345		-158.203125
5346		-154.296875
5347		-160.156250
5348		-154.296875
5349		-162.109375
5350		-154.296875
5351		-162.109375
5352		-154.296875
5353		-162.109375
5354		-156.250000
5355		-162.109375
5356		-156.250000
5357		-162.109375
5358		-156.250000
5359		-162.109375
5360		-156.250000
5361		-160.156250
5362		-158.203125
5363		-160.156250
5364		-156.250000
5365		-162.109375
5366		-154.296875
5367		-162.109375
5368		-154.296875
5369		-160.156250
5370		-154.296875
5371		-160.156250
5372		-152.343750
5373		-158.203125
5374		-152.343750
5375		-158.203125
5376		-150.390625
5377		-154.296875
5378		-152.343750
5379		-154.296875
5380		-150.390625
5381		-154.296875
5382		-146.484375
5383		-152.343750
5384		-144.531250
5385		-150.390625
5386		-142.578125
5387		-148.437500
5388		-142.578125
5389		-146.484375
5390		-140.625000
5391		-144.531250
5392		-136.718750
5393		-142.578125
5394		-136.718750
5395		-138.671875
5396		-134.765625
5397		-136.718750
5398		-130.859375
5399		-134.765625
5400		-128.906250
5401		-132.812500
5402		-126.953125
5403		-128.906250
5404		-123.046875
5405		-128.906250
5406		-121.093750
5407		-125.000000
5408		-117.187500
5409		-123.046875
5410		-115.234375
5411		-117.187500
5412		-111.328125
5413		-115.234375
5414		-107.421875
5415		-111.328125
5416		-105.468750
5417		-107.421875
5418		-101.562500
5419		-105.468750
5420		-97.656250
5421		-101.562500
5422		-93.750000
5423		-97.656250
5424		-91.796875
5425		-93.750000
5426		-85.937500
5427		-89.843750
5428		-83.984375
5429		-85.937500
5430		-80.078125
5431		-82.031250
5432		-76.171875
5433		-78.125000
5434		-72.265625
5435		-74.218750
5436		-68.359375
5437		-70.312500
5438		-62.500000
5439		-66.406250
5440		-58.593750
5441		-64.453125
5442		-54.687500
5443		-58.593750
5444		-52.734375
5445		-54.687500
5446		-46.875000
5447		-48.828125
5448		-42.968750
5449		-44.921875
5450		-39.062500
5451		-41.015625
5452		-33.203125
5453		-37.109375
5454		-31.250000
5455		-33.203125
5456		-25.390625
5457		-27.343750
5458		-21.484375
5459		-23.437500
5460		-17.578125
5461		-19.531250
5462		-13.671875
5463		-15.625000
5464		-9.765625
5465		-11.718750
5466		-3.906250
5467		-7.812500
5468		0.000000
5469		-1.953125
5470		3.906250
5471		1.953125
5472		7.812500
5473		5.859375
5474		11.718750
5475		9.765625
5476		15.625000
5477		13.671875
5478		19.531250
5479		17.578125
5480		23.437500
5481		21.484375
5482		27.343750
5483		25.390625
5484		33.203125
5485		29.296875
5486		37.109375
5487		35.156250
5488		41.015625
5489		39.062500
5490		44.921875
5491		41.015625
5492		48.828125
5493		44.921875
5494		52.734375
5495		48.828125
5496		54.687500
5497		52.734375
5498		60.546875
5499		56.640625
5500		62.500000
5501		60.546875
5502		66.406250
5503		64.453125
5504		70.312500
5505		66.406250
5506		74.218750
5507		70.312500
5508		76.171875
5509		74.218750
5510		80.078125
5511		78.125000
5512		83.984375
5513		80.078125
5514		85.937500
5515		83.984375
5516		89.843750
5517		87.890625
5518		91.796875
5519		89.843750
5520		95.703125
5521		93.750000
5522		99.609375
5523		95.703125
5524		101.562500
5525		99.609375
5526		103.515625
5527		101.562500
5528		107.421875
5529		103.515625
5530		109.375000
5531		107.421875
5532		113.281250
5533		109.375000
5534		115.234375
5535		111.328125
5536		117.187500
5537		115.234375
5538		119.140625
5539		117.187500
5540		121.093750
5541		119.140625
5542		123.046875
5543		121.093750
5544		125.000000
5545		123.046875
5546		128.906250
5547		125.000000
5548		128.906250
5549		126.953125
5550		130.859375
5551		128.906250
5552		132.812500
5553		130.859375
5554		134.765625
5555		132.812500
5556		136.718750
5557		132.812500
5558		138.671875
5559		134.765625
5560		138.671875
5561		136.718750
5562		140.625000
5563		138.671875
5564		142.578125
5565		138.671875
5566		142.578125
5567		140.625000
5568		144.531250
5569		142.578125
5570		144.531250
5571		142.578125
5572		146.484375
5573		142.578125
5574		148.437500
5575		144.531250
5576		148.437500
5577		144.531250
5578		148.437500
5579		146.484375
5580		150.390625
5581		146.484375
5582		150.390625
5583		146.484375
5584		150.390625
5585		146.484375
5586		150.390625
5587		148.437500
5588		150.390625
5589		148.437500
5590		152.343750
5591		148.437500
5592		152.343750
5593		146.484375
5594		152.343750
5595		148.437500
5596		150.390625
5597		148.437500
5598		152.343750
5599		146.484375
5600		152.343750
5601		146.484375
5602		150.390625
5603		146.484375
5604		150.390625
5605		146.484375
5606		150.390625
5607		146.484375
5608		150.390625
5609		146.484375
5610		150.390625
5611		144.531250
5612		148.437500
5613		144.531250
5614		148.437500
5615		142.578125
5616		146.484375
5617		142.578125
5618		146.484375
5619		140.625000
5620		146.484375
5621		140.625000
5622		144.531250
5623		138.671875
5624		142.578125
5625		138.671875
5626		142.578125
5627		136.718750
5628		140.625000
5629		134.765625
5630		138.671875
5631		132.812500
5632		138.671875
5633		130.859375
5634		136.718750
5635		130.859375
5636		134.765625
5637		128.906250
5638		132.812500
5639		125.000000
5640		130.859375
5641		125.000000
5642		128.906250
5643		121.093750
5644		126.953125
5645		119.140625
5646		125.000000
5647		117.187500
5648		123.046875
5649		115.234375
5650		119.140625
5651		113.281250
5652		117.187500
5653		109.375000
5654		115.234375
5655		107.421875
5656		113.281250
5657		105.468750
5658		111.328125
5659		101.562500
5660		107.421875
5661		99.609375
5662		105.468750
5663		95.703125
5664		101.562500
5665		93.750000
5666		99.609375
5667		89.843750
5668		95.703125
5669		87.890625
5670		93.750000
5671		83.984375
5672		89.843750
5673		80.078125
5674		85.937500
5675		76.171875
5676		83.984375
5677		74.218750
5678		80.078125
5679		70.312500
5680		76.171875
5681		66.406250
5682		72.265625
5683		62.500000
5684		68.359375
5685		58.593750
5686		66.406250
5687		56.640625
5688		62.500000
5689		52.734375
5690		58.593750
5691		48.828125
5692		54.687500
5693		44.921875
5694		50.781250
5695		41.015625
5696		46.875000
5697		37.109375
5698		42.968750
5699		31.250000
5700		39.062500
5701		29.296875
5702		35.156250
5703		25.390625
5704		31.250000
5705		19.531250
5706		27.343750
5707		15.625000
5708		23.437500
5709		11.718750
5710		17.578125
5711		7.812500
5712		13.671875
5713		3.906250
5714		9.765625
5715		0.000000
5716		5.859375
5717		-3.906250
5718		1.953125
5719		-9.765625
5720		-1.953125
5721		-13.671875
5722		-5.859375
5723		-17.578125
5724		-11.718750
5725		-21.484375
5726		-15.625000
5727		-25.390625
5728		-19.531250
5729		-31.250000
5730		-23.437500
5731		-33.203125
5732		-27.343750
5733		-39.062500
5734		-33.203125
5735		-42.968750
5736		-35.156250
5737		-46.875000
5738		-39.062500
5739		-50.781250
5740		-44.921875
5741		-54.687500
5742		-48.828125
5743		-58.593750
5744		-52.734375
5745		-62.500000
5746		-56.640625
5747		-66.406250
5748		-60.546875
5749		-70.312500
5750		-64.453125
5751		-74.218750
5752		-68.359375
5753		-78.125000
5754		-72.265625
5755		-82.031250
5756		-76.171875
5757		-85.937500
5758		-80.078125
5759		-89.843750
5760		-83.984375
5761		-93.750000
5762		-87.890625
5763		-97.656250
5764		-91.796875
5765		-99.609375
5766		-93.750000
5767		-103.515625
5768		-97.656250
5769		-107.421875
5770		-101.562500
5771		-111.328125
5772		-105.468750
5773		-113.281250
5774		-107.421875
5775		-117.187500
5776		-111.328125
5777		-119.140625
5778		-113.281250
5779		-123.046875
5780		-117.187500
5781		-125.000000
5782		-119.140625
5783		-128.906250
5784		-123.046875
5785		-130.859375
5786		-125.000000
5787		-132.812500
5788		-128.906250
5789		-136.718750
5790		-130.859375
5791		-138.671875
5792		-132.812500
5793		-140.625000
5794		-136.718750
5795		-142.578125
5796		-138.671875
5797		-144.531250
5798		-140.625000
5799		-146.484375
5800		-142.578125
5801		-148.437500
5802		-144.531250
5803		-150.390625
5804		-146.484375
5805		-152.343750
5806		-146.484375
5807		-154.296875
5808		-148.437500
5809		-154.296875
5810		-150.390625
5811		-156.250000
5812		-152.343750
5813		-156.250000
5814		-152.343750
5815		-158.203125
5816		-154.296875
5817		-158.203125
5818		-154.296875
5819		-160.156250
5820		-156.250000
5821		-160.156250
5822		-156.250000
5823		-160.156250
5824		-156.250000
5825		-160.156250
5826		-156.250000
5827		-160.156250
5828		-158.203125
5829		-162.109375
5830		-158.203125
5831		-162.109375
5832		-158.203125
5833		-162.109375
5834		-158.203125
5835		-162.109375
5836		-156.250000
5837		-160.156250
5838		-156.250000
5839		-160.156250
5840		-156.250000
5841		-160.156250
5842		-156.250000
5843		-158.203125
5844		-154.296875
5845		-158.203125
5846		-154.296875
5847		-156.250000
5848		-152.343750
5849		-156.250000
5850		-150.390625
5851		-154.296875
5852		-150.390625
5853		-152.343750
5854		-148.437500
5855		-152.343750
5856		-146.484375
5857		-150.390625
5858		-144.531250
5859		-148.437500
5860		-144.531250
5861		-146.484375
5862		-140.625000
5863		-144.531250
5864		-138.671875
5865		-140.625000
5866		-136.718750
5867		-138.671875
5868		-134.765625
5869		-136.718750
5870		-130.859375
5871		-134.765625
5872		-128.906250
5873		-132.812500
5874		-126.953125
5875		-130.859375
5876		-125.000000
5877		-126.953125
5878		-121.093750
5879		-125.000000
5880		-117.187500
5881		-121.093750
5882		-115.234375
5883		-117.187500
5884		-113.281250
5885		-115.234375
5886		-109.375000
5887		-111.328125
5888		-105.468750
5889		-107.421875
5890		-101.562500
5891		-103.515625
5892		-97.656250
5893		-101.562500
5894		-95.703125
5895		-97.656250
5896		-91.796875
5897		-93.750000
5898		-87.890625
5899		-89.843750
5900		-83.984375
5901		-85.937500
5902		-80.078125
5903		-82.031250
5904		-76.171875
5905		-78.125000
5906		-72.265625
5907		-74.218750
5908		-68.359375
5909		-70.312500
5910		-64.453125
5911		-66.406250
5912		-60.546875
5913		-62.500000
5914		-54.687500
5915		-58.593750
5916		-50.781250
5917		-52.734375
5918		-46.875000
5919		-48.828125
5920		-41.015625
5921		-44.921875
5922		-39.062500
5923		-41.015625
5924		-33.203125
5925		-37.109375
5926		-29.296875
5927		-33.203125
5928		-25.390625
5929		-29.296875
5930		-19.531250
5931		-23.437500
5932		-17.578125
5933		-19.531250
5934		-13.671875
5935		-15.625000
5936		-7.812500
5937		-11.718750
5938		-3.906250
5939		-7.812500
5940		0.000000
5941		-3.906250
5942		3.906250
5943		0.000000
5944		9.765625
5945		5.859375
5946		13.671875
5947		9.765625
5948		15.625000
5949		13.671875
5950		21.484375
5951		19.531250
5952		25.390625
5953		21.484375
5954		29.296875
5955		25.390625
5956		33.203125
5957		31.250000
5958		37.109375
5959		33.203125
5960		41.015625
5961		37.109375
5962		44.921875
5963		41.015625
5964		48.828125
5965		46.875000
5966		52.734375
5967		50.781250
5968		56.640625
5969		52.734375
5970		60.546875
5971		56.640625
5972		64.453125
5973		60.546875
5974		68.359375
5975		64.453125
5976		70.312500
5977		68.359375
5978		74.218750
5979		70.312500
5980		78.125000
5981		74.218750
5982		80.078125
5983		78.125000
5984		83.984375
5985		82.031250
5986		87.890625
5987		83.984375
5988		89.843750
5989		87.890625
5990		93.750000
5991		91.796875
5992		95.703125
5993		93.750000
5994		99.609375
5995		97.656250
5996		101.562500
5997		99.609375
5998		103.515625
5999		101.562500
6000		107.421875
6001		105.468750
6002		109.375000
6003		107.421875
6004		113.281250
6005		109.375000
6006		115.234375
6007		113.281250
6008		117.187500
6009		115.234375
6010		121.093750
6011		117.187500
6012		121.093750
6013		119.140625
6014		123.046875
6015		121.093750
6016		126.953125
6017		123.046875
6018		128.906250
6019		125.000000
6020		130.859375
6021		126.953125
6022		132.812500
6023		128.906250
6024		134.765625
6025		130.859375
6026		134.765625
6027		132.812500
6028		136.718750
6029		134.765625
6030		138.671875
6031		134.765625
6032		140.625000
6033		136.718750
6034		140.625000
6035		138.671875
6036		142.578125
6037		140.625000
6038		144.531250
6039		140.625000
6040		144.531250
6041		142.578125
6042		146.484375
6043		142.578125
6044		146.484375
6045		144.531250
6046		146.484375
6047		144.531250
6048		148.437500
6049		144.531250
6050		148.437500
6051		146.484375
6052		150.390625
6053		146.484375
6054		150.390625
6055		146.484375
6056		150.390625
6057		146.484375
6058		150.390625
6059		146.484375
6060		150.390625
6061		148.437500
6062		150.390625
6063		148.437500
6064		150.390625
6065		148.437500
6066		150.390625
6067		148.437500
6068		150.390625
6069		148.437500
6070		150.390625
6071		146.484375
6072		150.390625
6073		146.484375
6074		150.390625
6075		146.484375
6076		150.390625
6077		146.484375
6078		150.390625
6079		146.484375
6080		148.437500
6081		144.531250
6082		148.437500
6083		144.531250
6084		148.437500
6085		144.531250
6086		146.484375
6087		140.625000
6088		150.390625
6089		138.671875
6090		148.437500
6091		138.671875
6092		146.484375
6093		138.671875
6094		142.578125
6095		138.671875
6096		142.578125
6097		136.718750
6098		140.625000
6099		134.765625
6100		138.671875
6101		134.765625
6102		138.671875
6103		130.859375
6104		138.671875
6105		126.953125
6106		136.718750
6107		126.953125
6108		134.765625
6109		126.953125
6110		130.859375
6111		125.000000
6112		128.906250
6113		123.046875
6114		126.953125
6115		121.093750
6116		125.000000
6117		119.140625
6118		123.046875
6119		115.234375
6120		121.093750
6121		111.328125
6122		121.093750
6123		109.375000
6124		119.140625
6125		107.421875
6126		117.187500
6127		105.468750
6128		111.328125
6129		103.515625
6130		109.375000
6131		101.562500
6132		105.468750
6133		97.656250
6134		103.515625
6135		95.703125
6136		99.609375
6137		89.843750
6138		99.609375
6139		85.937500
6140		95.703125
6141		83.984375
6142		93.750000
6143		82.031250
6144		87.890625
6145		80.078125
6146		83.984375
6147		76.171875
6148		80.078125
6149		72.265625
6150		78.125000
6151		68.359375
6152		74.218750
6153		62.500000
6154		72.265625
6155		58.593750
6156		70.312500
6157		54.687500
6158		66.406250
6159		52.734375
6160		62.500000
6161		50.781250
6162		56.640625
6163		46.875000
6164		52.734375
6165		42.968750
6166		48.828125
6167		39.062500
6168		44.921875
6169		35.156250
6170		41.015625
6171		29.296875
6172		39.062500
6173		25.390625
6174		35.156250
6175		21.484375
6176		31.250000
6177		17.578125
6178		25.390625
6179		13.671875
6180		19.531250
6181		9.765625
6182		15.625000
6183		5.859375
6184		11.718750
6185		1.953125
6186		7.812500
6187		-5.859375
6188		3.906250
6189		-9.765625
6190		1.953125
6191		-13.671875
6192		-1.953125
6193		-15.625000
6194		-7.812500
6195		-19.531250
6196		-13.671875
6197		-23.437500
6198		-17.578125
6199		-27.343750
6200		-21.484375
6201		-33.203125
6202		-25.390625
6203		-37.109375
6204		-29.296875
6205		-42.968750
6206		-31.250000
6207		-46.875000
6208		-35.156250
6209		-48.828125
6210		-39.062500
6211		-52.734375
6212		-46.875000
6213		-56.640625
6214		-50.781250
6215		-60.546875
6216		-54.687500
6217		-64.453125
6218		-58.593750
6219		-68.359375
6220		-62.500000
6221		-76.171875
6222		-66.406250
6223		-80.078125
6224		-68.359375
6225		-83.984375
6226		-72.265625
6227		-83.984375
6228		-78.125000
6229		-87.890625
6230		-82.031250
6231		-91.796875
6232		-85.937500
6233		-95.703125
6234		-89.843750
6235		-99.609375
6236		-93.750000
6237		-105.468750
6238		-95.703125
6239		-109.375000
6240		-97.656250
6241		-111.328125
6242		-101.562500
6243		-113.281250
6244		-103.515625
6245		-115.234375
6246		-109.375000
6247		-119.140625
6248		-113.281250
6249		-121.093750
6250		-117.187500
6251		-125.000000
6252		-119.140625
6253		-126.953125
6254		-121.093750
6255		-132.812500
6256		-123.046875
6257		-134.765625
6258		-125.000000
6259		-136.718750
6260		-126.953125
6261		-136.718750
6262		-132.812500
6263		-140.625000
6264		-134.765625
6265		-142.578125
6266		-136.718750
6267		-144.531250
6268		-140.625000
6269		-146.484375
6270		-140.625000
6271		-148.437500
6272		-144.531250
6273		-152.343750
6274		-144.531250
6275		-152.343750
6276		-144.531250
6277		-152.343750
6278		-148.437500
6279		-154.296875
6280		-150.390625
6281		-156.250000
6282		-152.343750
6283		-156.250000
6284		-154.296875
6285		-158.203125
6286		-154.296875
6287		-158.203125
6288		-156.250000
6289		-162.109375
6290		-154.296875
6291		-162.109375
6292		-156.250000
6293		-162.109375
6294		-154.296875
6295		-162.109375
6296		-158.203125
6297		-162.109375
6298		-158.203125
6299		-162.109375
6300		-158.203125
6301		-162.109375
6302		-158.203125
6303		-162.109375
6304		-158.203125
6305		-164.062500
6306		-158.203125
6307		-162.109375
6308		-156.250000
6309		-162.109375
6310		-156.250000
6311		-160.156250
6312		-156.250000
6313		-160.156250
6314		-156.250000
6315		-158.203125
6316		-154.296875
6317		-158.203125
6318		-154.296875
6319		-156.250000
6320		-154.296875
6321		-156.250000
6322		-152.343750
6323		-154.296875
6324		-150.390625
6325		-152.343750
6326		-148.437500
6327		-150.390625
6328		-148.437500
6329		-150.390625
6330		-144.531250
6331		-148.437500
6332		-142.578125
6333		-146.484375
6334		-140.625000
6335		-144.531250
6336		-138.671875
6337		-142.578125
6338		-136.718750
6339		-140.625000
6340		-134.765625
6341		-136.718750
6342		-132.812500
6343		-134.765625
6344		-128.906250
6345		-132.812500
6346		-126.953125
6347		-128.906250
6348		-125.000000
6349		-126.953125
6350		-121.093750
6351		-123.046875
6352		-119.140625
6353		-121.093750
6354		-115.234375
6355		-117.187500
6356		-111.328125
6357		-113.281250
6358		-109.375000
6359		-111.328125
6360		-105.468750
6361		-107.421875
6362		-101.562500
6363		-103.515625
6364		-97.656250
6365		-101.562500
6366		-93.750000
6367		-97.656250
6368		-91.796875
6369		-93.750000
6370		-87.890625
6371		-89.843750
6372		-83.984375
6373		-85.937500
6374		-80.078125
6375		-82.031250
6376		-76.171875
6377		-78.125000
6378		-70.312500
6379		-74.218750
6380		-66.406250
6381		-70.312500
6382		-62.500000
6383		-66.406250
6384		-58.593750
6385		-60.546875
6386		-54.687500
6387		-56.640625
6388		-50.781250
6389		-52.734375
6390		-46.875000
6391		-48.828125
6392		-42.968750
6393		-44.921875
6394		-39.062500
6395		-41.015625
6396		-33.203125
6397		-37.109375
6398		-29.296875
6399		-31.250000
6400		-25.390625
6401		-27.343750
6402		-21.484375
6403		-23.437500
6404		-15.625000
6405		-19.531250
6406		-11.718750
6407		-15.625000
6408		-7.812500
6409		-9.765625
6410		-3.906250
6411		-5.859375
6412		0.000000
6413		-1.953125
6414		5.859375
6415		1.953125
6416		7.812500
6417		5.859375
6418		13.671875
6419		9.765625
6420		17.578125
6421		13.671875
6422		21.484375
6423		17.578125
6424		25.390625
6425		21.484375
6426		29.296875
6427		27.343750
6428		33.203125
6429		31.250000
6430		37.109375
6431		35.156250
6432		41.015625
6433		39.062500
6434		44.921875
6435		42.968750
6436		48.828125
6437		46.875000
6438		52.734375
6439		50.781250
6440		56.640625
6441		52.734375
6442		60.546875
6443		58.593750
6444		64.453125
6445		62.500000
6446		66.406250
6447		64.453125
6448		70.312500
6449		68.359375
6450		74.218750
6451		72.265625
6452		78.125000
6453		76.171875
6454		82.031250
6455		78.125000
6456		83.984375
6457		80.078125
6458		87.890625
6459		83.984375
6460		89.843750
6461		87.890625
6462		93.750000
6463		91.796875
6464		97.656250
6465		93.750000
6466		99.609375
6467		97.656250
6468		101.562500
6469		99.609375
6470		105.468750
6471		103.515625
6472		107.421875
6473		105.468750
6474		111.328125
6475		107.421875
6476		113.281250
6477		109.375000
6478		115.234375
6479		113.281250
6480		117.187500
6481		115.234375
6482		119.140625
6483		117.187500
6484		121.093750
6485		119.140625
6486		125.000000
6487		121.093750
6488		126.953125
6489		123.046875
6490		128.906250
6491		125.000000
6492		130.859375
6493		126.953125
6494		132.812500
6495		128.906250
6496		132.812500
6497		130.859375
6498		134.765625
6499		130.859375
6500		136.718750
6501		134.765625
6502		138.671875
6503		134.765625
6504		140.625000
6505		136.718750
6506		140.625000
6507		138.671875
6508		142.578125
6509		138.671875
6510		142.578125
6511		140.625000
6512		144.531250
6513		140.625000
6514		146.484375
6515		142.578125
6516		146.484375
6517		142.578125
6518		146.484375
6519		144.531250
6520		148.437500
6521		144.531250
6522		148.437500
6523		144.531250
6524		150.390625
6525		146.484375
6526		150.390625
6527		146.484375
6528		150.390625
6529		146.484375
6530		150.390625
6531		146.484375
6532		152.343750
6533		148.437500
6534		150.390625
6535		146.484375
6536		150.390625
6537		148.437500
6538		150.390625
6539		148.437500
6540		150.390625
6541		146.484375
6542		152.343750
6543		146.484375
6544		152.343750
6545		146.484375
6546		150.390625
6547		146.484375
6548		150.390625
6549		146.484375
6550		150.390625
6551		144.531250
6552		150.390625
6553		144.531250
6554		148.437500
6555		144.531250
6556		148.437500
6557		142.578125
6558		146.484375
6559		142.578125
6560		146.484375
6561		140.625000
6562		146.484375
6563		140.625000
6564		144.531250
6565		138.671875
6566		144.531250
6567		138.671875
6568		142.578125
6569		136.718750
6570		140.625000
6571		134.765625
6572		138.671875
6573		132.812500
6574		138.671875
6575		132.812500
6576		136.718750
6577		130.859375
6578		134.765625
6579		128.906250
6580		132.812500
6581		126.953125
6582		130.859375
6583		125.000000
6584		128.906250
6585		123.046875
6586		126.953125
6587		121.093750
6588		125.000000
6589		117.187500
6590		123.046875
6591		115.234375
6592		121.093750
6593		113.281250
6594		119.140625
6595		111.328125
6596		115.234375
6597		109.375000
6598		113.281250
6599		105.468750
6600		111.328125
6601		103.515625
6602		109.375000
6603		99.609375
6604		105.468750
6605		97.656250
6606		103.515625
6607		93.750000
6608		99.609375
6609		91.796875
6610		97.656250
6611		87.890625
6612		93.750000
6613		83.984375
6614		89.843750
6615		82.031250
6616		87.890625
6617		78.125000
6618		83.984375
6619		74.218750
6620		82.031250
6621		72.265625
6622		78.125000
6623		68.359375
6624		74.218750
6625		64.453125
6626		70.312500
6627		60.546875
6628		66.406250
6629		56.640625
6630		62.500000
6631		52.734375
6632		58.593750
6633		48.828125
6634		54.687500
6635		44.921875
6636		52.734375
6637		41.015625
6638		46.875000
6639		37.109375
6640		42.968750
6641		33.203125
6642		41.015625
6643		29.296875
6644		37.109375
6645		25.390625
6646		33.203125
6647		21.484375
6648		27.343750
6649		17.578125
6650		23.437500
6651		11.718750
6652		19.531250
6653		9.765625
6654		15.625000
6655		3.906250
6656		11.718750
6657		0.000000
6658		5.859375
6659		-3.906250
6660		1.953125
6661		-7.812500
6662		-1.953125
6663		-11.718750
6664		-5.859375
6665		-15.625000
6666		-9.765625
6667		-19.531250
6668		-13.671875
6669		-25.390625
6670		-17.578125
6671		-29.296875
6672		-21.484375
6673		-33.203125
6674		-27.343750
6675		-37.109375
6676		-31.250000
6677		-41.015625
6678		-35.156250
6679		-44.921875
6680		-39.062500
6681		-48.828125
6682		-42.968750
6683		-52.734375
6684		-46.875000
6685		-58.593750
6686		-52.734375
6687		-62.500000
6688		-56.640625
6689		-66.406250
6690		-60.546875
6691		-70.312500
6692		-64.453125
6693		-74.218750
6694		-68.359375
6695		-78.125000
6696		-72.265625
6697		-82.031250
6698		-76.171875
6699		-85.937500
6700		-80.078125
6701		-89.843750
6702		-82.031250
6703		-91.796875
6704		-85.937500
6705		-95.703125
6706		-89.843750
6707		-99.609375
6708		-93.750000
6709		-103.515625
6710		-95.703125
6711		-107.421875
6712		-99.609375
6713		-109.375000
6714		-103.515625
6715		-113.281250
6716		-107.421875
6717		-115.234375
6718		-111.328125
6719		-119.140625
6720		-113.281250
6721		-123.046875
6722		-117.187500
6723		-125.000000
6724		-119.140625
6725		-128.906250
6726		-121.093750
6727		-130.859375
6728		-125.000000
6729		-132.812500
6730		-128.906250
6731		-136.718750
6732		-130.859375
6733		-138.671875
6734		-132.812500
6735		-140.625000
6736		-134.765625
6737		-142.578125
6738		-138.671875
6739		-144.531250
6740		-140.625000
6741		-150.390625
6742		-140.625000
6743		-148.437500
6744		-142.578125
6745		-150.390625
6746		-146.484375
6747		-152.343750
6748		-148.437500
6749		-154.296875
6750		-150.390625
6751		-154.296875
6752		-150.390625
6753		-156.250000
6754		-152.343750
6755		-158.203125
6756		-154.296875
6757		-158.203125
6758		-154.296875
6759		-160.156250
6760		-154.296875
6761		-160.156250
6762		-154.296875
6763		-160.156250
6764		-156.250000
6765		-160.156250
6766		-158.203125
6767		-162.109375
6768		-158.203125
6769		-162.109375
6770		-158.203125
6771		-162.109375
6772		-158.203125
6773		-162.109375
6774		-158.203125
6775		-164.062500
6776		-156.250000
6777		-164.062500
6778		-156.250000
6779		-162.109375
6780		-158.203125
6781		-162.109375
6782		-158.203125
6783		-160.156250
6784		-156.250000
6785		-160.156250
6786		-156.250000
6787		-158.203125
6788		-156.250000
6789		-158.203125
6790		-154.296875
6791		-156.250000
6792		-152.343750
6793		-156.250000
6794		-150.390625
6795		-156.250000
6796		-150.390625
6797		-152.343750
6798		-148.437500
6799		-150.390625
6800		-146.484375
6801		-148.437500
6802		-144.531250
6803		-148.437500
6804		-142.578125
6805		-146.484375
6806		-140.625000
6807		-142.578125
6808		-138.671875
6809		-142.578125
6810		-134.765625
6811		-138.671875
6812		-132.812500
6813		-136.718750
6814		-132.812500
6815		-134.765625
6816		-128.906250
6817		-130.859375
6818		-126.953125
6819		-128.906250
6820		-123.046875
6821		-125.000000
6822		-121.093750
6823		-123.046875
6824		-117.187500
6825		-119.140625
6826		-113.281250
6827		-117.187500
6828		-109.375000
6829		-113.281250
6830		-107.421875
6831		-109.375000
6832		-103.515625
6833		-105.468750
6834		-101.562500
6835		-103.515625
6836		-97.656250
6837		-99.609375
6838		-93.750000
6839		-95.703125
6840		-89.843750
6841		-91.796875
6842		-85.937500
6843		-87.890625
6844		-82.031250
6845		-83.984375
6846		-78.125000
6847		-80.078125
6848		-74.218750
6849		-76.171875
6850		-70.312500
6851		-72.265625
6852		-66.406250
6853		-68.359375
6854		-62.500000
6855		-64.453125
6856		-58.593750
6857		-60.546875
6858		-54.687500
6859		-56.640625
6860		-48.828125
6861		-52.734375
6862		-42.968750
6863		-46.875000
6864		-41.015625
6865		-42.968750
6866		-37.109375
6867		-39.062500
6868		-33.203125
6869		-35.156250
6870		-29.296875
6871		-31.250000
6872		-23.437500
6873		-25.390625
6874		-19.531250
6875		-21.484375
6876		-15.625000
6877		-19.531250
6878		-9.765625
6879		-15.625000
6880		-7.812500
6881		-9.765625
6882		-3.906250
6883		-5.859375
6884		1.953125
6885		0.000000
6886		5.859375
6887		3.906250
6888		9.765625
6889		7.812500
6890		13.671875
6891		11.718750
6892		17.578125
6893		15.625000
6894		21.484375
6895		19.531250
6896		25.390625
6897		23.437500
6898		31.250000
6899		27.343750
6900		35.156250
6901		31.250000
6902		37.109375
6903		35.156250
6904		42.968750
6905		39.062500
6906		46.875000
6907		42.968750
6908		48.828125
6909		46.875000
6910		54.687500
6911		50.781250
6912		56.640625
6913		54.687500
6914		60.546875
6915		58.593750
6916		64.453125
6917		62.500000
6918		68.359375
6919		66.406250
6920		72.265625
6921		68.359375
6922		74.218750
6923		72.265625
6924		78.125000
6925		76.171875
6926		82.031250
6927		80.078125
6928		83.984375
6929		82.031250
6930		87.890625
6931		85.937500
6932		91.796875
6933		89.843750
6934		93.750000
6935		91.796875
6936		97.656250
6937		95.703125
6938		99.609375
6939		97.656250
6940		103.515625
6941		101.562500
6942		105.468750
6943		103.515625
6944		107.421875
6945		105.468750
6946		111.328125
6947		107.421875
6948		113.281250
6949		111.328125
6950		115.234375
6951		113.281250
6952		117.187500
6953		115.234375
6954		121.093750
6955		117.187500
6956		123.046875
6957		119.140625
6958		125.000000
6959		121.093750
6960		126.953125
6961		123.046875
6962		128.906250
6963		126.953125
6964		130.859375
6965		126.953125
6966		132.812500
6967		128.906250
6968		134.765625
6969		130.859375
6970		136.718750
6971		132.812500
6972		136.718750
6973		134.765625
6974		138.671875
6975		134.765625
6976		140.625000
6977		136.718750
6978		140.625000
6979		138.671875
6980		142.578125
6981		140.625000
6982		142.578125
6983		140.625000
6984		144.531250
6985		142.578125
6986		144.531250
6987		142.578125
6988		146.484375
6989		144.531250
6990		146.484375
6991		144.531250
6992		148.437500
6993		144.531250
6994		148.437500
6995		146.484375
6996		148.437500
6997		146.484375
6998		150.390625
6999		146.484375
7000		150.390625
7001		146.484375
7002		150.390625
7003		146.484375
7004		150.390625
7005		148.437500
7006		150.390625
7007		148.437500
7008		150.390625
7009		148.437500
7010		150.390625
7011		146.484375
7012		150.390625
7013		146.484375
7014		150.390625
7015		146.484375
7016		150.390625
7017		146.484375
7018		150.390625
7019		146.484375
7020		150.390625
7021		146.484375
7022		148.437500
7023		144.531250
7024		148.437500
7025		144.531250
7026		148.437500
7027		144.531250
7028		148.437500
7029		142.578125
7030		146.484375
7031		142.578125
7032		146.484375
7033		140.625000
7034		144.531250
7035		140.625000
7036		144.531250
7037		138.671875
7038		142.578125
7039		138.671875
7040		140.625000
7041		136.718750
7042		140.625000
7043		134.765625
7044		138.671875
7045		132.812500
7046		136.718750
7047		130.859375
7048		134.765625
7049		128.906250
7050		134.765625
7051		128.906250
7052		132.812500
7053		126.953125
7054		130.859375
7055		123.046875
7056		128.906250
7057		121.093750
7058		126.953125
7059		119.140625
7060		125.000000
7061		117.187500
7062		123.046875
7063		115.234375
7064		121.093750
7065		113.281250
7066		117.187500
7067		109.375000
7068		115.234375
7069		107.421875
7070		113.281250
7071		105.468750
7072		109.375000
7073		101.562500
7074		107.421875
7075		99.609375
7076		105.468750
7077		95.703125
7078		101.562500
7079		93.750000
7080		99.609375
7081		89.843750
7082		95.703125
7083		87.890625
7084		91.796875
7085		83.984375
7086		89.843750
7087		80.078125
7088		85.937500
7089		78.125000
7090		82.031250
7091		74.218750
7092		80.078125
7093		70.312500
7094		76.171875
7095		66.406250
7096		72.265625
7097		62.500000
7098		68.359375
7099		58.593750
7100		66.406250
7101		54.687500
7102		62.500000
7103		52.734375
7104		58.593750
7105		46.875000
7106		54.687500
7107		44.921875
7108		50.781250
7109		41.015625
7110		46.875000
7111		35.156250
7112		42.968750
7113		33.203125
7114		39.062500
7115		27.343750
7116		35.156250
7117		23.437500
7118		31.250000
7119		19.531250
7120		27.343750
7121		15.625000
7122		21.484375
7123		11.718750
7124		17.578125
7125		7.812500
7126		13.671875
7127		3.906250
7128		9.765625
7129		0.000000
7130		5.859375
7131		-3.906250
7132		1.953125
7133		-9.765625
7134		-1.953125
7135		-13.671875
7136		-7.812500
7137		-17.578125
7138		-11.718750
7139		-21.484375
7140		-15.625000
7141		-25.390625
7142		-19.531250
7143		-31.250000
7144		-23.437500
7145		-35.156250
7146		-27.343750
7147		-39.062500
7148		-33.203125
7149		-42.968750
7150		-37.109375
7151		-46.875000
7152		-41.015625
7153		-50.781250
7154		-44.921875
7155		-54.687500
7156		-48.828125
7157		-58.593750
7158		-52.734375
7159		-62.500000
7160		-56.640625
7161		-66.406250
7162		-60.546875
7163		-70.312500
7164		-64.453125
7165		-74.218750
7166		-68.359375
7167		-78.125000
7168		-72.265625
7169		-83.984375
7170		-76.171875
7171		-85.937500
7172		-80.078125
7173		-89.843750
7174		-83.984375
7175		-93.750000
7176		-87.890625
7177		-97.656250
7178		-91.796875
7179		-101.562500
7180		-95.703125
7181		-103.515625
7182		-99.609375
7183		-107.421875
7184		-101.562500
7185		-111.328125
7186		-105.468750
7187		-113.281250
7188		-109.375000
7189		-117.187500
7190		-111.328125
7191		-119.140625
7192		-115.234375
7193		-123.046875
7194		-117.187500
7195		-126.953125
7196		-121.093750
7197		-128.906250
7198		-123.046875
7199		-130.859375
7200		-126.953125
7201		-134.765625
7202		-128.906250
7203		-136.718750
7204		-130.859375
7205		-138.671875
7206		-134.765625
7207		-140.625000
7208		-136.718750
7209		-144.531250
7210		-138.671875
7211		-144.531250
7212		-140.625000
7213		-146.484375
7214		-142.578125
7215		-148.437500
7216		-144.531250
7217		-150.390625
7218		-146.484375
7219		-152.343750
7220		-148.437500
7221		-154.296875
7222		-150.390625
7223		-154.296875
7224		-150.390625
7225		-156.250000
7226		-152.343750
7227		-158.203125
7228		-154.296875
7229		-158.203125
7230		-154.296875
7231		-160.156250
7232		-156.250000
7233		-160.156250
7234		-156.250000
7235		-160.156250
7236		-156.250000
7237		-162.109375
7238		-158.203125
7239		-162.109375
7240		-158.203125
7241		-162.109375
7242		-158.203125
7243		-162.109375
7244		-158.203125
7245		-162.109375
7246		-158.203125
7247		-162.109375
7248		-158.203125
7249		-162.109375
7250		-158.203125
7251		-162.109375
7252		-158.203125
7253		-160.156250
7254		-158.203125
7255		-160.156250
7256		-156.250000
7257		-160.156250
7258		-156.250000
7259		-158.203125
7260		-154.296875
7261		-158.203125
7262		-154.296875
7263		-156.250000
7264		-152.343750
7265		-156.250000
7266		-150.390625
7267		-154.296875
7268		-150.390625
7269		-152.343750
7270		-148.437500
7271		-150.390625
7272		-146.484375
7273		-148.437500
7274		-144.531250
7275		-146.484375
7276		-142.578125
7277		-144.531250
7278		-140.625000
7279		-142.578125
7280		-138.671875
7281		-140.625000
7282		-136.718750
7283		-138.671875
7284		-132.812500
7285		-136.718750
7286		-130.859375
7287		-132.812500
7288		-128.906250
7289		-130.859375
7290		-125.000000
7291		-126.953125
7292		-123.046875
7293		-125.000000
7294		-119.140625
7295		-121.093750
7296		-117.187500
7297		-119.140625
7298		-113.281250
7299		-115.234375
7300		-109.375000
7301		-113.281250
7302		-107.421875
7303		-109.375000
7304		-103.515625
7305		-105.468750
7306		-99.609375
7307		-101.562500
7308		-95.703125
7309		-97.656250
7310		-91.796875
7311		-95.703125
7312		-89.843750
7313		-91.796875
7314		-85.937500
7315		-87.890625
7316		-82.031250
7317		-83.984375
7318		-78.125000
7319		-80.078125
7320		-74.218750
7321		-76.171875
7322		-68.359375
7323		-72.265625
7324		-66.406250
7325		-68.359375
7326		-62.500000
7327		-64.453125
7328		-56.640625
7329		-58.593750
7330		-52.734375
7331		-54.687500
7332		-48.828125
7333		-50.781250
7334		-44.921875
7335		-46.875000
7336		-41.015625
7337		-42.968750
7338		-35.156250
7339		-39.062500
7340		-31.250000
7341		-33.203125
7342		-27.343750
7343		-29.296875
7344		-23.437500
7345		-25.390625
7346		-19.531250
7347		-21.484375
7348		-15.625000
7349		-17.578125
7350		-9.765625
7351		-11.718750
7352		-5.859375
7353		-7.812500
7354		-1.953125
7355		-3.906250
7356		1.953125
7357		0.000000
7358		5.859375
7359		3.906250
7360		11.718750
7361		7.812500
7362		15.625000
7363		13.671875
7364		19.531250
7365		17.578125
7366		23.437500
7367		21.484375
7368		27.343750
7369		25.390625
7370		31.250000
7371		29.296875
7372		35.156250
7373		33.203125
7374		39.062500
7375		37.109375
7376		42.968750
7377		41.015625
7378		46.875000
7379		44.921875
7380		50.781250
7381		48.828125
7382		54.687500
7383		52.734375
7384		58.593750
7385		56.640625
7386		62.500000
7387		58.593750
7388		64.453125
7389		62.500000
7390		68.359375
7391		66.406250
7392		72.265625
7393		70.312500
7394		76.171875
7395		74.218750
7396		80.078125
7397		78.125000
7398		82.031250
7399		80.078125
7400		85.937500
7401		83.984375
7402		87.890625
7403		85.937500
7404		91.796875
7405		89.843750
7406		93.750000
7407		91.796875
7408		97.656250
7409		95.703125
7410		99.609375
7411		97.656250
7412		103.515625
7413		101.562500
7414		105.468750
7415		103.515625
7416		109.375000
7417		107.421875
7418		111.328125
7419		109.375000
7420		113.281250
7421		111.328125
7422		115.234375
7423		113.281250
7424		119.140625
7425		115.234375
7426		121.093750
7427		119.140625
7428		123.046875
7429		121.093750
7430		125.000000
7431		123.046875
7432		126.953125
7433		125.000000
7434		128.906250
7435		126.953125
7436		130.859375
7437		128.906250
7438		132.812500
7439		130.859375
7440		134.765625
7441		130.859375
7442		136.718750
7443		132.812500
7444		136.718750
7445		134.765625
7446		138.671875
7447		136.718750
7448		140.625000
7449		136.718750
7450		140.625000
7451		138.671875
7452		142.578125
7453		140.625000
7454		144.531250
7455		140.625000
7456		144.531250
7457		142.578125
7458		146.484375
7459		142.578125
7460		146.484375
7461		144.531250
7462		148.437500
7463		144.531250
7464		148.437500
7465		144.531250
7466		148.437500
7467		146.484375
7468		150.390625
7469		146.484375
7470		150.390625
7471		146.484375
7472		150.390625
7473		146.484375
7474		150.390625
7475		146.484375
7476		150.390625
7477		146.484375
7478		150.390625
7479		146.484375
7480		150.390625
7481		146.484375
7482		150.390625
7483		146.484375
7484		150.390625
7485		146.484375
7486		150.390625
7487		146.484375
7488		150.390625
7489		146.484375
7490		150.390625
7491		146.484375
7492		150.390625
7493		144.531250
7494		148.437500
7495		144.531250
7496		148.437500
7497		144.531250
7498		148.437500
7499		142.578125
7500		146.484375
7501		142.578125
7502		146.484375
7503		140.625000
7504		146.484375
7505		140.625000
7506		144.531250
7507		138.671875
7508		142.578125
7509		138.671875
7510		142.578125
7511		136.718750
7512		140.625000
7513		134.765625
7514		138.671875
7515		132.812500
7516		138.671875
7517		130.859375
7518		136.718750
7519		130.859375
7520		134.765625
7521		128.906250
7522		132.812500
7523		126.953125
7524		130.859375
7525		125.000000
7526		128.906250
7527		123.046875
7528		126.953125
7529		121.093750
7530		125.000000
7531		117.187500
7532		123.046875
7533		115.234375
7534		121.093750
7535		113.281250
7536		119.140625
7537		111.328125
7538		115.234375
7539		107.421875
7540		113.281250
7541		105.468750
7542		111.328125
7543		103.515625
7544		109.375000
7545		101.562500
7546		105.468750
7547		97.656250
7548		103.515625
7549		93.750000
7550		99.609375
7551		91.796875
7552		97.656250
7553		89.843750
7554		93.750000
7555		85.937500
7556		91.796875
7557		82.031250
7558		87.890625
7559		78.125000
7560		83.984375
7561		76.171875
7562		82.031250
7563		72.265625
7564		78.125000
7565		68.359375
7566		74.218750
7567		64.453125
7568		70.312500
7569		62.500000
7570		68.359375
7571		58.593750
7572		62.500000
7573		52.734375
7574		60.546875
7575		50.781250
7576		56.640625
7577		46.875000
7578		52.734375
7579		42.968750
7580		48.828125
7581		39.062500
7582		44.921875
7583		35.156250
7584		41.015625
7585		31.250000
7586		37.109375
7587		27.343750
7588		33.203125
7589		21.484375
7590		29.296875
7591		17.578125
7592		23.437500
7593		13.671875
7594		19.531250
7595		9.765625
7596		15.625000
7597		5.859375
7598		11.718750
7599		1.953125
7600		7.812500
7601		-1.953125
7602		3.906250
7603		-7.812500
7604		0.000000
7605		-11.718750
7606		-5.859375
7607		-15.625000
7608		-9.765625
7609		-19.531250
7610		-13.671875
7611		-23.437500
7612		-17.578125
7613		-27.343750
7614		-21.484375
7615		-33.203125
7616		-25.390625
7617		-37.109375
7618		-29.296875
7619		-41.015625
7620		-35.156250
7621		-44.921875
7622		-39.062500
7623		-48.828125
7624		-42.968750
7625		-52.734375
7626		-46.875000
7627		-56.640625
7628		-50.781250
7629		-60.546875
7630		-54.687500
7631		-66.406250
7632		-58.593750
7633		-70.312500
7634		-62.500000
7635		-74.218750
7636		-66.406250
7637		-76.171875
7638		-70.312500
7639		-80.078125
7640		-74.218750
7641		-83.984375
7642		-78.125000
7643		-87.890625
7644		-82.031250
7645		-91.796875
7646		-85.937500
7647		-95.703125
7648		-89.843750
7649		-99.609375
7650		-93.750000
7651		-103.515625
7652		-97.656250
7653		-105.468750
7654		-99.609375
7655		-109.375000
7656		-103.515625
7657		-113.281250
7658		-107.421875
7659		-115.234375
7660		-111.328125
7661		-119.140625
7662		-113.281250
7663		-123.046875
7664		-117.187500
7665		-125.000000
7666		-119.140625
7667		-128.906250
7668		-123.046875
7669		-130.859375
7670		-125.000000
7671		-132.812500
7672		-128.906250
7673		-134.765625
7674		-130.859375
7675		-138.671875
7676		-132.812500
7677		-140.625000
7678		-136.718750
7679		-142.578125
7680		-138.671875
7681		-144.531250
7682		-140.625000
7683		-146.484375
7684		-142.578125
7685		-148.437500
7686		-144.531250
7687		-150.390625
7688		-146.484375
7689		-152.343750
7690		-148.437500
7691		-154.296875
7692		-150.390625
7693		-156.250000
7694		-150.390625
7695		-156.250000
7696		-152.343750
7697		-158.203125
7698		-154.296875
7699		-158.203125
7700		-156.250000
7701		-160.156250
7702		-156.250000
7703		-160.156250
7704		-156.250000
7705		-162.109375
7706		-158.203125
7707		-162.109375
7708		-158.203125
7709		-164.062500
7710		-160.156250
7711		-162.109375
7712		-160.156250
7713		-164.062500
7714		-160.156250
7715		-164.062500
7716		-160.156250
7717		-164.062500
7718		-160.156250
7719		-164.062500
7720		-160.156250
7721		-162.109375
7722		-160.156250
7723		-162.109375
7724		-160.156250
7725		-162.109375
7726		-158.203125
7727		-162.109375
7728		-158.203125
7729		-160.156250
7730		-158.203125
7731		-160.156250
7732		-156.250000
7733		-158.203125
7734		-154.296875
7735		-158.203125
7736		-154.296875
7737		-156.250000
7738		-150.390625
7739		-156.250000
7740		-150.390625
7741		-154.296875
7742		-148.437500
7743		-152.343750
7744		-146.484375
7745		-150.390625
7746		-144.531250
7747		-148.437500
7748		-142.578125
7749		-146.484375
7750		-140.625000
7751		-144.531250
7752		-138.671875
7753		-142.578125
7754		-136.718750
7755		-140.625000
7756		-134.765625
7757		-136.718750
7758		-130.859375
7759		-134.765625
7760		-128.906250
7761		-130.859375
7762		-126.953125
7763		-130.859375
7764		-123.046875
7765		-126.953125
7766		-121.093750
7767		-123.046875
7768		-117.187500
7769		-121.093750
7770		-115.234375
7771		-117.187500
7772		-111.328125
7773		-113.281250
7774		-107.421875
7775		-109.375000
7776		-103.515625
7777		-107.421875
7778		-101.562500
7779		-103.515625
7780		-95.703125
7781		-99.609375
7782		-93.750000
7783		-95.703125
7784		-89.843750
7785		-93.750000
7786		-85.937500
7787		-87.890625
7788		-80.078125
7789		-83.984375
7790		-78.125000
7791		-82.031250
7792		-74.218750
7793		-78.125000
7794		-70.312500
7795		-72.265625
7796		-62.500000
7797		-68.359375
7798		-60.546875
7799		-64.453125
7800		-56.640625
7801		-60.546875
7802		-52.734375
7803		-56.640625
7804		-46.875000
7805		-50.781250
7806		-44.921875
7807		-46.875000
7808		-41.015625
7809		-42.968750
7810		-37.109375
7811		-39.062500
7812		-31.250000
7813		-33.203125
7814		-27.343750
7815		-29.296875
7816		-23.437500
7817		-25.390625
7818		-19.531250
7819		-21.484375
7820		-11.718750
7821		-19.531250
7822		-9.765625
7823		-11.718750
7824		-5.859375
7825		-7.812500
7826		-1.953125
7827		-5.859375
7828		3.906250
7829		0.000000
7830		7.812500
7831		3.906250
7832		11.718750
7833		7.812500
7834		15.625000
7835		13.671875
7836		19.531250
7837		15.625000
7838		23.437500
7839		19.531250
7840		27.343750
7841		25.390625
7842		31.250000
7843		27.343750
7844		39.062500
7845		33.203125
7846		39.062500
7847		33.203125
7848		42.968750
7849		41.015625
7850		46.875000
7851		44.921875
7852		50.781250
7853		46.875000
7854		56.640625
7855		52.734375
7856		58.593750
7857		56.640625
7858		62.500000
7859		60.546875
7860		68.359375
7861		60.546875
7862		70.312500
7863		66.406250
7864		74.218750
7865		70.312500
7866		76.171875
7867		72.265625
7868		80.078125
7869		76.171875
7870		83.984375
7871		78.125000
7872		87.890625
7873		83.984375
7874		87.890625
7875		85.937500
7876		91.796875
7877		87.890625
7878		97.656250
7879		91.796875
7880		99.609375
7881		93.750000
7882		99.609375
7883		97.656250
7884		103.515625
7885		101.562500
7886		107.421875
7887		101.562500
7888		111.328125
7889		105.468750
7890		111.328125
7891		109.375000
7892		113.281250
7893		109.375000
7894		119.140625
7895		111.328125
7896		119.140625
7897		113.281250
7898		123.046875
7899		117.187500
7900		123.046875
7901		119.140625
7902		126.953125
7903		121.093750
7904		128.906250
7905		121.093750
7906		130.859375
7907		126.953125
7908		130.859375
7909		126.953125
7910		132.812500
7911		126.953125
7912		136.718750
7913		130.859375
7914		136.718750
7915		132.812500
7916		136.718750
7917		134.765625
7918		138.671875
7919		134.765625
7920		140.625000
7921		134.765625
7922		144.531250
7923		136.718750
7924		144.531250
7925		140.625000
7926		144.531250
7927		136.718750
7928		148.437500
7929		138.671875
7930		146.484375
7931		140.625000
7932		148.437500
7933		142.578125
7934		146.484375
7935		142.578125
7936		148.437500
7937		142.578125
7938		150.390625
7939		144.531250
7940		150.390625
7941		144.531250
7942		150.390625
7943		144.531250
7944		150.390625
7945		144.531250
7946		152.343750
7947		144.531250
7948		152.343750
7949		146.484375
7950		150.390625
7951		146.484375
7952		150.390625
7953		146.484375
7954		152.343750
7955		144.531250
7956		152.343750
7957		146.484375
7958		150.390625
7959		146.484375
7960		150.390625
7961		142.578125
7962		152.343750
7963		144.531250
7964		150.390625
7965		144.531250
7966		148.437500
7967		144.531250
7968		148.437500
7969		142.578125
7970		146.484375
7971		138.671875
7972		148.437500
7973		138.671875
7974		146.484375
7975		140.625000
7976		144.531250
7977		134.765625
7978		146.484375
7979		136.718750
7980		146.484375
7981		136.718750
7982		142.578125
7983		134.765625
7984		140.625000
7985		134.765625
7986		138.671875
7987		130.859375
7988		136.718750
7989		128.906250
7990		136.718750
7991		128.906250
7992		132.812500
7993		126.953125
7994		130.859375
7995		123.046875
7996		132.812500
7997		121.093750
7998		128.906250
7999		121.093750
8000		126.953125
8001		119.140625
8002		125.000000
8003		117.187500
8004		123.046875
8005		113.281250
8006		121.093750
8007		113.281250
8008		119.140625
8009		109.375000
8010		115.234375
8011		107.421875
8012		113.281250
8013		105.468750
8014		109.375000
8015		101.562500
8016		109.375000
8017		99.609375
8018		105.468750
8019		95.703125
8020		101.562500
8021		91.796875
8022		99.609375
8023		89.843750
8024		95.703125
8025		87.890625
8026		93.750000
8027		83.984375
8028		89.843750
8029		80.078125
8030		85.937500
8031		78.125000
8032		83.984375
8033		74.218750
8034		80.078125
8035		70.312500
8036		76.171875
8037		66.406250
8038		72.265625
8039		62.500000
8040		70.312500
8041		60.546875
8042		66.406250
8043		56.640625
8044		62.500000
8045		52.734375
8046		60.546875
8047		48.828125
8048		54.687500
8049		44.921875
8050		50.781250
8051		41.015625
8052		46.875000
8053		37.109375
8054		42.968750
8055		33.203125
8056		39.062500
8057		29.296875
8058		35.156250
8059		23.437500
8060		31.250000
8061		19.531250
8062		27.343750
8063		17.578125
8064		23.437500
8065		11.718750
8066		19.531250
8067		7.812500
8068		13.671875
8069		3.906250
8070		9.765625
8071		0.000000
8072		7.812500
8073		-3.906250
8074		1.953125
8075		-9.765625
8076		-1.953125
8077		-13.671875
8078		-5.859375
8079		-17.578125
8080		-11.718750
8081		-21.484375
8082		-15.625000
8083		-25.390625
8084		-19.531250
8085		-29.296875
8086		-23.437500
8087		-35.156250
8088		-27.343750
8089		-39.062500
8090		-31.250000
8091		-42.968750
8092		-35.156250
8093		-48.828125
8094		-39.062500
8095		-52.734375
8096		-42.968750
8097		-54.687500
8098		-46.875000
8099		-58.593750
8100		-52.734375
8101		-62.500000
8102		-56.640625
8103		-68.359375
8104		-60.546875
8105		-72.265625
8106		-64.453125
8107		-76.171875
8108		-68.359375
8109		-80.078125
8110		-72.265625
8111		-83.984375
8112		-76.171875
8113		-87.890625
8114		-80.078125
8115		-89.843750
8116		-82.031250
8117		-95.703125
8118		-87.890625
8119		-97.656250
8120		-91.796875
8121		-101.562500
8122		-95.703125
8123		-105.468750
8124		-97.656250
8125		-109.375000
8126		-101.562500
8127		-111.328125
8128		-105.468750
8129		-115.234375
8130		-107.421875
8131		-119.140625
8132		-111.328125
8133		-121.093750
8134		-113.281250
8135		-123.046875
8136		-119.140625
8137		-126.953125
8138		-121.093750
8139		-130.859375
8140		-125.000000
8141		-132.812500
8142		-126.953125
8143		-136.718750
8144		-128.906250
8145		-138.671875
8146		-130.859375
8147		-140.625000
8148		-134.765625
8149		-142.578125
8150		-136.718750
8151		-144.531250
8152		-138.671875
8153		-146.484375
8154		-142.578125
8155		-148.437500
8156		-142.578125
8157		-150.390625
8158		-144.531250
8159		-154.296875
8160		-148.437500
8161		-154.296875
8162		-148.437500
8163		-156.250000
8164		-150.390625
8165		-156.250000
8166		-152.343750
8167		-158.203125
8168		-152.343750
8169		-160.156250
8170		-156.250000
8171		-160.156250
8172		-156.250000
8173		-162.109375
8174		-156.250000
8175		-162.109375
8176		-158.203125
8177		-164.062500
8178		-158.203125
8179		-164.062500
8180		-158.203125
8181		-164.062500
8182		-160.156250
8183		-164.062500
8184		-160.156250
8185		-164.062500
8186		-162.109375
8187		-166.015625
8188		-160.156250
8189		-164.062500
8190		-160.156250
8191		-166.015625
8192		-160.156250
8193		-164.062500
8194		-160.156250
8195		-164.062500
8196		-160.156250
8197		-164.062500
8198		-158.203125
8199		-162.109375
8200		-158.203125
8201		-162.109375
8202		-158.203125
8203		-160.156250
8204		-156.250000
8205		-160.156250
8206		-156.250000
8207		-158.203125
8208		-154.296875
8209		-158.203125
8210		-152.343750
8211		-158.203125
8212		-150.390625
8213		-154.296875
8214		-150.390625
8215		-152.343750
8216		-146.484375
8217		-152.343750
8218		-146.484375
8219		-148.437500
8220		-144.531250
8221		-146.484375
8222		-142.578125
8223		-144.531250
8224		-140.625000
8225		-142.578125
8226		-136.718750
8227		-140.625000
8228		-132.812500
8229		-138.671875
8230		-132.812500
8231		-134.765625
8232		-128.906250
8233		-132.812500
8234		-126.953125
8235		-128.906250
8236		-125.000000
8237		-126.953125
8238		-121.093750
8239		-125.000000
8240		-117.187500
8241		-121.093750
8242		-115.234375
8243		-117.187500
8244		-111.328125
8245		-115.234375
8246		-107.421875
8247		-111.328125
8248		-103.515625
8249		-107.421875
8250		-101.562500
8251		-103.515625
8252		-97.656250
8253		-99.609375
8254		-93.750000
8255		-95.703125
8256		-89.843750
8257		-91.796875
8258		-85.937500
8259		-87.890625
8260		-82.031250
8261		-83.984375
8262		-78.125000
8263		-80.078125
8264		-74.218750
8265		-78.125000
8266		-70.312500
8267		-72.265625
8268		-66.406250
8269		-68.359375
8270		-62.500000
8271		-64.453125
8272		-56.640625
8273		-60.546875
8274		-52.734375
8275		-56.640625
8276		-48.828125
8277		-50.781250
8278		-42.968750
8279		-46.875000
8280		-41.015625
8281		-42.968750
8282		-35.156250
8283		-39.062500
8284		-31.250000
8285		-35.156250
8286		-27.343750
8287		-29.296875
8288		-23.437500
8289		-25.390625
8290		-19.531250
8291		-21.484375
8292		-15.625000
8293		-17.578125
8294		-11.718750
8295		-13.671875
8296		-5.859375
8297		-9.765625
8298		-1.953125
8299		-3.906250
8300		1.953125
8301		0.000000
8302		5.859375
8303		3.906250
8304		11.718750
8305		7.812500
8306		15.625000
8307		11.718750
8308		19.531250
8309		15.625000
8310		23.437500
8311		21.484375
8312		27.343750
8313		25.390625
8314		31.250000
8315		29.296875
8316		35.156250
8317		33.203125
8318		39.062500
8319		37.109375
8320		42.968750
8321		41.015625
8322		46.875000
8323		42.968750
8324		50.781250
8325		48.828125
8326		54.687500
8327		52.734375
8328		58.593750
8329		54.687500
8330		62.500000
8331		60.546875
8332		64.453125
8333		62.500000
8334		68.359375
8335		66.406250
8336		72.265625
8337		70.312500
8338		76.171875
8339		74.218750
8340		78.125000
8341		76.171875
8342		82.031250
8343		80.078125
8344		85.937500
8345		83.984375
8346		87.890625
8347		85.937500
8348		91.796875
8349		89.843750
8350		93.750000
8351		91.796875
8352		97.656250
8353		95.703125
8354		99.609375
8355		97.656250
8356		103.515625
8357		101.562500
8358		105.468750
8359		103.515625
8360		109.375000
8361		105.468750
8362		111.328125
8363		107.421875
8364		113.281250
8365		111.328125
8366		115.234375
8367		113.281250
8368		119.140625
8369		115.234375
8370		121.093750
8371		117.187500
8372		123.046875
8373		119.140625
8374		125.000000
8375		121.093750
8376		126.953125
8377		123.046875
8378		128.906250
8379		125.000000
8380		130.859375
8381		126.953125
8382		132.812500
8383		128.906250
8384		134.765625
8385		130.859375
8386		134.765625
8387		132.812500
8388		136.718750
8389		132.812500
8390		138.671875
8391		134.765625
8392		138.671875
8393		136.718750
8394		140.625000
8395		136.718750
8396		142.578125
8397		138.671875
8398		142.578125
8399		138.671875
8400		144.531250
8401		140.625000
8402		144.531250
8403		142.578125
8404		146.484375
8405		142.578125
8406		146.484375
8407		142.578125
8408		146.484375
8409		142.578125
8410		148.437500
8411		144.531250
8412		148.437500
8413		144.531250
8414		148.437500
8415		144.531250
8416		148.437500
8417		146.484375
8418		150.390625
8419		144.531250
8420		148.437500
8421		146.484375
8422		150.390625
8423		144.531250
8424		150.390625
8425		146.484375
8426		150.390625
8427		146.484375
8428		148.437500
8429		144.531250
8430		150.390625
8431		144.531250
8432		148.437500
8433		144.531250
8434		148.437500
8435		144.531250
8436		148.437500
8437		144.531250
8438		148.437500
8439		142.578125
8440		146.484375
8441		142.578125
8442		146.484375
8443		142.578125
8444		146.484375
8445		140.625000
8446		144.531250
8447		140.625000
8448		142.578125
8449		138.671875
8450		142.578125
8451		136.718750
8452		140.625000
8453		136.718750
8454		140.625000
8455		134.765625
8456		138.671875
8457		132.812500
8458		136.718750
8459		130.859375
8460		134.765625
8461		128.906250
8462		134.765625
8463		126.953125
8464		132.812500
8465		126.953125
8466		130.859375
8467		125.000000
8468		128.906250
8469		123.046875
8470		126.953125
8471		121.093750
8472		125.000000
8473		117.187500
8474		123.046875
8475		115.234375
8476		121.093750
8477		113.281250
8478		119.140625
8479		111.328125
8480		115.234375
8481		109.375000
8482		113.281250
8483		105.468750
8484		111.328125
8485		103.515625
8486		109.375000
8487		99.609375
8488		105.468750
8489		97.656250
8490		103.515625
8491		95.703125
8492		101.562500
8493		91.796875
8494		97.656250
8495		89.843750
8496		95.703125
8497		85.937500
8498		91.796875
8499		82.031250
8500		87.890625
8501		78.125000
8502		85.937500
8503		76.171875
8504		82.031250
8505		72.265625
8506		78.125000
8507		68.359375
8508		74.218750
8509		64.453125
8510		70.312500
8511		62.500000
8512		68.359375
8513		58.593750
8514		64.453125
8515		54.687500
8516		60.546875
8517		50.781250
8518		56.640625
8519		46.875000
8520		52.734375
8521		42.968750
8522		48.828125
8523		37.109375
8524		44.921875
8525		35.156250
8526		41.015625
8527		31.250000
8528		37.109375
8529		27.343750
8530		33.203125
8531		23.437500
8532		29.296875
8533		17.578125
8534		25.390625
8535		13.671875
8536		21.484375
8537		9.765625
8538		17.578125
8539		5.859375
8540		11.718750
8541		1.953125
8542		7.812500
8543		-1.953125
8544		3.906250
8545		-5.859375
8546		0.000000
8547		-11.718750
8548		-3.906250
8549		-15.625000
8550		-7.812500
8551		-19.531250
8552		-13.671875
8553		-23.437500
8554		-15.625000
8555		-27.343750
8556		-21.484375
8557		-31.250000
8558		-25.390625
8559		-37.109375
8560		-29.296875
8561		-41.015625
8562		-33.203125
8563		-44.921875
8564		-37.109375
8565		-48.828125
8566		-42.968750
8567		-52.734375
8568		-46.875000
8569		-56.640625
8570		-50.781250
8571		-60.546875
8572		-54.687500
8573		-64.453125
8574		-58.593750
8575		-68.359375
8576		-62.500000
8577		-72.265625
8578		-66.406250
8579		-76.171875
8580		-70.312500
8581		-82.031250
8582		-74.218750
8583		-85.937500
8584		-78.125000
8585		-87.890625
8586		-82.031250
8587		-91.796875
8588		-85.937500
8589		-95.703125
8590		-89.843750
8591		-99.609375
8592		-93.750000
8593		-103.515625
8594		-97.656250
8595		-107.421875
8596		-99.609375
8597		-109.375000
8598		-103.515625
8599		-113.281250
8600		-107.421875
8601		-117.187500
8602		-111.328125
8603		-119.140625
8604		-113.281250
8605		-123.046875
8606		-117.187500
8607		-126.953125
8608		-119.140625
8609		-128.906250
8610		-123.046875
8611		-130.859375
8612		-125.000000
8613		-134.765625
8614		-128.906250
8615		-136.718750
8616		-130.859375
8617		-138.671875
8618		-134.765625
8619		-142.578125
8620		-136.718750
8621		-144.531250
8622		-138.671875
8623		-146.484375
8624		-142.578125
8625		-148.437500
8626		-142.578125
8627		-150.390625
8628		-144.531250
8629		-152.343750
8630		-148.437500
8631		-154.296875
8632		-148.437500
8633		-156.250000
8634		-150.390625
8635		-156.250000
8636		-152.343750
8637		-158.203125
8638		-154.296875
8639		-160.156250
8640		-156.250000
8641		-162.109375
8642		-156.250000
8643		-162.109375
8644		-158.203125
8645		-162.109375
8646		-158.203125
8647		-164.062500
8648		-160.156250
8649		-164.062500
8650		-160.156250
8651		-166.015625
8652		-160.156250
8653		-166.015625
8654		-162.109375
8655		-166.015625
8656		-162.109375
8657		-166.015625
8658		-162.109375
8659		-166.015625
8660		-162.109375
8661		-166.015625
8662		-162.109375
8663		-164.062500
8664		-162.109375
8665		-164.062500
8666		-162.109375
8667		-164.062500
8668		-160.156250
8669		-164.062500
8670		-160.156250
8671		-164.062500
8672		-160.156250
8673		-162.109375
8674		-158.203125
8675		-162.109375
8676		-158.203125
8677		-160.156250
8678		-156.250000
8679		-160.156250
8680		-154.296875
8681		-158.203125
8682		-154.296875
8683		-156.250000
8684		-152.343750
8685		-154.296875
8686		-150.390625
8687		-152.343750
8688		-148.437500
8689		-150.390625
8690		-146.484375
8691		-148.437500
8692		-144.531250
8693		-146.484375
8694		-142.578125
8695		-144.531250
8696		-138.671875
8697		-142.578125
8698		-138.671875
8699		-140.625000
8700		-134.765625
8701		-136.718750
8702		-132.812500
8703		-134.765625
8704		-128.906250
8705		-132.812500
8706		-126.953125
8707		-128.906250
8708		-125.000000
8709		-126.953125
8710		-121.093750
8711		-123.046875
8712		-117.187500
8713		-119.140625
8714		-115.234375
8715		-117.187500
8716		-111.328125
8717		-113.281250
8718		-107.421875
8719		-109.375000
8720		-103.515625
8721		-107.421875
8722		-101.562500
8723		-103.515625
8724		-97.656250
8725		-99.609375
8726		-93.750000
8727		-95.703125
8728		-89.843750
8729		-91.796875
8730		-85.937500
8731		-87.890625
8732		-82.031250
8733		-85.937500
8734		-78.125000
8735		-80.078125
8736		-74.218750
8737		-76.171875
8738		-70.312500
8739		-72.265625
8740		-66.406250
8741		-68.359375
8742		-62.500000
8743		-64.453125
8744		-56.640625
8745		-58.593750
8746		-52.734375
8747		-54.687500
8748		-48.828125
8749		-50.781250
8750		-44.921875
8751		-46.875000
8752		-39.062500
8753		-42.968750
8754		-35.156250
8755		-39.062500
8756		-31.250000
8757		-33.203125
8758		-27.343750
8759		-29.296875
8760		-21.484375
8761		-25.390625
8762		-19.531250
8763		-21.484375
8764		-13.671875
8765		-15.625000
8766		-9.765625
8767		-13.671875
8768		-5.859375
8769		-7.812500
8770		0.000000
8771		-3.906250
8772		1.953125
8773		0.000000
8774		7.812500
8775		5.859375
8776		11.718750
8777		9.765625
8778		15.625000
8779		13.671875
8780		19.531250
8781		17.578125
8782		23.437500
8783		21.484375
8784		27.343750
8785		25.390625
8786		31.250000
8787		29.296875
8788		35.156250
8789		31.250000
8790		39.062500
8791		37.109375
8792		42.968750
8793		41.015625
8794		46.875000
8795		44.921875
8796		50.781250
8797		48.828125
8798		54.687500
8799		52.734375
8800		58.593750
8801		56.640625
8802		62.500000
8803		60.546875
8804		66.406250
8805		62.500000
8806		70.312500
8807		66.406250
8808		72.265625
8809		70.312500
8810		76.171875
8811		74.218750
8812		80.078125
8813		76.171875
8814		82.031250
8815		80.078125
8816		85.937500
8817		83.984375
8818		87.890625
8819		85.937500
8820		91.796875
8821		89.843750
8822		95.703125
8823		91.796875
8824		97.656250
8825		95.703125
8826		99.609375
8827		97.656250
8828		103.515625
8829		101.562500
8830		105.468750
8831		103.515625
8832		109.375000
8833		105.468750
8834		111.328125
8835		107.421875
8836		113.281250
8837		111.328125
8838		115.234375
8839		113.281250
8840		119.140625
8841		115.234375
8842		119.140625
8843		117.187500
8844		123.046875
8845		119.140625
8846		125.000000
8847		121.093750
8848		126.953125
8849		123.046875
8850		128.906250
8851		125.000000
8852		130.859375
8853		126.953125
8854		130.859375
8855		128.906250
8856		134.765625
8857		130.859375
8858		134.765625
8859		132.812500
8860		136.718750
8861		132.812500
8862		136.718750
8863		134.765625
8864		138.671875
8865		136.718750
8866		140.625000
8867		136.718750
8868		142.578125
8869		138.671875
8870		142.578125
8871		138.671875
8872		142.578125
8873		140.625000
8874		144.531250
8875		140.625000
8876		144.531250
8877		140.625000
8878		148.437500
8879		142.578125
8880		148.437500
8881		142.578125
8882		148.437500
8883		142.578125
8884		148.437500
8885		142.578125
8886		148.437500
8887		144.531250
8888		148.437500
8889		144.531250
8890		148.437500
8891		144.531250
8892		148.437500
8893		144.531250
8894		148.437500
8895		144.531250
8896		150.390625
8897		142.578125
8898		150.390625
8899		142.578125
8900		150.390625
8901		142.578125
8902		150.390625
8903		144.531250
8904		148.437500
8905		142.578125
8906		148.437500
8907		144.531250
8908		146.484375
8909		142.578125
8910		146.484375
8911		140.625000
8912		148.437500
8913		140.625000
8914		146.484375
8915		138.671875
8916		146.484375
8917		138.671875
8918		144.531250
8919		138.671875
8920		144.531250
8921		136.718750
8922		142.578125
8923		136.718750
8924		142.578125
8925		134.765625
8926		138.671875
8927		132.812500
8928		138.671875
8929		130.859375
8930		138.671875
8931		130.859375
8932		134.765625
8933		126.953125
8934		134.765625
8935		126.953125
8936		132.812500
8937		125.000000
8938		128.906250
8939		123.046875
8940		126.953125
8941		121.093750
8942		125.000000
8943		119.140625
8944		123.046875
8945		115.234375
8946		123.046875
8947		113.281250
8948		121.093750
8949		111.328125
8950		119.140625
8951		107.421875
8952		115.234375
8953		107.421875
8954		113.281250
8955		103.515625
8956		111.328125
8957		101.562500
8958		107.421875
8959		99.609375
8960		105.468750
8961		93.750000
8962		101.562500
8963		91.796875
8964		99.609375
8965		87.890625
8966		97.656250
8967		85.937500
8968		93.750000
8969		83.984375
8970		89.843750
8971		80.078125
8972		87.890625
8973		78.125000
8974		85.937500
8975		74.218750
8976		80.078125
8977		70.312500
8978		76.171875
8979		66.406250
8980		74.218750
8981		62.500000
8982		72.265625
8983		58.593750
8984		66.406250
8985		56.640625
8986		64.453125
8987		50.781250
8988		60.546875
8989		46.875000
8990		54.687500
8991		44.921875
8992		50.781250
8993		41.015625
8994		46.875000
8995		35.156250
8996		42.968750
8997		31.250000
8998		39.062500
8999		29.296875
9000		35.156250
9001		23.437500
9002		31.250000
9003		19.531250
9004		29.296875
9005		15.625000
9006		23.437500
9007		11.718750
9008		19.531250
9009		7.812500
9010		15.625000
9011		3.906250
9012		9.765625
9013		-1.953125
9014		7.812500
9015		-5.859375
9016		1.953125
9017		-9.765625
9018		-1.953125
9019		-13.671875
9020		-3.906250
9021		-19.531250
9022		-9.765625
9023		-21.484375
9024		-11.718750
9025		-25.390625
9026		-19.531250
9027		-29.296875
9028		-23.437500
9029		-35.156250
9030		-27.343750
9031		-39.062500
9032		-29.296875
9033		-44.921875
9034		-35.156250
9035		-48.828125
9036		-39.062500
9037		-52.734375
9038		-44.921875
9039		-56.640625
9040		-46.875000
9041		-58.593750
9042		-52.734375
9043		-62.500000
9044		-56.640625
9045		-66.406250
9046		-60.546875
9047		-72.265625
9048		-62.500000
9049		-76.171875
9050		-66.406250
9051		-82.031250
9052		-70.312500
9053		-83.984375
9054		-76.171875
9055		-87.890625
9056		-80.078125
9057		-89.843750
9058		-83.984375
9059		-93.750000
9060		-87.890625
9061		-97.656250
9062		-91.796875
9063		-101.562500
9064		-93.750000
9065		-107.421875
9066		-97.656250
9067		-109.375000
9068		-101.562500
9069		-113.281250
9070		-105.468750
9071		-117.187500
9072		-107.421875
9073		-119.140625
9074		-111.328125
9075		-121.093750
9076		-115.234375
9077		-125.000000
9078		-119.140625
9079		-128.906250
9080		-121.093750
9081		-132.812500
9082		-123.046875
9083		-134.765625
9084		-126.953125
9085		-136.718750
9086		-128.906250
9087		-138.671875
9088		-130.859375
9089		-142.578125
9090		-134.765625
9091		-142.578125
9092		-136.718750
9093		-144.531250
9094		-140.625000
9095		-150.390625
9096		-142.578125
9097		-152.343750
9098		-142.578125
9099		-152.343750
9100		-144.531250
9101		-154.296875
9102		-146.484375
9103		-156.250000
9104		-148.437500
9105		-158.203125
9106		-150.390625
9107		-160.156250
9108		-152.343750
9109		-160.156250
9110		-154.296875
9111		-160.156250
9112		-156.250000
9113		-164.062500
9114		-156.250000
9115		-164.062500
9116		-156.250000
9117		-166.015625
9118		-158.203125
9119		-166.015625
9120		-156.250000
9121		-166.015625
9122		-160.156250
9123		-167.968750
9124		-160.156250
9125		-166.015625
9126		-162.109375
9127		-166.015625
9128		-162.109375
9129		-167.968750
9130		-162.109375
9131		-167.968750
9132		-160.156250
9133		-167.968750
9134		-160.156250
9135		-167.968750
9136		-160.156250
9137		-167.968750
9138		-160.156250
9139		-167.968750
9140		-158.203125
9141		-167.968750
9142		-158.203125
9143		-164.062500
9144		-160.156250
9145		-162.109375
9146		-158.203125
9147		-164.062500
9148		-156.250000
9149		-162.109375
9150		-154.296875
9151		-160.156250
9152		-152.343750
9153		-160.156250
9154		-152.343750
9155		-158.203125
9156		-150.390625
9157		-156.250000
9158		-148.437500
9159		-152.343750
9160		-148.437500
9161		-150.390625
9162		-146.484375
9163		-150.390625
9164		-142.578125
9165		-148.437500
9166		-140.625000
9167		-146.484375
9168		-138.671875
9169		-144.531250
9170		-134.765625
9171		-140.625000
9172		-132.812500
9173		-138.671875
9174		-130.859375
9175		-136.718750
9176		-128.906250
9177		-130.859375
9178		-126.953125
9179		-128.906250
9180		-121.093750
9181		-126.953125
9182		-119.140625
9183		-125.000000
9184		-115.234375
9185		-121.093750
9186		-111.328125
9187		-117.187500
9188		-109.375000
9189		-115.234375
9190		-107.421875
9191		-111.328125
9192		-103.515625
9193		-105.468750
9194		-99.609375
9195		-103.515625
9196		-95.703125
9197		-99.609375
9198		-91.796875
9199		-95.703125
9200		-87.890625
9201		-91.796875
9202		-82.031250
9203		-87.890625
9204		-80.078125
9205		-83.984375
9206		-76.171875
9207		-82.031250
9208		-70.312500
9209		-76.171875
9210		-68.359375
9211		-70.312500
9212		-64.453125
9213		-66.406250
9214		-60.546875
9215		-64.453125
9216		-54.687500
9217		-60.546875
9218		-50.781250
9219		-56.640625
9220		-46.875000
9221		-52.734375
9222		-42.968750
9223		-46.875000
9224		-37.109375
9225		-42.968750
9226		-35.156250
9227		-37.109375
9228		-31.250000
9229		-33.203125
9230		-27.343750
9231		-29.296875
9232		-21.484375
9233		-25.390625
9234		-15.625000
9235		-21.484375
9236		-13.671875
9237		-17.578125
9238		-7.812500
9239		-13.671875
9240		-3.906250
9241		-7.812500
9242		0.000000
9243		-3.906250
9244		3.906250
9245		1.953125
9246		7.812500
9247		5.859375
9248		13.671875
9249		7.812500
9250		17.578125
9251		11.718750
9252		21.484375
9253		15.625000
9254		25.390625
9255		19.531250
9256		29.296875
9257		25.390625
9258		33.203125
9259		27.343750
9260		37.109375
9261		33.203125
9262		41.015625
9263		37.109375
9264		44.921875
9265		41.015625
9266		48.828125
9267		42.968750
9268		52.734375
9269		46.875000
9270		56.640625
9271		52.734375
9272		60.546875
9273		54.687500
9274		64.453125
9275		58.593750
9276		66.406250
9277		64.453125
9278		70.312500
9279		68.359375
9280		74.218750
9281		68.359375
9282		78.125000
9283		72.265625
9284		80.078125
9285		76.171875
9286		83.984375
9287		80.078125
9288		87.890625
9289		82.031250
9290		91.796875
9291		85.937500
9292		93.750000
9293		89.843750
9294		95.703125
9295		91.796875
9296		97.656250
9297		95.703125
9298		101.562500
9299		95.703125
9300		105.468750
9301		99.609375
9302		107.421875
9303		101.562500
9304		109.375000
9305		103.515625
9306		111.328125
9307		107.421875
9308		115.234375
9309		109.375000
9310		115.234375
9311		113.281250
9312		117.187500
9313		115.234375
9314		119.140625
9315		115.234375
9316		123.046875
9317		117.187500
9318		126.953125
9319		121.093750
9320		128.906250
9321		123.046875
9322		128.906250
9323		123.046875
9324		132.812500
9325		126.953125
9326		132.812500
9327		128.906250
9328		134.765625
9329		130.859375
9330		134.765625
9331		130.859375
9332		138.671875
9333		130.859375
9334		138.671875
9335		132.812500
9336		140.625000
9337		134.765625
9338		140.625000
9339		134.765625
9340		142.578125
9341		136.718750
9342		144.531250
9343		136.718750
9344		144.531250
9345		140.625000
9346		144.531250
9347		138.671875
9348		146.484375
9349		140.625000
9350		146.484375
9351		140.625000
9352		146.484375
9353		142.578125
9354		148.437500
9355		142.578125
9356		148.437500
9357		140.625000
9358		148.437500
9359		142.578125
9360		148.437500
9361		144.531250
9362		148.437500
9363		144.531250
9364		148.437500
9365		142.578125
9366		150.390625
9367		142.578125
9368		150.390625
9369		142.578125
9370		150.390625
9371		142.578125
9372		148.437500
9373		140.625000
9374		150.390625
9375		142.578125
9376		148.437500
9377		142.578125
9378		148.437500
9379		142.578125
9380		146.484375
9381		142.578125
9382		146.484375
9383		140.625000
9384		146.484375
9385		138.671875
9386		146.484375
9387		136.718750
9388		146.484375
9389		136.718750
9390		144.531250
9391		136.718750
9392		142.578125
9393		134.765625
9394		142.578125
9395		134.765625
9396		140.625000
9397		134.765625
9398		138.671875
9399		130.859375
9400		138.671875
9401		128.906250
9402		136.718750
9403		128.906250
9404		134.765625
9405		126.953125
9406		132.812500
9407		125.000000
9408		132.812500
9409		123.046875
9410		130.859375
9411		123.046875
9412		128.906250
9413		121.093750
9414		125.000000
9415		115.234375
9416		123.046875
9417		115.234375
9418		121.093750
9419		113.281250
9420		121.093750
9421		109.375000
9422		117.187500
9423		107.421875
9424		115.234375
9425		103.515625
9426		113.281250
9427		103.515625
9428		111.328125
9429		99.609375
9430		105.468750
9431		95.703125
9432		103.515625
9433		93.750000
9434		101.562500
9435		89.843750
9436		99.609375
9437		87.890625
9438		95.703125
9439		83.984375
9440		91.796875
9441		82.031250
9442		89.843750
9443		80.078125
9444		85.937500
9445		76.171875
9446		82.031250
9447		72.265625
9448		78.125000
9449		68.359375
9450		76.171875
9451		64.453125
9452		72.265625
9453		60.546875
9454		68.359375
9455		56.640625
9456		66.406250
9457		54.687500
9458		62.500000
9459		48.828125
9460		58.593750
9461		46.875000
9462		52.734375
9463		42.968750
9464		48.828125
9465		37.109375
9466		44.921875
9467		35.156250
9468		42.968750
9469		29.296875
9470		39.062500
9471		25.390625
9472		35.156250
9473		21.484375
9474		31.250000
9475		17.578125
9476		25.390625
9477		13.671875
9478		21.484375
9479		11.718750
9480		17.578125
9481		7.812500
9482		13.671875
9483		1.953125
9484		9.765625
9485		-1.953125
9486		5.859375
9487		-7.812500
9488		1.953125
9489		-11.718750
9490		-1.953125
9491		-15.625000
9492		-7.812500
9493		-19.531250
9494		-11.718750
9495		-23.437500
9496		-15.625000
9497		-27.343750
9498		-21.484375
9499		-33.203125
9500		-25.390625
9501		-37.109375
9502		-27.343750
9503		-41.015625
9504		-31.250000
9505		-46.875000
9506		-37.109375
9507		-50.781250
9508		-41.015625
9509		-54.687500
9510		-44.921875
9511		-56.640625
9512		-50.781250
9513		-60.546875
9514		-54.687500
9515		-66.406250
9516		-58.593750
9517		-70.312500
9518		-60.546875
9519		-74.218750
9520		-66.406250
9521		-78.125000
9522		-70.312500
9523		-80.078125
9524		-74.218750
9525		-85.937500
9526		-76.171875
9527		-89.843750
9528		-80.078125
9529		-91.796875
9530		-85.937500
9531		-95.703125
9532		-89.843750
9533		-99.609375
9534		-93.750000
9535		-105.468750
9536		-95.703125
9537		-107.421875
9538		-99.609375
9539		-109.375000
9540		-101.562500
9541		-113.281250
9542		-107.421875
9543		-119.140625
9544		-109.375000
9545		-119.140625
9546		-113.281250
9547		-123.046875
9548		-117.187500
9549		-126.953125
9550		-119.140625
9551		-130.859375
9552		-121.093750
9553		-134.765625
9554		-125.000000
9555		-136.718750
9556		-128.906250
9557		-138.671875
9558		-130.859375
9559		-140.625000
9560		-132.812500
9561		-142.578125
9562		-134.765625
9563		-144.531250
9564		-138.671875
9565		-146.484375
9566		-140.625000
9567		-150.390625
9568		-142.578125
9569		-152.343750
9570		-144.531250
9571		-154.296875
9572		-146.484375
9573		-156.250000
9574		-148.437500
9575		-158.203125
9576		-150.390625
9577		-158.203125
9578		-150.390625
9579		-158.203125
9580		-154.296875
9581		-160.156250
9582		-156.250000
9583		-164.062500
9584		-156.250000
9585		-164.062500
9586		-156.250000
9587		-166.015625
9588		-158.203125
9589		-166.015625
9590		-158.203125
9591		-167.968750
9592		-158.203125
9593		-167.968750
9594		-160.156250
9595		-166.015625
9596		-160.156250
9597		-166.015625
9598		-162.109375
9599		-166.015625
9600		-162.109375
9601		-169.921875
9602		-162.109375
9603		-169.921875
9604		-162.109375
9605		-167.968750
9606		-160.156250
9607		-167.968750
9608		-160.156250
9609		-167.968750
9610		-160.156250
9611		-166.015625
9612		-160.156250
9613		-164.062500
9614		-160.156250
9615		-164.062500
9616		-160.156250
9617		-164.062500
9618		-158.203125
9619		-164.062500
9620		-156.250000
9621		-162.109375
9622		-156.250000
9623		-162.109375
9624		-154.296875
9625		-160.156250
9626		-152.343750
9627		-158.203125
9628		-150.390625
9629		-156.250000
9630		-150.390625
9631		-152.343750
9632		-148.437500
9633		-150.390625
9634		-144.531250
9635		-150.390625
9636		-142.578125
9637		-148.437500
9638		-140.625000
9639		-146.484375
9640		-138.671875
9641		-144.531250
9642		-136.718750
9643		-140.625000
9644		-132.812500
9645		-138.671875
9646		-130.859375
9647		-134.765625
9648		-128.906250
9649		-130.859375
9650		-126.953125
9651		-130.859375
9652		-123.046875
9653		-126.953125
9654		-119.140625
9655		-125.000000
9656		-115.234375
9657		-121.093750
9658		-111.328125
9659		-117.187500
9660		-109.375000
9661		-115.234375
9662		-105.468750
9663		-109.375000
9664		-103.515625
9665		-105.468750
9666		-99.609375
9667		-101.562500
9668		-95.703125
9669		-99.609375
9670		-91.796875
9671		-97.656250
9672		-85.937500
9673		-91.796875
9674		-83.984375
9675		-87.890625
9676		-80.078125
9677		-83.984375
9678		-74.218750
9679		-80.078125
9680		-72.265625
9681		-74.218750
9682		-68.359375
9683		-70.312500
9684		-64.453125
9685		-68.359375
9686		-58.593750
9687		-64.453125
9688		-54.687500
9689		-58.593750
9690		-50.781250
9691		-56.640625
9692		-46.875000
9693		-50.781250
9694		-42.968750
9695		-46.875000
9696		-37.109375
9697		-41.015625
9698		-35.156250
9699		-37.109375
9700		-31.250000
9701		-33.203125
9702		-23.437500
9703		-29.296875
9704		-21.484375
9705		-27.343750
9706		-17.578125
9707		-21.484375
9708		-11.718750
9709		-17.578125
9710		-5.859375
9711		-11.718750
9712		-1.953125
9713		-7.812500
9714		0.000000
9715		-1.953125
9716		3.906250
9717		1.953125
9718		9.765625
9719		5.859375
9720		15.625000
9721		9.765625
9722		17.578125
9723		13.671875
9724		21.484375
9725		17.578125
9726		27.343750
9727		21.484375
9728		31.250000
9729		25.390625
9730		33.203125
9731		31.250000
9732		37.109375
9733		35.156250
9734		41.015625
9735		37.109375
9736		46.875000
9737		41.015625
9738		50.781250
9739		44.921875
9740		52.734375
9741		46.875000
9742		58.593750
9743		50.781250
9744		60.546875
9745		54.687500
9746		64.453125
9747		60.546875
9748		66.406250
9749		64.453125
9750		70.312500
9751		68.359375
9752		74.218750
9753		68.359375
9754		78.125000
9755		72.265625
9756		82.031250
9757		78.125000
9758		83.984375
9759		80.078125
9760		87.890625
9761		82.031250
9762		91.796875
9763		85.937500
9764		91.796875
9765		89.843750
9766		95.703125
9767		93.750000
9768		97.656250
9769		95.703125
9770		101.562500
9771		97.656250
9772		103.515625
9773		101.562500
9774		107.421875
9775		103.515625
9776		109.375000
9777		105.468750
9778		113.281250
9779		107.421875
9780		113.281250
9781		111.328125
9782		117.187500
9783		113.281250
9784		119.140625
9785		113.281250
9786		123.046875
9787		115.234375
9788		125.000000
9789		119.140625
9790		125.000000
9791		121.093750
9792		126.953125
9793		123.046875
9794		130.859375
9795		125.000000
9796		132.812500
9797		125.000000
9798		132.812500
9799		128.906250
9800		134.765625
9801		130.859375
9802		136.718750
9803		130.859375
9804		138.671875
9805		132.812500
9806		138.671875
9807		132.812500
9808		140.625000
9809		134.765625
9810		142.578125
9811		136.718750
9812		142.578125
9813		136.718750
9814		144.531250
9815		140.625000
9816		144.531250
9817		140.625000
9818		144.531250
9819		140.625000
9820		146.484375
9821		140.625000
9822		148.437500
9823		140.625000
9824		148.437500
9825		140.625000
9826		148.437500
9827		142.578125
9828		148.437500
9829		142.578125
9830		150.390625
9831		144.531250
9832		148.437500
9833		144.531250
9834		148.437500
9835		142.578125
9836		150.390625
9837		142.578125
9838		150.390625
9839		142.578125
9840		150.390625
9841		142.578125
9842		150.390625
9843		142.578125
9844		150.390625
9845		142.578125
9846		150.390625
9847		144.531250
9848		148.437500
9849		144.531250
9850		148.437500
9851		142.578125
9852		146.484375
9853		140.625000
9854		148.437500
9855		140.625000
9856		146.484375
9857		138.671875
9858		146.484375
9859		138.671875
9860		146.484375
9861		136.718750
9862		144.531250
9863		136.718750
9864		142.578125
9865		136.718750
9866		140.625000
9867		134.765625
9868		140.625000
9869		132.812500
9870		140.625000
9871		130.859375
9872		138.671875
9873		130.859375
9874		136.718750
9875		128.906250
9876		136.718750
9877		126.953125
9878		134.765625
9879		125.000000
9880		132.812500
9881		123.046875
9882		130.859375
9883		123.046875
9884		126.953125
9885		119.140625
9886		125.000000
9887		117.187500
9888		125.000000
9889		113.281250
9890		123.046875
9891		111.328125
9892		121.093750
9893		111.328125
9894		117.187500
9895		107.421875
9896		115.234375
9897		105.468750
9898		113.281250
9899		103.515625
9900		109.375000
9901		101.562500
9902		105.468750
9903		97.656250
9904		103.515625
9905		93.750000
9906		101.562500
9907		91.796875
9908		99.609375
9909		87.890625
9910		95.703125
9911		83.984375
9912		93.750000
9913		82.031250
9914		89.843750
9915		80.078125
9916		85.937500
9917		76.171875
9918		82.031250
9919		70.312500
9920		78.125000
9921		68.359375
9922		78.125000
9923		66.406250
9924		72.265625
9925		62.500000
9926		70.312500
9927		58.593750
9928		66.406250
9929		52.734375
9930		62.500000
9931		50.781250
9932		58.593750
9933		46.875000
9934		52.734375
9935		42.968750
9936		50.781250
9937		39.062500
9938		46.875000
9939		33.203125
9940		42.968750
9941		29.296875
9942		39.062500
9943		27.343750
9944		35.156250
9945		21.484375
9946		31.250000
9947		19.531250
9948		27.343750
9949		15.625000
9950		23.437500
9951		11.718750
9952		17.578125
9953		5.859375
9954		13.671875
9955		0.000000
9956		9.765625
9957		-3.906250
9958		5.859375
9959		-7.812500
9960		1.953125
9961		-11.718750
9962		-1.953125
9963		-15.625000
9964		-5.859375
9965		-17.578125
9966		-9.765625
9967		-23.437500
9968		-15.625000
9969		-27.343750
9970		-21.484375
9971		-31.250000
9972		-23.437500
9973		-37.109375
9974		-27.343750
9975		-41.015625
9976		-31.250000
9977		-44.921875
9978		-35.156250
9979		-48.828125
9980		-41.015625
9981		-52.734375
9982		-44.921875
9983		-56.640625
9984		-48.828125
9985		-60.546875
9986		-52.734375
9987		-66.406250
9988		-56.640625
9989		-70.312500
9990		-60.546875
9991		-72.265625
9992		-64.453125
9993		-76.171875
9994		-68.359375
9995		-82.031250
9996		-72.265625
9997		-85.937500
9998		-76.171875
9999		-87.890625
10000		-82.031250
