Channel              :		CH1
Frequency            :		1.060kHz
Period               :		0.944ms
PK-PK                :		335.9mV
Probe attenuation    :		1X
Voltage per ADC value:		0.122070mV
Time interval        :		2.00000us

index		CH1_Voltage(mV)
1		87.890625
2		87.890625
3		97.656250
4		83.984375
5		93.750000
6		82.031250
7		89.843750
8		78.125000
9		85.937500
10		76.171875
11		82.031250
12		72.265625
13		78.125000
14		68.359375
15		74.218750
16		64.453125
17		70.312500
18		58.593750
19		68.359375
20		56.640625
21		64.453125
22		52.734375
23		60.546875
24		46.875000
25		56.640625
26		44.921875
27		52.734375
28		41.015625
29		48.828125
30		37.109375
31		42.968750
32		33.203125
33		39.062500
34		27.343750
35		37.109375
36		23.437500
37		31.250000
38		19.531250
39		29.296875
40		13.671875
41		23.437500
42		9.765625
43		19.531250
44		5.859375
45		15.625000
46		1.953125
47		9.765625
48		-1.953125
49		3.906250
50		-7.812500
51		0.000000
52		-11.718750
53		-1.953125
54		-17.578125
55		-7.812500
56		-19.531250
57		-11.718750
58		-25.390625
59		-17.578125
60		-27.343750
61		-19.531250
62		-31.250000
63		-23.437500
64		-37.109375
65		-31.250000
66		-42.968750
67		-35.156250
68		-46.875000
69		-37.109375
70		-50.781250
71		-42.968750
72		-56.640625
73		-46.875000
74		-58.593750
75		-50.781250
76		-64.453125
77		-54.687500
78		-68.359375
79		-60.546875
80		-70.312500
81		-66.406250
82		-76.171875
83		-70.312500
84		-82.031250
85		-74.218750
86		-85.937500
87		-76.171875
88		-89.843750
89		-80.078125
90		-93.750000
91		-85.937500
92		-97.656250
93		-89.843750
94		-101.562500
95		-93.750000
96		-103.515625
97		-97.656250
98		-107.421875
99		-101.562500
100		-113.281250
101		-105.468750
102		-115.234375
103		-107.421875
104		-119.140625
105		-111.328125
106		-123.046875
107		-115.234375
108		-126.953125
109		-117.187500
110		-130.859375
111		-121.093750
112		-130.859375
113		-125.000000
114		-134.765625
115		-128.906250
116		-136.718750
117		-132.812500
118		-142.578125
119		-132.812500
120		-144.531250
121		-134.765625
122		-146.484375
123		-138.671875
124		-150.390625
125		-142.578125
126		-150.390625
127		-144.531250
128		-154.296875
129		-146.484375
130		-154.296875
131		-150.390625
132		-156.250000
133		-154.296875
134		-162.109375
135		-154.296875
136		-162.109375
137		-156.250000
138		-164.062500
139		-158.203125
140		-166.015625
141		-158.203125
142		-167.968750
143		-160.156250
144		-169.921875
145		-162.109375
146		-169.921875
147		-164.062500
148		-169.921875
149		-166.015625
150		-171.875000
151		-167.968750
152		-173.828125
153		-166.015625
154		-173.828125
155		-167.968750
156		-175.781250
157		-167.968750
158		-175.781250
159		-169.921875
160		-175.781250
161		-169.921875
162		-175.781250
163		-169.921875
164		-173.828125
165		-171.875000
166		-173.828125
167		-171.875000
168		-175.781250
169		-167.968750
170		-175.781250
171		-169.921875
172		-175.781250
173		-167.968750
174		-175.781250
175		-167.968750
176		-173.828125
177		-167.968750
178		-173.828125
179		-166.015625
180		-169.921875
181		-166.015625
182		-169.921875
183		-166.015625
184		-167.968750
185		-162.109375
186		-167.968750
187		-162.109375
188		-167.968750
189		-160.156250
190		-166.015625
191		-158.203125
192		-164.062500
193		-156.250000
194		-160.156250
195		-154.296875
196		-160.156250
197		-154.296875
198		-156.250000
199		-152.343750
200		-154.296875
201		-148.437500
202		-152.343750
203		-144.531250
204		-150.390625
205		-142.578125
206		-146.484375
207		-140.625000
208		-144.531250
209		-136.718750
210		-140.625000
211		-134.765625
212		-140.625000
213		-130.859375
214		-136.718750
215		-128.906250
216		-130.859375
217		-126.953125
218		-128.906250
219		-123.046875
220		-126.953125
221		-117.187500
222		-121.093750
223		-113.281250
224		-119.140625
225		-111.328125
226		-115.234375
227		-107.421875
228		-111.328125
229		-103.515625
230		-107.421875
231		-101.562500
232		-101.562500
233		-95.703125
234		-97.656250
235		-91.796875
236		-95.703125
237		-87.890625
238		-91.796875
239		-82.031250
240		-87.890625
241		-78.125000
242		-83.984375
243		-74.218750
244		-80.078125
245		-70.312500
246		-74.218750
247		-66.406250
248		-70.312500
249		-62.500000
250		-64.453125
251		-58.593750
252		-60.546875
253		-52.734375
254		-58.593750
255		-46.875000
256		-52.734375
257		-44.921875
258		-48.828125
259		-39.062500
260		-42.968750
261		-35.156250
262		-39.062500
263		-29.296875
264		-35.156250
265		-27.343750
266		-29.296875
267		-23.437500
268		-23.437500
269		-17.578125
270		-21.484375
271		-11.718750
272		-17.578125
273		-7.812500
274		-13.671875
275		-3.906250
276		-5.859375
277		1.953125
278		-3.906250
279		3.906250
280		0.000000
281		9.765625
282		7.812500
283		13.671875
284		11.718750
285		17.578125
286		15.625000
287		23.437500
288		19.531250
289		27.343750
290		23.437500
291		31.250000
292		27.343750
293		35.156250
294		31.250000
295		39.062500
296		35.156250
297		44.921875
298		41.015625
299		46.875000
300		44.921875
301		50.781250
302		48.828125
303		54.687500
304		50.781250
305		60.546875
306		56.640625
307		64.453125
308		58.593750
309		66.406250
310		62.500000
311		70.312500
312		66.406250
313		74.218750
314		72.265625
315		76.171875
316		74.218750
317		80.078125
318		78.125000
319		85.937500
320		80.078125
321		87.890625
322		83.984375
323		91.796875
324		87.890625
325		93.750000
326		89.843750
327		97.656250
328		93.750000
329		101.562500
330		97.656250
331		103.515625
332		101.562500
333		105.468750
334		103.515625
335		109.375000
336		105.468750
337		111.328125
338		107.421875
339		115.234375
340		109.375000
341		117.187500
342		113.281250
343		119.140625
344		115.234375
345		123.046875
346		117.187500
347		123.046875
348		119.140625
349		125.000000
350		123.046875
351		128.906250
352		125.000000
353		130.859375
354		125.000000
355		132.812500
356		126.953125
357		134.765625
358		128.906250
359		138.671875
360		132.812500
361		138.671875
362		132.812500
363		140.625000
364		134.765625
365		142.578125
366		138.671875
367		142.578125
368		140.625000
369		142.578125
370		138.671875
371		146.484375
372		140.625000
373		148.437500
374		140.625000
375		148.437500
376		142.578125
377		150.390625
378		142.578125
379		150.390625
380		144.531250
381		152.343750
382		146.484375
383		150.390625
384		148.437500
385		152.343750
386		146.484375
387		152.343750
388		146.484375
389		154.296875
390		148.437500
391		154.296875
392		148.437500
393		154.296875
394		148.437500
395		154.296875
396		148.437500
397		156.250000
398		148.437500
399		154.296875
400		150.390625
401		154.296875
402		150.390625
403		154.296875
404		148.437500
405		154.296875
406		148.437500
407		156.250000
408		148.437500
409		154.296875
410		146.484375
411		154.296875
412		146.484375
413		154.296875
414		146.484375
415		154.296875
416		148.437500
417		150.390625
418		146.484375
419		150.390625
420		144.531250
421		150.390625
422		142.578125
423		150.390625
424		142.578125
425		148.437500
426		142.578125
427		148.437500
428		140.625000
429		148.437500
430		138.671875
431		146.484375
432		138.671875
433		144.531250
434		138.671875
435		142.578125
436		134.765625
437		140.625000
438		132.812500
439		140.625000
440		130.859375
441		138.671875
442		128.906250
443		136.718750
444		128.906250
445		134.765625
446		126.953125
447		132.812500
448		125.000000
449		130.859375
450		123.046875
451		126.953125
452		121.093750
453		125.000000
454		117.187500
455		123.046875
456		113.281250
457		123.046875
458		111.328125
459		119.140625
460		109.375000
461		115.234375
462		107.421875
463		113.281250
464		103.515625
465		111.328125
466		101.562500
467		107.421875
468		99.609375
469		103.515625
470		95.703125
471		101.562500
472		91.796875
473		99.609375
474		87.890625
475		95.703125
476		85.937500
477		93.750000
478		82.031250
479		89.843750
480		78.125000
481		85.937500
482		76.171875
483		82.031250
484		72.265625
485		78.125000
486		68.359375
487		74.218750
488		64.453125
489		72.265625
490		58.593750
491		68.359375
492		56.640625
493		64.453125
494		50.781250
495		60.546875
496		48.828125
497		56.640625
498		44.921875
499		52.734375
500		41.015625
501		46.875000
502		37.109375
503		42.968750
504		31.250000
505		39.062500
506		27.343750
507		35.156250
508		23.437500
509		31.250000
510		17.578125
511		27.343750
512		13.671875
513		23.437500
514		9.765625
515		19.531250
516		7.812500
517		15.625000
518		1.953125
519		9.765625
520		-3.906250
521		3.906250
522		-5.859375
523		1.953125
524		-11.718750
525		-1.953125
526		-15.625000
527		-7.812500
528		-21.484375
529		-11.718750
530		-25.390625
531		-13.671875
532		-29.296875
533		-19.531250
534		-33.203125
535		-27.343750
536		-37.109375
537		-31.250000
538		-42.968750
539		-35.156250
540		-46.875000
541		-39.062500
542		-52.734375
543		-42.968750
544		-54.687500
545		-46.875000
546		-58.593750
547		-52.734375
548		-66.406250
549		-56.640625
550		-68.359375
551		-60.546875
552		-72.265625
553		-66.406250
554		-76.171875
555		-70.312500
556		-82.031250
557		-72.265625
558		-85.937500
559		-76.171875
560		-89.843750
561		-80.078125
562		-93.750000
563		-85.937500
564		-97.656250
565		-89.843750
566		-99.609375
567		-93.750000
568		-103.515625
569		-97.656250
570		-107.421875
571		-101.562500
572		-113.281250
573		-103.515625
574		-117.187500
575		-109.375000
576		-119.140625
577		-111.328125
578		-123.046875
579		-115.234375
580		-126.953125
581		-119.140625
582		-128.906250
583		-121.093750
584		-130.859375
585		-125.000000
586		-134.765625
587		-128.906250
588		-138.671875
589		-130.859375
590		-140.625000
591		-134.765625
592		-144.531250
593		-136.718750
594		-146.484375
595		-138.671875
596		-150.390625
597		-142.578125
598		-152.343750
599		-144.531250
600		-152.343750
601		-146.484375
602		-154.296875
603		-150.390625
604		-160.156250
605		-152.343750
606		-160.156250
607		-154.296875
608		-162.109375
609		-156.250000
610		-166.015625
611		-158.203125
612		-166.015625
613		-160.156250
614		-167.968750
615		-160.156250
616		-167.968750
617		-162.109375
618		-167.968750
619		-164.062500
620		-169.921875
621		-166.015625
622		-171.875000
623		-166.015625
624		-173.828125
625		-166.015625
626		-173.828125
627		-167.968750
628		-173.828125
629		-167.968750
630		-175.781250
631		-167.968750
632		-175.781250
633		-167.968750
634		-173.828125
635		-169.921875
636		-173.828125
637		-169.921875
638		-175.781250
639		-169.921875
640		-175.781250
641		-167.968750
642		-175.781250
643		-167.968750
644		-175.781250
645		-167.968750
646		-173.828125
647		-167.968750
648		-173.828125
649		-166.015625
650		-171.875000
651		-166.015625
652		-169.921875
653		-166.015625
654		-167.968750
655		-166.015625
656		-169.921875
657		-162.109375
658		-167.968750
659		-160.156250
660		-166.015625
661		-160.156250
662		-164.062500
663		-158.203125
664		-162.109375
665		-156.250000
666		-160.156250
667		-154.296875
668		-158.203125
669		-152.343750
670		-154.296875
671		-150.390625
672		-152.343750
673		-146.484375
674		-152.343750
675		-144.531250
676		-148.437500
677		-142.578125
678		-146.484375
679		-138.671875
680		-142.578125
681		-136.718750
682		-140.625000
683		-132.812500
684		-138.671875
685		-132.812500
686		-134.765625
687		-128.906250
688		-130.859375
689		-125.000000
690		-126.953125
691		-121.093750
692		-125.000000
693		-117.187500
694		-121.093750
695		-113.281250
696		-119.140625
697		-111.328125
698		-113.281250
699		-107.421875
700		-109.375000
701		-103.515625
702		-105.468750
703		-99.609375
704		-101.562500
705		-95.703125
706		-97.656250
707		-89.843750
708		-95.703125
709		-85.937500
710		-91.796875
711		-82.031250
712		-87.890625
713		-80.078125
714		-83.984375
715		-74.218750
716		-78.125000
717		-70.312500
718		-72.265625
719		-66.406250
720		-68.359375
721		-62.500000
722		-64.453125
723		-56.640625
724		-60.546875
725		-52.734375
726		-54.687500
727		-48.828125
728		-52.734375
729		-42.968750
730		-46.875000
731		-39.062500
732		-42.968750
733		-33.203125
734		-39.062500
735		-31.250000
736		-33.203125
737		-27.343750
738		-27.343750
739		-21.484375
740		-25.390625
741		-15.625000
742		-19.531250
743		-11.718750
744		-17.578125
745		-7.812500
746		-11.718750
747		-1.953125
748		-5.859375
749		1.953125
750		-1.953125
751		5.859375
752		1.953125
753		9.765625
754		7.812500
755		13.671875
756		11.718750
757		19.531250
758		13.671875
759		23.437500
760		17.578125
761		27.343750
762		23.437500
763		33.203125
764		27.343750
765		37.109375
766		33.203125
767		39.062500
768		35.156250
769		42.968750
770		41.015625
771		46.875000
772		44.921875
773		52.734375
774		46.875000
775		56.640625
776		52.734375
777		60.546875
778		56.640625
779		64.453125
780		58.593750
781		68.359375
782		64.453125
783		72.265625
784		68.359375
785		74.218750
786		72.265625
787		78.125000
788		76.171875
789		82.031250
790		78.125000
791		85.937500
792		80.078125
793		87.890625
794		83.984375
795		91.796875
796		85.937500
797		95.703125
798		91.796875
799		99.609375
800		93.750000
801		103.515625
802		97.656250
803		103.515625
804		101.562500
805		105.468750
806		103.515625
807		111.328125
808		105.468750
809		113.281250
810		107.421875
811		115.234375
812		111.328125
813		117.187500
814		113.281250
815		121.093750
816		115.234375
817		123.046875
818		119.140625
819		125.000000
820		123.046875
821		126.953125
822		125.000000
823		128.906250
824		125.000000
825		132.812500
826		126.953125
827		134.765625
828		128.906250
829		136.718750
830		130.859375
831		138.671875
832		132.812500
833		138.671875
834		134.765625
835		140.625000
836		136.718750
837		140.625000
838		138.671875
839		142.578125
840		138.671875
841		146.484375
842		140.625000
843		146.484375
844		140.625000
845		148.437500
846		142.578125
847		148.437500
848		144.531250
849		150.390625
850		144.531250
851		150.390625
852		146.484375
853		152.343750
854		148.437500
855		152.343750
856		148.437500
857		152.343750
858		148.437500
859		154.296875
860		148.437500
861		154.296875
862		148.437500
863		154.296875
864		148.437500
865		156.250000
866		150.390625
867		156.250000
868		150.390625
869		156.250000
870		152.343750
871		154.296875
872		152.343750
873		154.296875
874		150.390625
875		156.250000
876		150.390625
877		156.250000
878		150.390625
879		156.250000
880		150.390625
881		156.250000
882		148.437500
883		156.250000
884		148.437500
885		154.296875
886		148.437500
887		154.296875
888		148.437500
889		152.343750
890		146.484375
891		152.343750
892		146.484375
893		152.343750
894		144.531250
895		150.390625
896		144.531250
897		150.390625
898		142.578125
899		148.437500
900		142.578125
901		148.437500
902		140.625000
903		146.484375
904		140.625000
905		144.531250
906		138.671875
907		142.578125
908		134.765625
909		142.578125
910		134.765625
911		140.625000
912		132.812500
913		138.671875
914		130.859375
915		136.718750
916		128.906250
917		136.718750
918		126.953125
919		134.765625
920		125.000000
921		130.859375
922		125.000000
923		128.906250
924		121.093750
925		126.953125
926		117.187500
927		125.000000
928		115.234375
929		123.046875
930		113.281250
931		119.140625
932		109.375000
933		117.187500
934		107.421875
935		115.234375
936		105.468750
937		113.281250
938		103.515625
939		107.421875
940		99.609375
941		105.468750
942		95.703125
943		103.515625
944		91.796875
945		99.609375
946		89.843750
947		97.656250
948		85.937500
949		93.750000
950		82.031250
951		89.843750
952		80.078125
953		85.937500
954		76.171875
955		82.031250
956		74.218750
957		78.125000
958		68.359375
959		76.171875
960		64.453125
961		72.265625
962		60.546875
963		68.359375
964		56.640625
965		64.453125
966		52.734375
967		60.546875
968		48.828125
969		56.640625
970		46.875000
971		54.687500
972		42.968750
973		48.828125
974		37.109375
975		44.921875
976		33.203125
977		41.015625
978		27.343750
979		37.109375
980		25.390625
981		33.203125
982		19.531250
983		29.296875
984		15.625000
985		23.437500
986		11.718750
987		21.484375
988		7.812500
989		15.625000
990		3.906250
991		9.765625
992		-1.953125
993		5.859375
994		-5.859375
995		3.906250
996		-11.718750
997		-1.953125
998		-15.625000
999		-5.859375
1000		-19.531250
1001		-9.765625
1002		-23.437500
1003		-13.671875
1004		-27.343750
1005		-21.484375
1006		-31.250000
1007		-25.390625
1008		-37.109375
1009		-29.296875
1010		-41.015625
1011		-33.203125
1012		-44.921875
1013		-37.109375
1014		-50.781250
1015		-41.015625
1016		-54.687500
1017		-46.875000
1018		-58.593750
1019		-48.828125
1020		-62.500000
1021		-54.687500
1022		-66.406250
1023		-60.546875
1024		-70.312500
1025		-64.453125
1026		-76.171875
1027		-68.359375
1028		-80.078125
1029		-72.265625
1030		-83.984375
1031		-76.171875
1032		-87.890625
1033		-80.078125
1034		-91.796875
1035		-83.984375
1036		-95.703125
1037		-87.890625
1038		-97.656250
1039		-93.750000
1040		-103.515625
1041		-97.656250
1042		-107.421875
1043		-101.562500
1044		-111.328125
1045		-103.515625
1046		-113.281250
1047		-107.421875
1048		-119.140625
1049		-111.328125
1050		-121.093750
1051		-115.234375
1052		-125.000000
1053		-117.187500
1054		-126.953125
1055		-121.093750
1056		-128.906250
1057		-125.000000
1058		-132.812500
1059		-128.906250
1060		-138.671875
1061		-128.906250
1062		-140.625000
1063		-132.812500
1064		-142.578125
1065		-134.765625
1066		-146.484375
1067		-138.671875
1068		-148.437500
1069		-140.625000
1070		-150.390625
1071		-144.531250
1072		-152.343750
1073		-146.484375
1074		-154.296875
1075		-150.390625
1076		-158.203125
1077		-150.390625
1078		-160.156250
1079		-152.343750
1080		-162.109375
1081		-154.296875
1082		-164.062500
1083		-156.250000
1084		-164.062500
1085		-158.203125
1086		-166.015625
1087		-160.156250
1088		-166.015625
1089		-162.109375
1090		-166.015625
1091		-164.062500
1092		-169.921875
1093		-164.062500
1094		-169.921875
1095		-164.062500
1096		-171.875000
1097		-166.015625
1098		-171.875000
1099		-166.015625
1100		-173.828125
1101		-166.015625
1102		-173.828125
1103		-166.015625
1104		-173.828125
1105		-166.015625
1106		-171.875000
1107		-169.921875
1108		-171.875000
1109		-169.921875
1110		-173.828125
1111		-167.968750
1112		-173.828125
1113		-167.968750
1114		-173.828125
1115		-167.968750
1116		-173.828125
1117		-166.015625
1118		-171.875000
1119		-166.015625
1120		-171.875000
1121		-166.015625
1122		-169.921875
1123		-166.015625
1124		-167.968750
1125		-164.062500
1126		-167.968750
1127		-162.109375
1128		-167.968750
1129		-160.156250
1130		-166.015625
1131		-160.156250
1132		-166.015625
1133		-158.203125
1134		-164.062500
1135		-156.250000
1136		-162.109375
1137		-154.296875
1138		-160.156250
1139		-154.296875
1140		-156.250000
1141		-152.343750
1142		-154.296875
1143		-148.437500
1144		-152.343750
1145		-144.531250
1146		-150.390625
1147		-142.578125
1148		-148.437500
1149		-140.625000
1150		-144.531250
1151		-138.671875
1152		-142.578125
1153		-134.765625
1154		-140.625000
1155		-132.812500
1156		-134.765625
1157		-130.859375
1158		-132.812500
1159		-126.953125
1160		-130.859375
1161		-123.046875
1162		-126.953125
1163		-119.140625
1164		-123.046875
1165		-115.234375
1166		-119.140625
1167		-113.281250
1168		-117.187500
1169		-109.375000
1170		-111.328125
1171		-105.468750
1172		-107.421875
1173		-101.562500
1174		-103.515625
1175		-99.609375
1176		-99.609375
1177		-93.750000
1178		-97.656250
1179		-89.843750
1180		-93.750000
1181		-85.937500
1182		-89.843750
1183		-82.031250
1184		-85.937500
1185		-78.125000
1186		-80.078125
1187		-72.265625
1188		-78.125000
1189		-70.312500
1190		-72.265625
1191		-64.453125
1192		-66.406250
1193		-60.546875
1194		-64.453125
1195		-54.687500
1196		-58.593750
1197		-50.781250
1198		-54.687500
1199		-46.875000
1200		-50.781250
1201		-41.015625
1202		-46.875000
1203		-37.109375
1204		-41.015625
1205		-33.203125
1206		-37.109375
1207		-29.296875
1208		-31.250000
1209		-25.390625
1210		-27.343750
1211		-19.531250
1212		-23.437500
1213		-15.625000
1214		-19.531250
1215		-9.765625
1216		-15.625000
1217		-5.859375
1218		-9.765625
1219		-1.953125
1220		-5.859375
1221		1.953125
1222		-1.953125
1223		5.859375
1224		3.906250
1225		9.765625
1226		9.765625
1227		15.625000
1228		11.718750
1229		19.531250
1230		15.625000
1231		25.390625
1232		19.531250
1233		29.296875
1234		23.437500
1235		33.203125
1236		29.296875
1237		37.109375
1238		33.203125
1239		41.015625
1240		39.062500
1241		44.921875
1242		42.968750
1243		48.828125
1244		44.921875
1245		52.734375
1246		48.828125
1247		56.640625
1248		54.687500
1249		60.546875
1250		56.640625
1251		64.453125
1252		60.546875
1253		70.312500
1254		64.453125
1255		72.265625
1256		68.359375
1257		74.218750
1258		72.265625
1259		78.125000
1260		76.171875
1261		82.031250
1262		78.125000
1263		87.890625
1264		82.031250
1265		89.843750
1266		85.937500
1267		91.796875
1268		87.890625
1269		95.703125
1270		91.796875
1271		99.609375
1272		95.703125
1273		101.562500
1274		99.609375
1275		103.515625
1276		101.562500
1277		107.421875
1278		103.515625
1279		111.328125
1280		105.468750
1281		113.281250
1282		109.375000
1283		117.187500
1284		111.328125
1285		121.093750
1286		115.234375
1287		121.093750
1288		117.187500
1289		123.046875
1290		119.140625
1291		125.000000
1292		123.046875
1293		126.953125
1294		125.000000
1295		130.859375
1296		126.953125
1297		132.812500
1298		126.953125
1299		134.765625
1300		128.906250
1301		136.718750
1302		130.859375
1303		138.671875
1304		132.812500
1305		140.625000
1306		134.765625
1307		140.625000
1308		138.671875
1309		142.578125
1310		138.671875
1311		144.531250
1312		138.671875
1313		146.484375
1314		140.625000
1315		148.437500
1316		142.578125
1317		148.437500
1318		142.578125
1319		150.390625
1320		144.531250
1321		150.390625
1322		144.531250
1323		150.390625
1324		148.437500
1325		150.390625
1326		148.437500
1327		152.343750
1328		146.484375
1329		154.296875
1330		148.437500
1331		154.296875
1332		148.437500
1333		156.250000
1334		148.437500
1335		156.250000
1336		150.390625
1337		156.250000
1338		150.390625
1339		158.203125
1340		150.390625
1341		156.250000
1342		152.343750
1343		154.296875
1344		150.390625
1345		156.250000
1346		150.390625
1347		158.203125
1348		150.390625
1349		156.250000
1350		148.437500
1351		156.250000
1352		150.390625
1353		156.250000
1354		148.437500
1355		156.250000
1356		148.437500
1357		154.296875
1358		150.390625
1359		152.343750
1360		148.437500
1361		152.343750
1362		146.484375
1363		154.296875
1364		146.484375
1365		152.343750
1366		144.531250
1367		152.343750
1368		144.531250
1369		150.390625
1370		142.578125
1371		150.390625
1372		142.578125
1373		148.437500
1374		142.578125
1375		148.437500
1376		140.625000
1377		144.531250
1378		138.671875
1379		144.531250
1380		136.718750
1381		142.578125
1382		134.765625
1383		140.625000
1384		132.812500
1385		140.625000
1386		130.859375
1387		136.718750
1388		128.906250
1389		136.718750
1390		126.953125
1391		134.765625
1392		125.000000
1393		130.859375
1394		123.046875
1395		128.906250
1396		121.093750
1397		128.906250
1398		117.187500
1399		125.000000
1400		115.234375
1401		123.046875
1402		115.234375
1403		121.093750
1404		111.328125
1405		119.140625
1406		107.421875
1407		115.234375
1408		107.421875
1409		111.328125
1410		103.515625
1411		109.375000
1412		97.656250
1413		105.468750
1414		95.703125
1415		105.468750
1416		93.750000
1417		101.562500
1418		89.843750
1419		97.656250
1420		87.890625
1421		93.750000
1422		83.984375
1423		91.796875
1424		82.031250
1425		87.890625
1426		78.125000
1427		83.984375
1428		72.265625
1429		80.078125
1430		68.359375
1431		76.171875
1432		66.406250
1433		74.218750
1434		62.500000
1435		70.312500
1436		58.593750
1437		66.406250
1438		52.734375
1439		62.500000
1440		50.781250
1441		58.593750
1442		46.875000
1443		52.734375
1444		42.968750
1445		48.828125
1446		37.109375
1447		46.875000
1448		33.203125
1449		41.015625
1450		29.296875
1451		39.062500
1452		25.390625
1453		35.156250
1454		21.484375
1455		29.296875
1456		17.578125
1457		25.390625
1458		13.671875
1459		21.484375
1460		9.765625
1461		15.625000
1462		3.906250
1463		11.718750
1464		0.000000
1465		7.812500
1466		-3.906250
1467		3.906250
1468		-9.765625
1469		-1.953125
1470		-13.671875
1471		-5.859375
1472		-17.578125
1473		-9.765625
1474		-21.484375
1475		-15.625000
1476		-25.390625
1477		-19.531250
1478		-31.250000
1479		-23.437500
1480		-37.109375
1481		-27.343750
1482		-39.062500
1483		-33.203125
1484		-46.875000
1485		-35.156250
1486		-48.828125
1487		-41.015625
1488		-54.687500
1489		-44.921875
1490		-58.593750
1491		-48.828125
1492		-60.546875
1493		-54.687500
1494		-64.453125
1495		-60.546875
1496		-72.265625
1497		-62.500000
1498		-74.218750
1499		-66.406250
1500		-80.078125
1501		-70.312500
1502		-82.031250
1503		-74.218750
1504		-87.890625
1505		-80.078125
1506		-91.796875
1507		-82.031250
1508		-93.750000
1509		-85.937500
1510		-97.656250
1511		-91.796875
1512		-103.515625
1513		-95.703125
1514		-107.421875
1515		-97.656250
1516		-109.375000
1517		-103.515625
1518		-115.234375
1519		-105.468750
1520		-119.140625
1521		-109.375000
1522		-121.093750
1523		-113.281250
1524		-125.000000
1525		-117.187500
1526		-126.953125
1527		-121.093750
1528		-128.906250
1529		-125.000000
1530		-132.812500
1531		-126.953125
1532		-136.718750
1533		-130.859375
1534		-140.625000
1535		-132.812500
1536		-140.625000
1537		-136.718750
1538		-144.531250
1539		-138.671875
1540		-146.484375
1541		-140.625000
1542		-148.437500
1543		-144.531250
1544		-150.390625
1545		-146.484375
1546		-154.296875
1547		-148.437500
1548		-156.250000
1549		-148.437500
1550		-158.203125
1551		-150.390625
1552		-160.156250
1553		-154.296875
1554		-162.109375
1555		-156.250000
1556		-164.062500
1557		-156.250000
1558		-164.062500
1559		-158.203125
1560		-166.015625
1561		-162.109375
1562		-167.968750
1563		-162.109375
1564		-169.921875
1565		-164.062500
1566		-169.921875
1567		-164.062500
1568		-171.875000
1569		-166.015625
1570		-171.875000
1571		-166.015625
1572		-171.875000
1573		-166.015625
1574		-173.828125
1575		-167.968750
1576		-171.875000
1577		-167.968750
1578		-171.875000
1579		-167.968750
1580		-173.828125
1581		-166.015625
1582		-173.828125
1583		-167.968750
1584		-173.828125
1585		-167.968750
1586		-173.828125
1587		-166.015625
1588		-173.828125
1589		-166.015625
1590		-171.875000
1591		-166.015625
1592		-171.875000
1593		-166.015625
1594		-167.968750
1595		-166.015625
1596		-167.968750
1597		-164.062500
1598		-167.968750
1599		-162.109375
1600		-167.968750
1601		-160.156250
1602		-166.015625
1603		-158.203125
1604		-164.062500
1605		-158.203125
1606		-164.062500
1607		-156.250000
1608		-162.109375
1609		-154.296875
1610		-158.203125
1611		-152.343750
1612		-156.250000
1613		-152.343750
1614		-154.296875
1615		-146.484375
1616		-152.343750
1617		-146.484375
1618		-150.390625
1619		-142.578125
1620		-148.437500
1621		-140.625000
1622		-144.531250
1623		-138.671875
1624		-142.578125
1625		-134.765625
1626		-140.625000
1627		-132.812500
1628		-134.765625
1629		-128.906250
1630		-130.859375
1631		-125.000000
1632		-130.859375
1633		-123.046875
1634		-126.953125
1635		-119.140625
1636		-125.000000
1637		-113.281250
1638		-119.140625
1639		-111.328125
1640		-117.187500
1641		-107.421875
1642		-113.281250
1643		-105.468750
1644		-107.421875
1645		-101.562500
1646		-103.515625
1647		-97.656250
1648		-101.562500
1649		-93.750000
1650		-97.656250
1651		-89.843750
1652		-93.750000
1653		-85.937500
1654		-89.843750
1655		-80.078125
1656		-83.984375
1657		-76.171875
1658		-82.031250
1659		-72.265625
1660		-76.171875
1661		-70.312500
1662		-70.312500
1663		-64.453125
1664		-66.406250
1665		-58.593750
1666		-64.453125
1667		-54.687500
1668		-58.593750
1669		-50.781250
1670		-54.687500
1671		-46.875000
1672		-50.781250
1673		-41.015625
1674		-46.875000
1675		-37.109375
1676		-41.015625
1677		-33.203125
1678		-35.156250
1679		-29.296875
1680		-31.250000
1681		-23.437500
1682		-29.296875
1683		-19.531250
1684		-23.437500
1685		-15.625000
1686		-19.531250
1687		-9.765625
1688		-15.625000
1689		-5.859375
1690		-9.765625
1691		-1.953125
1692		-5.859375
1693		1.953125
1694		0.000000
1695		5.859375
1696		3.906250
1697		11.718750
1698		9.765625
1699		15.625000
1700		13.671875
1701		21.484375
1702		17.578125
1703		25.390625
1704		21.484375
1705		29.296875
1706		25.390625
1707		33.203125
1708		29.296875
1709		39.062500
1710		33.203125
1711		41.015625
1712		39.062500
1713		44.921875
1714		42.968750
1715		48.828125
1716		44.921875
1717		54.687500
1718		50.781250
1719		58.593750
1720		52.734375
1721		60.546875
1722		56.640625
1723		64.453125
1724		60.546875
1725		68.359375
1726		64.453125
1727		72.265625
1728		70.312500
1729		76.171875
1730		74.218750
1731		78.125000
1732		74.218750
1733		83.984375
1734		80.078125
1735		87.890625
1736		82.031250
1737		89.843750
1738		85.937500
1739		93.750000
1740		87.890625
1741		95.703125
1742		91.796875
1743		99.609375
1744		95.703125
1745		101.562500
1746		99.609375
1747		103.515625
1748		101.562500
1749		107.421875
1750		103.515625
1751		111.328125
1752		105.468750
1753		113.281250
1754		109.375000
1755		117.187500
1756		111.328125
1757		119.140625
1758		115.234375
1759		121.093750
1760		115.234375
1761		123.046875
1762		121.093750
1763		125.000000
1764		123.046875
1765		128.906250
1766		123.046875
1767		130.859375
1768		125.000000
1769		132.812500
1770		126.953125
1771		134.765625
1772		128.906250
1773		136.718750
1774		132.812500
1775		138.671875
1776		132.812500
1777		140.625000
1778		136.718750
1779		140.625000
1780		138.671875
1781		142.578125
1782		138.671875
1783		144.531250
1784		138.671875
1785		146.484375
1786		140.625000
1787		148.437500
1788		142.578125
1789		148.437500
1790		142.578125
1791		150.390625
1792		144.531250
1793		150.390625
1794		146.484375
1795		150.390625
1796		148.437500
1797		150.390625
1798		146.484375
1799		152.343750
1800		148.437500
1801		154.296875
1802		148.437500
1803		154.296875
1804		148.437500
1805		154.296875
1806		148.437500
1807		156.250000
1808		150.390625
1809		156.250000
1810		150.390625
1811		156.250000
1812		152.343750
1813		154.296875
1814		152.343750
1815		154.296875
1816		150.390625
1817		156.250000
1818		150.390625
1819		156.250000
1820		150.390625
1821		156.250000
1822		150.390625
1823		156.250000
1824		148.437500
1825		156.250000
1826		148.437500
1827		156.250000
1828		150.390625
1829		154.296875
1830		150.390625
1831		152.343750
1832		148.437500
1833		154.296875
1834		146.484375
1835		152.343750
1836		146.484375
1837		152.343750
1838		144.531250
1839		152.343750
1840		144.531250
1841		150.390625
1842		142.578125
1843		148.437500
1844		142.578125
1845		148.437500
1846		142.578125
1847		146.484375
1848		138.671875
1849		144.531250
1850		138.671875
1851		144.531250
1852		134.765625
1853		142.578125
1854		134.765625
1855		140.625000
1856		132.812500
1857		140.625000
1858		130.859375
1859		136.718750
1860		128.906250
1861		136.718750
1862		128.906250
1863		132.812500
1864		125.000000
1865		130.859375
1866		123.046875
1867		128.906250
1868		121.093750
1869		126.953125
1870		117.187500
1871		125.000000
1872		115.234375
1873		123.046875
1874		111.328125
1875		121.093750
1876		109.375000
1877		119.140625
1878		109.375000
1879		115.234375
1880		105.468750
1881		111.328125
1882		101.562500
1883		107.421875
1884		97.656250
1885		105.468750
1886		95.703125
1887		103.515625
1888		93.750000
1889		99.609375
1890		87.890625
1891		97.656250
1892		85.937500
1893		93.750000
1894		83.984375
1895		89.843750
1896		80.078125
1897		85.937500
1898		76.171875
1899		82.031250
1900		72.265625
1901		80.078125
1902		68.359375
1903		76.171875
1904		66.406250
1905		72.265625
1906		60.546875
1907		68.359375
1908		56.640625
1909		64.453125
1910		52.734375
1911		62.500000
1912		50.781250
1913		56.640625
1914		46.875000
1915		52.734375
1916		39.062500
1917		48.828125
1918		37.109375
1919		44.921875
1920		31.250000
1921		42.968750
1922		29.296875
1923		37.109375
1924		23.437500
1925		31.250000
1926		19.531250
1927		27.343750
1928		17.578125
1929		23.437500
1930		11.718750
1931		19.531250
1932		5.859375
1933		13.671875
1934		1.953125
1935		9.765625
1936		-1.953125
1937		7.812500
1938		-5.859375
1939		1.953125
1940		-9.765625
1941		-1.953125
1942		-13.671875
1943		-5.859375
1944		-19.531250
1945		-11.718750
1946		-23.437500
1947		-15.625000
1948		-27.343750
1949		-21.484375
1950		-33.203125
1951		-25.390625
1952		-37.109375
1953		-29.296875
1954		-42.968750
1955		-33.203125
1956		-46.875000
1957		-37.109375
1958		-50.781250
1959		-41.015625
1960		-54.687500
1961		-46.875000
1962		-58.593750
1963		-50.781250
1964		-62.500000
1965		-56.640625
1966		-68.359375
1967		-60.546875
1968		-72.265625
1969		-64.453125
1970		-78.125000
1971		-68.359375
1972		-82.031250
1973		-72.265625
1974		-85.937500
1975		-76.171875
1976		-87.890625
1977		-80.078125
1978		-91.796875
1979		-83.984375
1980		-95.703125
1981		-89.843750
1982		-99.609375
1983		-93.750000
1984		-103.515625
1985		-97.656250
1986		-107.421875
1987		-99.609375
1988		-111.328125
1989		-103.515625
1990		-115.234375
1991		-107.421875
1992		-119.140625
1993		-111.328125
1994		-121.093750
1995		-113.281250
1996		-125.000000
1997		-117.187500
1998		-126.953125
1999		-121.093750
2000		-132.812500
2001		-125.000000
2002		-136.718750
2003		-126.953125
2004		-136.718750
2005		-128.906250
2006		-140.625000
2007		-134.765625
2008		-142.578125
2009		-136.718750
2010		-146.484375
2011		-138.671875
2012		-148.437500
2013		-140.625000
2014		-150.390625
2015		-146.484375
2016		-154.296875
2017		-148.437500
2018		-156.250000
2019		-148.437500
2020		-158.203125
2021		-150.390625
2022		-160.156250
2023		-152.343750
2024		-162.109375
2025		-154.296875
2026		-164.062500
2027		-156.250000
2028		-164.062500
2029		-158.203125
2030		-164.062500
2031		-160.156250
2032		-166.015625
2033		-162.109375
2034		-169.921875
2035		-162.109375
2036		-169.921875
2037		-164.062500
2038		-171.875000
2039		-164.062500
2040		-173.828125
2041		-166.015625
2042		-173.828125
2043		-167.968750
2044		-173.828125
2045		-167.968750
2046		-173.828125
2047		-167.968750
2048		-171.875000
2049		-169.921875
2050		-173.828125
2051		-167.968750
2052		-175.781250
2053		-167.968750
2054		-175.781250
2055		-167.968750
2056		-173.828125
2057		-167.968750
2058		-173.828125
2059		-167.968750
2060		-173.828125
2061		-167.968750
2062		-173.828125
2063		-166.015625
2064		-169.921875
2065		-167.968750
2066		-169.921875
2067		-166.015625
2068		-169.921875
2069		-164.062500
2070		-169.921875
2071		-162.109375
2072		-167.968750
2073		-162.109375
2074		-166.015625
2075		-160.156250
2076		-166.015625
2077		-158.203125
2078		-164.062500
2079		-156.250000
2080		-162.109375
2081		-156.250000
2082		-158.203125
2083		-154.296875
2084		-156.250000
2085		-150.390625
2086		-156.250000
2087		-148.437500
2088		-154.296875
2089		-146.484375
2090		-150.390625
2091		-144.531250
2092		-148.437500
2093		-140.625000
2094		-146.484375
2095		-138.671875
2096		-142.578125
2097		-136.718750
2098		-138.671875
2099		-134.765625
2100		-136.718750
2101		-130.859375
2102		-134.765625
2103		-126.953125
2104		-130.859375
2105		-123.046875
2106		-126.953125
2107		-121.093750
2108		-125.000000
2109		-117.187500
2110		-121.093750
2111		-113.281250
2112		-117.187500
2113		-109.375000
2114		-111.328125
2115		-107.421875
2116		-109.375000
2117		-103.515625
2118		-105.468750
2119		-97.656250
2120		-103.515625
2121		-93.750000
2122		-99.609375
2123		-89.843750
2124		-93.750000
2125		-85.937500
2126		-89.843750
2127		-82.031250
2128		-85.937500
2129		-76.171875
2130		-82.031250
2131		-74.218750
2132		-76.171875
2133		-70.312500
2134		-72.265625
2135		-64.453125
2136		-68.359375
2137		-60.546875
2138		-64.453125
2139		-56.640625
2140		-60.546875
2141		-50.781250
2142		-54.687500
2143		-46.875000
2144		-52.734375
2145		-42.968750
2146		-46.875000
2147		-39.062500
2148		-41.015625
2149		-35.156250
2150		-37.109375
2151		-31.250000
2152		-33.203125
2153		-25.390625
2154		-29.296875
2155		-19.531250
2156		-25.390625
2157		-15.625000
2158		-19.531250
2159		-9.765625
2160		-13.671875
2161		-7.812500
2162		-11.718750
2163		-1.953125
2164		-7.812500
2165		0.000000
2166		0.000000
2167		5.859375
2168		3.906250
2169		11.718750
2170		7.812500
2171		15.625000
2172		9.765625
2173		19.531250
2174		15.625000
2175		23.437500
2176		19.531250
2177		29.296875
2178		25.390625
2179		33.203125
2180		27.343750
2181		35.156250
2182		33.203125
2183		39.062500
2184		37.109375
2185		44.921875
2186		41.015625
2187		50.781250
2188		44.921875
2189		52.734375
2190		48.828125
2191		56.640625
2192		52.734375
2193		60.546875
2194		56.640625
2195		64.453125
2196		60.546875
2197		68.359375
2198		66.406250
2199		70.312500
2200		68.359375
2201		74.218750
2202		72.265625
2203		80.078125
2204		76.171875
2205		83.984375
2206		78.125000
2207		85.937500
2208		82.031250
2209		89.843750
2210		83.984375
2211		91.796875
2212		87.890625
2213		97.656250
2214		91.796875
2215		97.656250
2216		95.703125
2217		101.562500
2218		99.609375
2219		103.515625
2220		99.609375
2221		107.421875
2222		103.515625
2223		111.328125
2224		105.468750
2225		113.281250
2226		109.375000
2227		115.234375
2228		111.328125
2229		119.140625
2230		113.281250
2231		121.093750
2232		117.187500
2233		121.093750
2234		119.140625
2235		125.000000
2236		121.093750
2237		128.906250
2238		123.046875
2239		130.859375
2240		125.000000
2241		132.812500
2242		126.953125
2243		134.765625
2244		128.906250
2245		136.718750
2246		130.859375
2247		136.718750
2248		132.812500
2249		138.671875
2250		134.765625
2251		140.625000
2252		136.718750
2253		144.531250
2254		136.718750
2255		144.531250
2256		136.718750
2257		144.531250
2258		138.671875
2259		146.484375
2260		140.625000
2261		148.437500
2262		142.578125
2263		148.437500
2264		142.578125
2265		150.390625
2266		146.484375
2267		148.437500
2268		146.484375
2269		150.390625
2270		146.484375
2271		152.343750
2272		146.484375
2273		152.343750
2274		146.484375
2275		154.296875
2276		148.437500
2277		154.296875
2278		148.437500
2279		154.296875
2280		148.437500
2281		156.250000
2282		150.390625
2283		154.296875
2284		150.390625
2285		154.296875
2286		148.437500
2287		156.250000
2288		150.390625
2289		156.250000
2290		150.390625
2291		156.250000
2292		148.437500
2293		156.250000
2294		148.437500
2295		156.250000
2296		148.437500
2297		156.250000
2298		148.437500
2299		154.296875
2300		150.390625
2301		152.343750
2302		146.484375
2303		152.343750
2304		146.484375
2305		152.343750
2306		146.484375
2307		152.343750
2308		144.531250
2309		150.390625
2310		142.578125
2311		150.390625
2312		144.531250
2313		150.390625
2314		142.578125
2315		148.437500
2316		142.578125
2317		146.484375
2318		140.625000
2319		144.531250
2320		138.671875
2321		144.531250
2322		136.718750
2323		144.531250
2324		134.765625
2325		142.578125
2326		132.812500
2327		140.625000
2328		130.859375
2329		138.671875
2330		128.906250
2331		136.718750
2332		128.906250
2333		134.765625
2334		126.953125
2335		132.812500
2336		125.000000
2337		128.906250
2338		121.093750
2339		128.906250
2340		119.140625
2341		126.953125
2342		117.187500
2343		125.000000
2344		115.234375
2345		121.093750
2346		113.281250
2347		119.140625
2348		111.328125
2349		117.187500
2350		109.375000
2351		113.281250
2352		105.468750
2353		109.375000
2354		101.562500
2355		109.375000
2356		97.656250
2357		107.421875
2358		95.703125
2359		103.515625
2360		91.796875
2361		99.609375
2362		89.843750
2363		95.703125
2364		83.984375
2365		93.750000
2366		83.984375
2367		89.843750
2368		80.078125
2369		85.937500
2370		76.171875
2371		82.031250
2372		72.265625
2373		80.078125
2374		66.406250
2375		76.171875
2376		64.453125
2377		72.265625
2378		60.546875
2379		68.359375
2380		56.640625
2381		64.453125
2382		54.687500
2383		60.546875
2384		50.781250
2385		54.687500
2386		44.921875
2387		50.781250
2388		41.015625
2389		48.828125
2390		37.109375
2391		44.921875
2392		33.203125
2393		41.015625
2394		27.343750
2395		37.109375
2396		23.437500
2397		33.203125
2398		19.531250
2399		27.343750
2400		15.625000
2401		23.437500
2402		11.718750
2403		17.578125
2404		5.859375
2405		13.671875
2406		1.953125
2407		11.718750
2408		-1.953125
2409		5.859375
2410		-7.812500
2411		1.953125
2412		-11.718750
2413		-1.953125
2414		-15.625000
2415		-7.812500
2416		-19.531250
2417		-11.718750
2418		-23.437500
2419		-17.578125
2420		-29.296875
2421		-21.484375
2422		-33.203125
2423		-25.390625
2424		-39.062500
2425		-29.296875
2426		-41.015625
2427		-35.156250
2428		-46.875000
2429		-39.062500
2430		-50.781250
2431		-42.968750
2432		-54.687500
2433		-46.875000
2434		-58.593750
2435		-52.734375
2436		-62.500000
2437		-56.640625
2438		-68.359375
2439		-60.546875
2440		-74.218750
2441		-64.453125
2442		-76.171875
2443		-68.359375
2444		-82.031250
2445		-72.265625
2446		-83.984375
2447		-76.171875
2448		-89.843750
2449		-80.078125
2450		-91.796875
2451		-83.984375
2452		-95.703125
2453		-89.843750
2454		-99.609375
2455		-93.750000
2456		-105.468750
2457		-97.656250
2458		-109.375000
2459		-99.609375
2460		-111.328125
2461		-103.515625
2462		-115.234375
2463		-107.421875
2464		-119.140625
2465		-111.328125
2466		-121.093750
2467		-115.234375
2468		-125.000000
2469		-119.140625
2470		-128.906250
2471		-123.046875
2472		-130.859375
2473		-125.000000
2474		-136.718750
2475		-126.953125
2476		-138.671875
2477		-130.859375
2478		-140.625000
2479		-132.812500
2480		-142.578125
2481		-136.718750
2482		-146.484375
2483		-138.671875
2484		-148.437500
2485		-142.578125
2486		-150.390625
2487		-146.484375
2488		-154.296875
2489		-148.437500
2490		-156.250000
2491		-148.437500
2492		-158.203125
2493		-152.343750
2494		-160.156250
2495		-152.343750
2496		-162.109375
2497		-154.296875
2498		-164.062500
2499		-158.203125
2500		-164.062500
2501		-160.156250
2502		-166.015625
2503		-162.109375
2504		-167.968750
2505		-162.109375
2506		-171.875000
2507		-162.109375
2508		-171.875000
2509		-164.062500
2510		-171.875000
2511		-166.015625
2512		-173.828125
2513		-166.015625
2514		-173.828125
2515		-167.968750
2516		-173.828125
2517		-167.968750
2518		-173.828125
2519		-169.921875
2520		-173.828125
2521		-169.921875
2522		-175.781250
2523		-167.968750
2524		-175.781250
2525		-169.921875
2526		-175.781250
2527		-169.921875
2528		-175.781250
2529		-169.921875
2530		-175.781250
2531		-169.921875
2532		-173.828125
2533		-167.968750
2534		-173.828125
2535		-167.968750
2536		-171.875000
2537		-167.968750
2538		-171.875000
2539		-166.015625
2540		-171.875000
2541		-166.015625
2542		-171.875000
2543		-164.062500
2544		-167.968750
2545		-162.109375
2546		-167.968750
2547		-162.109375
2548		-166.015625
2549		-158.203125
2550		-164.062500
2551		-158.203125
2552		-160.156250
2553		-156.250000
2554		-160.156250
2555		-154.296875
2556		-158.203125
2557		-150.390625
2558		-158.203125
2559		-148.437500
2560		-154.296875
2561		-146.484375
2562		-150.390625
2563		-144.531250
2564		-148.437500
2565		-142.578125
2566		-146.484375
2567		-138.671875
2568		-142.578125
2569		-138.671875
2570		-138.671875
2571		-134.765625
2572		-136.718750
2573		-130.859375
2574		-134.765625
2575		-126.953125
2576		-132.812500
2577		-125.000000
2578		-128.906250
2579		-121.093750
2580		-126.953125
2581		-117.187500
2582		-121.093750
2583		-113.281250
2584		-119.140625
2585		-111.328125
2586		-113.281250
2587		-107.421875
2588		-109.375000
2589		-101.562500
2590		-105.468750
2591		-97.656250
2592		-103.515625
2593		-93.750000
2594		-99.609375
2595		-89.843750
2596		-95.703125
2597		-87.890625
2598		-91.796875
2599		-82.031250
2600		-85.937500
2601		-78.125000
2602		-80.078125
2603		-74.218750
2604		-76.171875
2605		-70.312500
2606		-74.218750
2607		-64.453125
2608		-68.359375
2609		-60.546875
2610		-64.453125
2611		-56.640625
2612		-60.546875
2613		-52.734375
2614		-56.640625
2615		-46.875000
2616		-50.781250
2617		-42.968750
2618		-46.875000
2619		-41.015625
2620		-41.015625
2621		-35.156250
2622		-37.109375
2623		-29.296875
2624		-33.203125
2625		-25.390625
2626		-29.296875
2627		-19.531250
2628		-23.437500
2629		-15.625000
2630		-21.484375
2631		-11.718750
2632		-15.625000
2633		-7.812500
2634		-11.718750
2635		-3.906250
2636		-5.859375
2637		0.000000
2638		0.000000
2639		5.859375
2640		1.953125
2641		9.765625
2642		5.859375
2643		15.625000
2644		9.765625
2645		19.531250
2646		13.671875
2647		23.437500
2648		19.531250
2649		27.343750
2650		23.437500
2651		33.203125
2652		29.296875
2653		35.156250
2654		33.203125
2655		39.062500
2656		37.109375
2657		44.921875
2658		41.015625
2659		48.828125
2660		42.968750
2661		52.734375
2662		48.828125
2663		56.640625
2664		52.734375
2665		60.546875
2666		56.640625
2667		64.453125
2668		58.593750
2669		66.406250
2670		64.453125
2671		70.312500
2672		68.359375
2673		76.171875
2674		70.312500
2675		78.125000
2676		74.218750
2677		82.031250
2678		78.125000
2679		85.937500
2680		80.078125
2681		87.890625
2682		83.984375
2683		91.796875
2684		87.890625
2685		93.750000
2686		91.796875
2687		97.656250
2688		95.703125
2689		99.609375
2690		97.656250
2691		105.468750
2692		99.609375
2693		107.421875
2694		103.515625
2695		111.328125
2696		105.468750
2697		113.281250
2698		109.375000
2699		115.234375
2700		111.328125
2701		117.187500
2702		113.281250
2703		119.140625
2704		117.187500
2705		121.093750
2706		119.140625
2707		125.000000
2708		121.093750
2709		126.953125
2710		123.046875
2711		128.906250
2712		125.000000
2713		130.859375
2714		126.953125
2715		132.812500
2716		128.906250
2717		136.718750
2718		130.859375
2719		136.718750
2720		132.812500
2721		136.718750
2722		134.765625
2723		140.625000
2724		134.765625
2725		142.578125
2726		136.718750
2727		144.531250
2728		138.671875
2729		144.531250
2730		138.671875
2731		144.531250
2732		140.625000
2733		148.437500
2734		142.578125
2735		148.437500
2736		144.531250
2737		148.437500
2738		146.484375
2739		148.437500
2740		144.531250
2741		150.390625
2742		144.531250
2743		152.343750
2744		146.484375
2745		152.343750
2746		146.484375
2747		152.343750
2748		146.484375
2749		154.296875
2750		148.437500
2751		154.296875
2752		148.437500
2753		154.296875
2754		150.390625
2755		154.296875
2756		150.390625
2757		154.296875
2758		148.437500
2759		156.250000
2760		148.437500
2761		154.296875
2762		148.437500
2763		154.296875
2764		148.437500
2765		154.296875
2766		148.437500
2767		154.296875
2768		148.437500
2769		156.250000
2770		150.390625
2771		152.343750
2772		148.437500
2773		152.343750
2774		146.484375
2775		154.296875
2776		146.484375
2777		152.343750
2778		144.531250
2779		152.343750
2780		144.531250
2781		150.390625
2782		142.578125
2783		150.390625
2784		142.578125
2785		148.437500
2786		142.578125
2787		148.437500
2788		142.578125
2789		144.531250
2790		138.671875
2791		144.531250
2792		136.718750
2793		142.578125
2794		134.765625
2795		142.578125
2796		132.812500
2797		140.625000
2798		132.812500
2799		140.625000
2800		130.859375
2801		138.671875
2802		128.906250
2803		134.765625
2804		128.906250
2805		132.812500
2806		126.953125
2807		130.859375
2808		123.046875
2809		130.859375
2810		121.093750
2811		126.953125
2812		117.187500
2813		126.953125
2814		115.234375
2815		123.046875
2816		113.281250
2817		121.093750
2818		109.375000
2819		119.140625
2820		109.375000
2821		113.281250
2822		107.421875
2823		111.328125
2824		103.515625
2825		109.375000
2826		99.609375
2827		107.421875
2828		97.656250
2829		103.515625
2830		93.750000
2831		101.562500
2832		91.796875
2833		97.656250
2834		85.937500
2835		95.703125
2836		85.937500
2837		91.796875
2838		82.031250
2839		85.937500
2840		78.125000
2841		83.984375
2842		72.265625
2843		82.031250
2844		70.312500
2845		78.125000
2846		66.406250
2847		74.218750
2848		62.500000
2849		70.312500
2850		58.593750
2851		68.359375
2852		54.687500
2853		62.500000
2854		52.734375
2855		58.593750
2856		46.875000
2857		54.687500
2858		42.968750
2859		50.781250
2860		37.109375
2861		46.875000
2862		35.156250
2863		44.921875
2864		29.296875
2865		39.062500
2866		25.390625
2867		33.203125
2868		21.484375
2869		29.296875
2870		19.531250
2871		25.390625
2872		13.671875
2873		19.531250
2874		7.812500
2875		15.625000
2876		3.906250
2877		13.671875
2878		0.000000
2879		7.812500
2880		-5.859375
2881		3.906250
2882		-7.812500
2883		-1.953125
2884		-13.671875
2885		-3.906250
2886		-15.625000
2887		-9.765625
2888		-21.484375
2889		-15.625000
2890		-27.343750
2891		-19.531250
2892		-31.250000
2893		-23.437500
2894		-35.156250
2895		-27.343750
2896		-41.015625
2897		-31.250000
2898		-44.921875
2899		-35.156250
2900		-48.828125
2901		-39.062500
2902		-54.687500
2903		-44.921875
2904		-56.640625
2905		-50.781250
2906		-60.546875
2907		-54.687500
2908		-66.406250
2909		-58.593750
2910		-70.312500
2911		-62.500000
2912		-74.218750
2913		-66.406250
2914		-80.078125
2915		-70.312500
2916		-82.031250
2917		-74.218750
2918		-87.890625
2919		-78.125000
2920		-89.843750
2921		-82.031250
2922		-93.750000
2923		-87.890625
2924		-97.656250
2925		-91.796875
2926		-103.515625
2927		-93.750000
2928		-105.468750
2929		-99.609375
2930		-109.375000
2931		-101.562500
2932		-113.281250
2933		-105.468750
2934		-117.187500
2935		-109.375000
2936		-121.093750
2937		-113.281250
2938		-123.046875
2939		-117.187500
2940		-125.000000
2941		-121.093750
2942		-130.859375
2943		-123.046875
2944		-134.765625
2945		-125.000000
2946		-136.718750
2947		-128.906250
2948		-138.671875
2949		-132.812500
2950		-142.578125
2951		-134.765625
2952		-144.531250
2953		-138.671875
2954		-146.484375
2955		-140.625000
2956		-148.437500
2957		-144.531250
2958		-152.343750
2959		-146.484375
2960		-156.250000
2961		-148.437500
2962		-158.203125
2963		-150.390625
2964		-160.156250
2965		-152.343750
2966		-162.109375
2967		-154.296875
2968		-164.062500
2969		-156.250000
2970		-166.015625
2971		-158.203125
2972		-164.062500
2973		-162.109375
2974		-167.968750
2975		-162.109375
2976		-169.921875
2977		-164.062500
2978		-169.921875
2979		-164.062500
2980		-171.875000
2981		-166.015625
2982		-173.828125
2983		-166.015625
2984		-173.828125
2985		-167.968750
2986		-175.781250
2987		-167.968750
2988		-173.828125
2989		-167.968750
2990		-173.828125
2991		-169.921875
2992		-175.781250
2993		-169.921875
2994		-175.781250
2995		-169.921875
2996		-175.781250
2997		-169.921875
2998		-175.781250
2999		-169.921875
3000		-175.781250
3001		-169.921875
3002		-175.781250
3003		-167.968750
3004		-173.828125
3005		-169.921875
3006		-171.875000
3007		-169.921875
3008		-173.828125
3009		-166.015625
3010		-171.875000
3011		-166.015625
3012		-171.875000
3013		-166.015625
3014		-171.875000
3015		-164.062500
3016		-169.921875
3017		-162.109375
3018		-167.968750
3019		-162.109375
3020		-166.015625
3021		-160.156250
3022		-164.062500
3023		-160.156250
3024		-162.109375
3025		-158.203125
3026		-162.109375
3027		-154.296875
3028		-160.156250
3029		-152.343750
3030		-156.250000
3031		-148.437500
3032		-154.296875
3033		-148.437500
3034		-152.343750
3035		-144.531250
3036		-150.390625
3037		-142.578125
3038		-146.484375
3039		-140.625000
3040		-142.578125
3041		-138.671875
3042		-140.625000
3043		-132.812500
3044		-138.671875
3045		-130.859375
3046		-136.718750
3047		-126.953125
3048		-130.859375
3049		-125.000000
3050		-128.906250
3051		-121.093750
3052		-125.000000
3053		-117.187500
3054		-123.046875
3055		-115.234375
3056		-117.187500
3057		-111.328125
3058		-113.281250
3059		-107.421875
3060		-111.328125
3061		-103.515625
3062		-107.421875
3063		-99.609375
3064		-103.515625
3065		-93.750000
3066		-101.562500
3067		-91.796875
3068		-95.703125
3069		-85.937500
3070		-91.796875
3071		-83.984375
3072		-87.890625
3073		-80.078125
3074		-82.031250
3075		-76.171875
3076		-78.125000
3077		-70.312500
3078		-76.171875
3079		-66.406250
3080		-68.359375
3081		-60.546875
3082		-66.406250
3083		-58.593750
3084		-60.546875
3085		-52.734375
3086		-56.640625
3087		-48.828125
3088		-52.734375
3089		-44.921875
3090		-46.875000
3091		-41.015625
3092		-42.968750
3093		-35.156250
3094		-39.062500
3095		-31.250000
3096		-35.156250
3097		-25.390625
3098		-29.296875
3099		-21.484375
3100		-25.390625
3101		-15.625000
3102		-19.531250
3103		-11.718750
3104		-15.625000
3105		-7.812500
3106		-9.765625
3107		-3.906250
3108		-5.859375
3109		0.000000
3110		-1.953125
3111		5.859375
3112		1.953125
3113		9.765625
3114		5.859375
3115		13.671875
3116		9.765625
3117		19.531250
3118		13.671875
3119		25.390625
3120		17.578125
3121		27.343750
3122		23.437500
3123		31.250000
3124		29.296875
3125		35.156250
3126		33.203125
3127		41.015625
3128		35.156250
3129		42.968750
3130		41.015625
3131		48.828125
3132		42.968750
3133		52.734375
3134		48.828125
3135		56.640625
3136		50.781250
3137		58.593750
3138		56.640625
3139		62.500000
3140		60.546875
3141		66.406250
3142		64.453125
3143		70.312500
3144		66.406250
3145		74.218750
3146		70.312500
3147		78.125000
3148		74.218750
3149		82.031250
3150		76.171875
3151		83.984375
3152		80.078125
3153		87.890625
3154		83.984375
3155		91.796875
3156		85.937500
3157		93.750000
3158		91.796875
3159		97.656250
3160		93.750000
3161		101.562500
3162		95.703125
3163		105.468750
3164		99.609375
3165		107.421875
3166		101.562500
3167		109.375000
3168		105.468750
3169		113.281250
3170		107.421875
3171		115.234375
3172		109.375000
3173		117.187500
3174		113.281250
3175		119.140625
3176		117.187500
3177		123.046875
3178		117.187500
3179		125.000000
3180		119.140625
3181		126.953125
3182		121.093750
3183		128.906250
3184		125.000000
3185		130.859375
3186		125.000000
3187		132.812500
3188		128.906250
3189		134.765625
3190		130.859375
3191		134.765625
3192		132.812500
3193		136.718750
3194		132.812500
3195		140.625000
3196		134.765625
3197		140.625000
3198		136.718750
3199		142.578125
3200		138.671875
3201		144.531250
3202		138.671875
3203		146.484375
3204		140.625000
3205		146.484375
3206		140.625000
3207		146.484375
3208		144.531250
3209		148.437500
3210		144.531250
3211		148.437500
3212		144.531250
3213		150.390625
3214		146.484375
3215		150.390625
3216		146.484375
3217		150.390625
3218		146.484375
3219		152.343750
3220		148.437500
3221		152.343750
3222		148.437500
3223		154.296875
3224		150.390625
3225		152.343750
3226		150.390625
3227		152.343750
3228		148.437500
3229		154.296875
3230		148.437500
3231		154.296875
3232		148.437500
3233		154.296875
3234		148.437500
3235		154.296875
3236		148.437500
3237		154.296875
3238		148.437500
3239		154.296875
3240		148.437500
3241		154.296875
3242		148.437500
3243		152.343750
3244		146.484375
3245		152.343750
3246		146.484375
3247		152.343750
3248		146.484375
3249		152.343750
3250		144.531250
3251		150.390625
3252		142.578125
3253		150.390625
3254		142.578125
3255		148.437500
3256		142.578125
3257		148.437500
3258		142.578125
3259		146.484375
3260		140.625000
3261		144.531250
3262		138.671875
3263		144.531250
3264		136.718750
3265		142.578125
3266		134.765625
3267		142.578125
3268		132.812500
3269		140.625000
3270		132.812500
3271		140.625000
3272		130.859375
3273		136.718750
3274		130.859375
3275		134.765625
3276		128.906250
3277		132.812500
3278		123.046875
3279		130.859375
3280		123.046875
3281		128.906250
3282		121.093750
3283		126.953125
3284		117.187500
3285		125.000000
3286		115.234375
3287		123.046875
3288		113.281250
3289		121.093750
3290		111.328125
3291		117.187500
3292		109.375000
3293		113.281250
3294		105.468750
3295		111.328125
3296		103.515625
3297		109.375000
3298		99.609375
3299		107.421875
3300		95.703125
3301		103.515625
3302		93.750000
3303		101.562500
3304		89.843750
3305		97.656250
3306		85.937500
3307		93.750000
3308		85.937500
3309		89.843750
3310		82.031250
3311		87.890625
3312		76.171875
3313		83.984375
3314		74.218750
3315		82.031250
3316		68.359375
3317		78.125000
3318		66.406250
3319		74.218750
3320		60.546875
3321		70.312500
3322		58.593750
3323		66.406250
3324		56.640625
3325		62.500000
3326		52.734375
3327		58.593750
3328		44.921875
3329		52.734375
3330		42.968750
3331		50.781250
3332		37.109375
3333		46.875000
3334		35.156250
3335		42.968750
3336		29.296875
3337		39.062500
3338		25.390625
3339		35.156250
3340		23.437500
3341		31.250000
3342		19.531250
3343		25.390625
3344		13.671875
3345		21.484375
3346		7.812500
3347		15.625000
3348		3.906250
3349		13.671875
3350		0.000000
3351		7.812500
3352		-3.906250
3353		3.906250
3354		-7.812500
3355		0.000000
3356		-13.671875
3357		-3.906250
3358		-15.625000
3359		-9.765625
3360		-21.484375
3361		-15.625000
3362		-27.343750
3363		-19.531250
3364		-31.250000
3365		-23.437500
3366		-37.109375
3367		-27.343750
3368		-39.062500
3369		-31.250000
3370		-44.921875
3371		-35.156250
3372		-48.828125
3373		-39.062500
3374		-52.734375
3375		-44.921875
3376		-56.640625
3377		-50.781250
3378		-60.546875
3379		-54.687500
3380		-66.406250
3381		-56.640625
3382		-70.312500
3383		-62.500000
3384		-74.218750
3385		-66.406250
3386		-80.078125
3387		-70.312500
3388		-83.984375
3389		-74.218750
3390		-87.890625
3391		-78.125000
3392		-89.843750
3393		-83.984375
3394		-93.750000
3395		-87.890625
3396		-99.609375
3397		-91.796875
3398		-103.515625
3399		-93.750000
3400		-105.468750
3401		-97.656250
3402		-111.328125
3403		-103.515625
3404		-115.234375
3405		-105.468750
3406		-117.187500
3407		-109.375000
3408		-119.140625
3409		-113.281250
3410		-123.046875
3411		-117.187500
3412		-128.906250
3413		-121.093750
3414		-130.859375
3415		-125.000000
3416		-134.765625
3417		-126.953125
3418		-136.718750
3419		-128.906250
3420		-140.625000
3421		-132.812500
3422		-142.578125
3423		-134.765625
3424		-144.531250
3425		-136.718750
3426		-146.484375
3427		-142.578125
3428		-148.437500
3429		-144.531250
3430		-152.343750
3431		-146.484375
3432		-156.250000
3433		-148.437500
3434		-158.203125
3435		-150.390625
3436		-160.156250
3437		-152.343750
3438		-162.109375
3439		-156.250000
3440		-164.062500
3441		-156.250000
3442		-164.062500
3443		-160.156250
3444		-166.015625
3445		-162.109375
3446		-167.968750
3447		-162.109375
3448		-169.921875
3449		-162.109375
3450		-171.875000
3451		-164.062500
3452		-171.875000
3453		-166.015625
3454		-173.828125
3455		-166.015625
3456		-173.828125
3457		-167.968750
3458		-173.828125
3459		-169.921875
3460		-173.828125
3461		-169.921875
3462		-175.781250
3463		-171.875000
3464		-177.734375
3465		-169.921875
3466		-175.781250
3467		-167.968750
3468		-175.781250
3469		-169.921875
3470		-175.781250
3471		-169.921875
3472		-175.781250
3473		-169.921875
3474		-175.781250
3475		-169.921875
3476		-173.828125
3477		-169.921875
3478		-171.875000
3479		-169.921875
3480		-173.828125
3481		-167.968750
3482		-173.828125
3483		-166.015625
3484		-171.875000
3485		-166.015625
3486		-171.875000
3487		-164.062500
3488		-169.921875
3489		-164.062500
3490		-167.968750
3491		-162.109375
3492		-166.015625
3493		-160.156250
3494		-164.062500
3495		-160.156250
3496		-162.109375
3497		-156.250000
3498		-162.109375
3499		-154.296875
3500		-160.156250
3501		-152.343750
3502		-158.203125
3503		-150.390625
3504		-154.296875
3505		-148.437500
3506		-152.343750
3507		-144.531250
3508		-150.390625
3509		-142.578125
3510		-146.484375
3511		-140.625000
3512		-142.578125
3513		-138.671875
3514		-140.625000
3515		-134.765625
3516		-138.671875
3517		-130.859375
3518		-136.718750
3519		-126.953125
3520		-132.812500
3521		-125.000000
3522		-128.906250
3523		-121.093750
3524		-126.953125
3525		-117.187500
3526		-121.093750
3527		-115.234375
3528		-117.187500
3529		-111.328125
3530		-113.281250
3531		-107.421875
3532		-111.328125
3533		-101.562500
3534		-107.421875
3535		-99.609375
3536		-103.515625
3537		-93.750000
3538		-99.609375
3539		-91.796875
3540		-95.703125
3541		-85.937500
3542		-89.843750
3543		-83.984375
3544		-85.937500
3545		-80.078125
3546		-82.031250
3547		-74.218750
3548		-78.125000
3549		-70.312500
3550		-74.218750
3551		-66.406250
3552		-70.312500
3553		-60.546875
3554		-66.406250
3555		-58.593750
3556		-60.546875
3557		-52.734375
3558		-56.640625
3559		-48.828125
3560		-50.781250
3561		-44.921875
3562		-46.875000
3563		-41.015625
3564		-42.968750
3565		-35.156250
3566		-39.062500
3567		-29.296875
3568		-35.156250
3569		-25.390625
3570		-29.296875
3571		-19.531250
3572		-25.390625
3573		-17.578125
3574		-21.484375
3575		-11.718750
3576		-17.578125
3577		-9.765625
3578		-9.765625
3579		-3.906250
3580		-5.859375
3581		1.953125
3582		-3.906250
3583		5.859375
3584		0.000000
3585		9.765625
3586		5.859375
3587		15.625000
3588		9.765625
3589		19.531250
3590		13.671875
3591		23.437500
3592		19.531250
3593		27.343750
3594		23.437500
3595		29.296875
3596		29.296875
3597		35.156250
3598		31.250000
3599		39.062500
3600		35.156250
3601		42.968750
3602		41.015625
3603		46.875000
3604		42.968750
3605		52.734375
3606		46.875000
3607		56.640625
3608		50.781250
3609		60.546875
3610		54.687500
3611		62.500000
3612		60.546875
3613		66.406250
3614		64.453125
3615		70.312500
3616		66.406250
3617		74.218750
3618		70.312500
3619		78.125000
3620		74.218750
3621		82.031250
3622		76.171875
3623		85.937500
3624		80.078125
3625		89.843750
3626		83.984375
3627		89.843750
3628		87.890625
3629		93.750000
3630		91.796875
3631		97.656250
3632		93.750000
3633		101.562500
3634		95.703125
3635		103.515625
3636		99.609375
3637		107.421875
3638		101.562500
3639		109.375000
3640		105.468750
3641		111.328125
3642		107.421875
3643		115.234375
3644		111.328125
3645		115.234375
3646		115.234375
3647		119.140625
3648		115.234375
3649		123.046875
3650		117.187500
3651		125.000000
3652		119.140625
3653		126.953125
3654		121.093750
3655		130.859375
3656		123.046875
3657		132.812500
3658		126.953125
3659		132.812500
3660		126.953125
3661		134.765625
3662		130.859375
3663		134.765625
3664		132.812500
3665		138.671875
3666		132.812500
3667		140.625000
3668		134.765625
3669		142.578125
3670		136.718750
3671		142.578125
3672		138.671875
3673		144.531250
3674		138.671875
3675		146.484375
3676		140.625000
3677		146.484375
3678		142.578125
3679		146.484375
3680		144.531250
3681		148.437500
3682		144.531250
3683		150.390625
3684		144.531250
3685		152.343750
3686		144.531250
3687		152.343750
3688		144.531250
3689		152.343750
3690		146.484375
3691		154.296875
3692		146.484375
3693		154.296875
3694		148.437500
3695		154.296875
3696		150.390625
3697		152.343750
3698		148.437500
3699		154.296875
3700		148.437500
3701		154.296875
3702		148.437500
3703		154.296875
3704		148.437500
3705		154.296875
3706		148.437500
3707		154.296875
3708		148.437500
3709		154.296875
3710		148.437500
3711		154.296875
3712		150.390625
3713		152.343750
3714		148.437500
3715		152.343750
3716		146.484375
3717		154.296875
3718		146.484375
3719		154.296875
3720		144.531250
3721		152.343750
3722		144.531250
3723		152.343750
3724		144.531250
3725		150.390625
3726		142.578125
3727		150.390625
3728		144.531250
3729		148.437500
3730		142.578125
3731		146.484375
3732		140.625000
3733		146.484375
3734		138.671875
3735		146.484375
3736		136.718750
3737		144.531250
3738		136.718750
3739		142.578125
3740		134.765625
3741		140.625000
3742		132.812500
3743		138.671875
3744		132.812500
3745		138.671875
3746		130.859375
3747		134.765625
3748		128.906250
3749		132.812500
3750		125.000000
3751		132.812500
3752		123.046875
3753		130.859375
3754		121.093750
3755		126.953125
3756		119.140625
3757		126.953125
3758		117.187500
3759		123.046875
3760		115.234375
3761		121.093750
3762		113.281250
3763		117.187500
3764		109.375000
3765		115.234375
3766		105.468750
3767		113.281250
3768		103.515625
3769		109.375000
3770		101.562500
3771		107.421875
3772		97.656250
3773		105.468750
3774		93.750000
3775		101.562500
3776		89.843750
3777		99.609375
3778		87.890625
3779		95.703125
3780		85.937500
3781		89.843750
3782		82.031250
3783		87.890625
3784		78.125000
3785		85.937500
3786		74.218750
3787		82.031250
3788		68.359375
3789		78.125000
3790		66.406250
3791		74.218750
3792		62.500000
3793		70.312500
3794		58.593750
3795		66.406250
3796		56.640625
3797		62.500000
3798		50.781250
3799		58.593750
3800		46.875000
3801		54.687500
3802		42.968750
3803		50.781250
3804		39.062500
3805		46.875000
3806		35.156250
3807		42.968750
3808		29.296875
3809		39.062500
3810		27.343750
3811		35.156250
3812		23.437500
3813		29.296875
3814		19.531250
3815		25.390625
3816		13.671875
3817		21.484375
3818		9.765625
3819		19.531250
3820		5.859375
3821		13.671875
3822		0.000000
3823		7.812500
3824		-3.906250
3825		5.859375
3826		-7.812500
3827		0.000000
3828		-11.718750
3829		-3.906250
3830		-15.625000
3831		-9.765625
3832		-21.484375
3833		-13.671875
3834		-27.343750
3835		-17.578125
3836		-31.250000
3837		-21.484375
3838		-35.156250
3839		-27.343750
3840		-39.062500
3841		-29.296875
3842		-42.968750
3843		-33.203125
3844		-48.828125
3845		-39.062500
3846		-50.781250
3847		-44.921875
3848		-56.640625
3849		-50.781250
3850		-60.546875
3851		-54.687500
3852		-66.406250
3853		-56.640625
3854		-70.312500
3855		-60.546875
3856		-74.218750
3857		-64.453125
3858		-80.078125
3859		-70.312500
3860		-82.031250
3861		-74.218750
3862		-85.937500
3863		-78.125000
3864		-89.843750
3865		-83.984375
3866		-93.750000
3867		-87.890625
3868		-97.656250
3869		-89.843750
3870		-101.562500
3871		-93.750000
3872		-105.468750
3873		-97.656250
3874		-109.375000
3875		-101.562500
3876		-113.281250
3877		-105.468750
3878		-115.234375
3879		-109.375000
3880		-119.140625
3881		-113.281250
3882		-123.046875
3883		-117.187500
3884		-126.953125
3885		-119.140625
3886		-130.859375
3887		-123.046875
3888		-134.765625
3889		-126.953125
3890		-136.718750
3891		-128.906250
3892		-140.625000
3893		-132.812500
3894		-142.578125
3895		-134.765625
3896		-144.531250
3897		-138.671875
3898		-146.484375
3899		-142.578125
3900		-150.390625
3901		-144.531250
3902		-152.343750
3903		-146.484375
3904		-156.250000
3905		-148.437500
3906		-156.250000
3907		-150.390625
3908		-160.156250
3909		-152.343750
3910		-162.109375
3911		-154.296875
3912		-162.109375
3913		-156.250000
3914		-164.062500
3915		-160.156250
3916		-166.015625
3917		-162.109375
3918		-167.968750
3919		-162.109375
3920		-169.921875
3921		-164.062500
3922		-171.875000
3923		-164.062500
3924		-171.875000
3925		-166.015625
3926		-173.828125
3927		-166.015625
3928		-173.828125
3929		-167.968750
3930		-171.875000
3931		-169.921875
3932		-173.828125
3933		-169.921875
3934		-175.781250
3935		-169.921875
3936		-175.781250
3937		-169.921875
3938		-175.781250
3939		-169.921875
3940		-175.781250
3941		-169.921875
3942		-175.781250
3943		-169.921875
3944		-175.781250
3945		-169.921875
3946		-175.781250
3947		-169.921875
3948		-173.828125
3949		-169.921875
3950		-173.828125
3951		-167.968750
3952		-173.828125
3953		-167.968750
3954		-173.828125
3955		-166.015625
3956		-171.875000
3957		-164.062500
3958		-171.875000
3959		-164.062500
3960		-169.921875
3961		-162.109375
3962		-167.968750
3963		-162.109375
3964		-164.062500
3965		-160.156250
3966		-164.062500
3967		-158.203125
3968		-164.062500
3969		-156.250000
3970		-162.109375
3971		-154.296875
3972		-160.156250
3973		-150.390625
3974		-156.250000
3975		-150.390625
3976		-156.250000
3977		-146.484375
3978		-154.296875
3979		-144.531250
3980		-148.437500
3981		-144.531250
3982		-146.484375
3983		-140.625000
3984		-142.578125
3985		-136.718750
3986		-140.625000
3987		-132.812500
3988		-138.671875
3989		-130.859375
3990		-134.765625
3991		-126.953125
3992		-132.812500
3993		-125.000000
3994		-128.906250
3995		-121.093750
3996		-125.000000
3997		-117.187500
3998		-121.093750
3999		-115.234375
4000		-117.187500
4001		-111.328125
4002		-115.234375
4003		-105.468750
4004		-109.375000
4005		-101.562500
4006		-105.468750
4007		-99.609375
4008		-103.515625
4009		-95.703125
4010		-99.609375
4011		-89.843750
4012		-93.750000
4013		-87.890625
4014		-89.843750
4015		-83.984375
4016		-85.937500
4017		-80.078125
4018		-82.031250
4019		-74.218750
4020		-78.125000
4021		-68.359375
4022		-74.218750
4023		-66.406250
4024		-70.312500
4025		-60.546875
4026		-64.453125
4027		-56.640625
4028		-60.546875
4029		-52.734375
4030		-56.640625
4031		-48.828125
4032		-50.781250
4033		-44.921875
4034		-46.875000
4035		-39.062500
4036		-42.968750
4037		-35.156250
4038		-39.062500
4039		-29.296875
4040		-35.156250
4041		-25.390625
4042		-29.296875
4043		-19.531250
4044		-25.390625
4045		-15.625000
4046		-21.484375
4047		-11.718750
4048		-13.671875
4049		-7.812500
4050		-9.765625
4051		-3.906250
4052		-7.812500
4053		0.000000
4054		-1.953125
4055		5.859375
4056		1.953125
4057		11.718750
4058		7.812500
4059		13.671875
4060		11.718750
4061		17.578125
4062		15.625000
4063		23.437500
4064		21.484375
4065		27.343750
4066		25.390625
4067		31.250000
4068		29.296875
4069		35.156250
4070		33.203125
4071		39.062500
4072		35.156250
4073		44.921875
4074		39.062500
4075		48.828125
4076		44.921875
4077		52.734375
4078		48.828125
4079		56.640625
4080		52.734375
4081		58.593750
4082		56.640625
4083		62.500000
4084		60.546875
4085		66.406250
4086		62.500000
4087		72.265625
4088		66.406250
4089		74.218750
4090		70.312500
4091		78.125000
4092		74.218750
4093		82.031250
4094		78.125000
4095		85.937500
4096		82.031250
4097		87.890625
4098		85.937500
4099		89.843750
4100		87.890625
4101		93.750000
4102		91.796875
4103		97.656250
4104		93.750000
4105		101.562500
4106		95.703125
4107		103.515625
4108		99.609375
4109		107.421875
4110		103.515625
4111		109.375000
4112		103.515625
4113		111.328125
4114		107.421875
4115		113.281250
4116		111.328125
4117		117.187500
4118		113.281250
4119		119.140625
4120		115.234375
4121		123.046875
4122		117.187500
4123		125.000000
4124		121.093750
4125		126.953125
4126		121.093750
4127		128.906250
4128		123.046875
4129		130.859375
4130		125.000000
4131		132.812500
4132		128.906250
4133		132.812500
4134		130.859375
4135		134.765625
4136		132.812500
4137		138.671875
4138		132.812500
4139		140.625000
4140		134.765625
4141		142.578125
4142		136.718750
4143		142.578125
4144		136.718750
4145		142.578125
4146		138.671875
4147		144.531250
4148		140.625000
4149		144.531250
4150		142.578125
4151		146.484375
4152		142.578125
4153		148.437500
4154		142.578125
4155		150.390625
4156		144.531250
4157		150.390625
4158		144.531250
4159		150.390625
4160		144.531250
4161		152.343750
4162		146.484375
4163		152.343750
4164		146.484375
4165		152.343750
4166		148.437500
4167		152.343750
4168		148.437500
4169		152.343750
4170		148.437500
4171		154.296875
4172		148.437500
4173		154.296875
4174		148.437500
4175		154.296875
4176		148.437500
4177		154.296875
4178		146.484375
4179		154.296875
4180		148.437500
4181		154.296875
4182		148.437500
4183		152.343750
4184		148.437500
4185		152.343750
4186		146.484375
4187		152.343750
4188		146.484375
4189		152.343750
4190		146.484375
4191		152.343750
4192		144.531250
4193		152.343750
4194		144.531250
4195		150.390625
4196		144.531250
4197		150.390625
4198		144.531250
4199		150.390625
4200		142.578125
4201		146.484375
4202		140.625000
4203		146.484375
4204		138.671875
4205		146.484375
4206		138.671875
4207		144.531250
4208		136.718750
4209		142.578125
4210		134.765625
4211		140.625000
4212		132.812500
4213		140.625000
4214		132.812500
4215		138.671875
4216		130.859375
4217		134.765625
4218		128.906250
4219		132.812500
4220		125.000000
4221		132.812500
4222		123.046875
4223		130.859375
4224		121.093750
4225		128.906250
4226		119.140625
4227		126.953125
4228		117.187500
4229		125.000000
4230		113.281250
4231		123.046875
4232		113.281250
4233		119.140625
4234		111.328125
4235		115.234375
4236		107.421875
4237		113.281250
4238		103.515625
4239		111.328125
4240		101.562500
4241		109.375000
4242		97.656250
4243		105.468750
4244		95.703125
4245		103.515625
4246		91.796875
4247		99.609375
4248		89.843750
4249		97.656250
4250		87.890625
4251		91.796875
4252		83.984375
4253		89.843750
4254		78.125000
4255		87.890625
4256		74.218750
4257		83.984375
4258		72.265625
4259		80.078125
4260		68.359375
4261		78.125000
4262		64.453125
4263		72.265625
4264		62.500000
4265		68.359375
4266		58.593750
4267		64.453125
4268		54.687500
4269		60.546875
4270		50.781250
4271		56.640625
4272		44.921875
4273		54.687500
4274		41.015625
4275		48.828125
4276		37.109375
4277		44.921875
4278		33.203125
4279		41.015625
4280		29.296875
4281		37.109375
4282		25.390625
4283		33.203125
4284		21.484375
4285		27.343750
4286		15.625000
4287		23.437500
4288		11.718750
4289		21.484375
4290		7.812500
4291		15.625000
4292		1.953125
4293		11.718750
4294		-1.953125
4295		7.812500
4296		-5.859375
4297		3.906250
4298		-9.765625
4299		-1.953125
4300		-13.671875
4301		-7.812500
4302		-17.578125
4303		-11.718750
4304		-23.437500
4305		-15.625000
4306		-27.343750
4307		-19.531250
4308		-31.250000
4309		-23.437500
4310		-37.109375
4311		-29.296875
4312		-41.015625
4313		-33.203125
4314		-46.875000
4315		-37.109375
4316		-48.828125
4317		-42.968750
4318		-52.734375
4319		-46.875000
4320		-58.593750
4321		-50.781250
4322		-64.453125
4323		-54.687500
4324		-66.406250
4325		-60.546875
4326		-70.312500
4327		-64.453125
4328		-74.218750
4329		-68.359375
4330		-80.078125
4331		-70.312500
4332		-82.031250
4333		-76.171875
4334		-85.937500
4335		-82.031250
4336		-91.796875
4337		-85.937500
4338		-95.703125
4339		-87.890625
4340		-99.609375
4341		-91.796875
4342		-105.468750
4343		-95.703125
4344		-107.421875
4345		-99.609375
4346		-111.328125
4347		-103.515625
4348		-113.281250
4349		-107.421875
4350		-117.187500
4351		-111.328125
4352		-121.093750
4353		-115.234375
4354		-125.000000
4355		-119.140625
4356		-126.953125
4357		-119.140625
4358		-132.812500
4359		-125.000000
4360		-136.718750
4361		-126.953125
4362		-138.671875
4363		-130.859375
4364		-140.625000
4365		-132.812500
4366		-142.578125
4367		-136.718750
4368		-144.531250
4369		-140.625000
4370		-148.437500
4371		-142.578125
4372		-152.343750
4373		-144.531250
4374		-154.296875
4375		-146.484375
4376		-156.250000
4377		-148.437500
4378		-158.203125
4379		-150.390625
4380		-160.156250
4381		-154.296875
4382		-162.109375
4383		-156.250000
4384		-162.109375
4385		-158.203125
4386		-164.062500
4387		-160.156250
4388		-167.968750
4389		-162.109375
4390		-169.921875
4391		-162.109375
4392		-171.875000
4393		-164.062500
4394		-171.875000
4395		-166.015625
4396		-173.828125
4397		-166.015625
4398		-173.828125
4399		-166.015625
4400		-173.828125
4401		-167.968750
4402		-173.828125
4403		-169.921875
4404		-175.781250
4405		-169.921875
4406		-175.781250
4407		-169.921875
4408		-177.734375
4409		-169.921875
4410		-177.734375
4411		-169.921875
4412		-177.734375
4413		-169.921875
4414		-177.734375
4415		-169.921875
4416		-177.734375
4417		-171.875000
4418		-173.828125
4419		-171.875000
4420		-175.781250
4421		-169.921875
4422		-175.781250
4423		-167.968750
4424		-173.828125
4425		-167.968750
4426		-173.828125
4427		-166.015625
4428		-173.828125
4429		-166.015625
4430		-171.875000
4431		-166.015625
4432		-169.921875
4433		-164.062500
4434		-167.968750
4435		-164.062500
4436		-166.015625
4437		-162.109375
4438		-164.062500
4439		-158.203125
4440		-164.062500
4441		-156.250000
4442		-162.109375
4443		-154.296875
4444		-160.156250
4445		-152.343750
4446		-158.203125
4447		-150.390625
4448		-156.250000
4449		-148.437500
4450		-152.343750
4451		-146.484375
4452		-148.437500
4453		-144.531250
4454		-146.484375
4455		-140.625000
4456		-144.531250
4457		-136.718750
4458		-142.578125
4459		-134.765625
4460		-138.671875
4461		-130.859375
4462		-136.718750
4463		-128.906250
4464		-130.859375
4465		-125.000000
4466		-128.906250
4467		-121.093750
4468		-125.000000
4469		-119.140625
4470		-121.093750
4471		-115.234375
4472		-119.140625
4473		-111.328125
4474		-115.234375
4475		-105.468750
4476		-111.328125
4477		-101.562500
4478		-107.421875
4479		-99.609375
4480		-103.515625
4481		-95.703125
4482		-99.609375
4483		-91.796875
4484		-93.750000
4485		-87.890625
4486		-89.843750
4487		-83.984375
4488		-85.937500
4489		-78.125000
4490		-82.031250
4491		-74.218750
4492		-78.125000
4493		-70.312500
4494		-74.218750
4495		-66.406250
4496		-70.312500
4497		-60.546875
4498		-64.453125
4499		-56.640625
4500		-60.546875
4501		-52.734375
4502		-54.687500
4503		-48.828125
4504		-50.781250
4505		-42.968750
4506		-46.875000
4507		-39.062500
4508		-42.968750
4509		-35.156250
4510		-37.109375
4511		-29.296875
4512		-35.156250
4513		-25.390625
4514		-31.250000
4515		-21.484375
4516		-25.390625
4517		-15.625000
4518		-19.531250
4519		-13.671875
4520		-15.625000
4521		-9.765625
4522		-11.718750
4523		-3.906250
4524		-7.812500
4525		0.000000
4526		-3.906250
4527		5.859375
4528		1.953125
4529		9.765625
4530		5.859375
4531		13.671875
4532		9.765625
4533		17.578125
4534		15.625000
4535		21.484375
4536		19.531250
4537		25.390625
4538		23.437500
4539		31.250000
4540		27.343750
4541		35.156250
4542		31.250000
4543		41.015625
4544		37.109375
4545		44.921875
4546		41.015625
4547		48.828125
4548		42.968750
4549		50.781250
4550		46.875000
4551		54.687500
4552		52.734375
4553		58.593750
4554		56.640625
4555		62.500000
4556		60.546875
4557		66.406250
4558		62.500000
4559		70.312500
4560		66.406250
4561		74.218750
4562		68.359375
4563		78.125000
4564		74.218750
4565		82.031250
4566		76.171875
4567		83.984375
4568		80.078125
4569		85.937500
4570		85.937500
4571		89.843750
4572		87.890625
4573		95.703125
4574		89.843750
4575		97.656250
4576		93.750000
4577		101.562500
4578		95.703125
4579		105.468750
4580		99.609375
4581		107.421875
4582		101.562500
4583		109.375000
4584		105.468750
4585		111.328125
4586		109.375000
4587		113.281250
4588		111.328125
4589		117.187500
4590		113.281250
4591		119.140625
4592		115.234375
4593		121.093750
4594		117.187500
4595		125.000000
4596		119.140625
4597		126.953125
4598		121.093750
4599		128.906250
4600		123.046875
4601		130.859375
4602		126.953125
4603		130.859375
4604		128.906250
4605		132.812500
4606		128.906250
4607		136.718750
4608		130.859375
4609		138.671875
4610		132.812500
4611		138.671875
4612		134.765625
4613		140.625000
4614		134.765625
4615		142.578125
4616		136.718750
4617		144.531250
4618		140.625000
4619		144.531250
4620		140.625000
4621		144.531250
4622		142.578125
4623		146.484375
4624		140.625000
4625		148.437500
4626		142.578125
4627		148.437500
4628		144.531250
4629		150.390625
4630		144.531250
4631		150.390625
4632		144.531250
4633		152.343750
4634		146.484375
4635		152.343750
4636		148.437500
4637		152.343750
4638		148.437500
4639		152.343750
4640		146.484375
4641		154.296875
4642		148.437500
4643		154.296875
4644		148.437500
4645		154.296875
4646		146.484375
4647		154.296875
4648		146.484375
4649		154.296875
4650		148.437500
4651		154.296875
4652		148.437500
4653		154.296875
4654		148.437500
4655		152.343750
4656		146.484375
4657		152.343750
4658		146.484375
4659		154.296875
4660		144.531250
4661		152.343750
4662		144.531250
4663		152.343750
4664		144.531250
4665		150.390625
4666		142.578125
4667		150.390625
4668		142.578125
4669		150.390625
4670		142.578125
4671		146.484375
4672		142.578125
4673		146.484375
4674		140.625000
4675		146.484375
4676		138.671875
4677		146.484375
4678		136.718750
4679		144.531250
4680		134.765625
4681		142.578125
4682		134.765625
4683		140.625000
4684		132.812500
4685		140.625000
4686		132.812500
4687		136.718750
4688		130.859375
4689		134.765625
4690		126.953125
4691		132.812500
4692		125.000000
4693		132.812500
4694		123.046875
4695		130.859375
4696		121.093750
4697		128.906250
4698		117.187500
4699		126.953125
4700		117.187500
4701		123.046875
4702		115.234375
4703		121.093750
4704		113.281250
4705		117.187500
4706		109.375000
4707		115.234375
4708		107.421875
4709		113.281250
4710		103.515625
4711		111.328125
4712		101.562500
4713		109.375000
4714		97.656250
4715		105.468750
4716		93.750000
4717		103.515625
4718		91.796875
4719		99.609375
4720		89.843750
4721		95.703125
4722		85.937500
4723		91.796875
4724		80.078125
4725		87.890625
4726		78.125000
4727		85.937500
4728		76.171875
4729		83.984375
4730		72.265625
4731		80.078125
4732		66.406250
4733		76.171875
4734		64.453125
4735		72.265625
4736		62.500000
4737		70.312500
4738		58.593750
4739		62.500000
4740		52.734375
4741		58.593750
4742		48.828125
4743		56.640625
4744		44.921875
4745		52.734375
4746		41.015625
4747		48.828125
4748		37.109375
4749		44.921875
4750		33.203125
4751		41.015625
4752		29.296875
4753		37.109375
4754		25.390625
4755		31.250000
4756		21.484375
4757		27.343750
4758		15.625000
4759		23.437500
4760		9.765625
4761		19.531250
4762		5.859375
4763		15.625000
4764		1.953125
4765		9.765625
4766		-1.953125
4767		7.812500
4768		-5.859375
4769		1.953125
4770		-9.765625
4771		-1.953125
4772		-13.671875
4773		-7.812500
4774		-19.531250
4775		-11.718750
4776		-25.390625
4777		-15.625000
4778		-29.296875
4779		-21.484375
4780		-33.203125
4781		-23.437500
4782		-39.062500
4783		-29.296875
4784		-41.015625
4785		-35.156250
4786		-44.921875
4787		-39.062500
4788		-48.828125
4789		-42.968750
4790		-54.687500
4791		-48.828125
4792		-60.546875
4793		-50.781250
4794		-64.453125
4795		-56.640625
4796		-68.359375
4797		-60.546875
4798		-72.265625
4799		-64.453125
4800		-78.125000
4801		-68.359375
4802		-80.078125
4803		-74.218750
4804		-83.984375
4805		-78.125000
4806		-87.890625
4807		-82.031250
4808		-93.750000
4809		-85.937500
4810		-95.703125
4811		-89.843750
4812		-101.562500
4813		-91.796875
4814		-105.468750
4815		-97.656250
4816		-109.375000
4817		-101.562500
4818		-111.328125
4819		-103.515625
4820		-115.234375
4821		-107.421875
4822		-117.187500
4823		-111.328125
4824		-123.046875
4825		-117.187500
4826		-126.953125
4827		-117.187500
4828		-130.859375
4829		-121.093750
4830		-132.812500
4831		-125.000000
4832		-136.718750
4833		-128.906250
4834		-138.671875
4835		-130.859375
4836		-140.625000
4837		-134.765625
4838		-144.531250
4839		-138.671875
4840		-146.484375
4841		-142.578125
4842		-150.390625
4843		-142.578125
4844		-154.296875
4845		-144.531250
4846		-156.250000
4847		-148.437500
4848		-156.250000
4849		-150.390625
4850		-158.203125
4851		-152.343750
4852		-162.109375
4853		-154.296875
4854		-162.109375
4855		-156.250000
4856		-164.062500
4857		-160.156250
4858		-166.015625
4859		-160.156250
4860		-169.921875
4861		-162.109375
4862		-169.921875
4863		-164.062500
4864		-171.875000
4865		-164.062500
4866		-171.875000
4867		-166.015625
4868		-173.828125
4869		-167.968750
4870		-173.828125
4871		-167.968750
4872		-173.828125
4873		-169.921875
4874		-175.781250
4875		-171.875000
4876		-177.734375
4877		-169.921875
4878		-177.734375
4879		-169.921875
4880		-177.734375
4881		-171.875000
4882		-177.734375
4883		-171.875000
4884		-177.734375
4885		-171.875000
4886		-177.734375
4887		-171.875000
4888		-175.781250
4889		-173.828125
4890		-175.781250
4891		-171.875000
4892		-175.781250
4893		-171.875000
4894		-175.781250
4895		-169.921875
4896		-173.828125
4897		-169.921875
4898		-173.828125
4899		-167.968750
4900		-171.875000
4901		-167.968750
4902		-171.875000
4903		-166.015625
4904		-169.921875
4905		-166.015625
4906		-167.968750
4907		-164.062500
4908		-166.015625
4909		-160.156250
4910		-167.968750
4911		-160.156250
4912		-164.062500
4913		-156.250000
4914		-164.062500
4915		-154.296875
4916		-160.156250
4917		-154.296875
4918		-158.203125
4919		-150.390625
4920		-156.250000
4921		-150.390625
4922		-152.343750
4923		-148.437500
4924		-150.390625
4925		-144.531250
4926		-146.484375
4927		-140.625000
4928		-146.484375
4929		-136.718750
4930		-142.578125
4931		-134.765625
4932		-138.671875
4933		-132.812500
4934		-136.718750
4935		-128.906250
4936		-132.812500
4937		-125.000000
4938		-130.859375
4939		-123.046875
4940		-125.000000
4941		-119.140625
4942		-121.093750
4943		-115.234375
4944		-119.140625
4945		-111.328125
4946		-115.234375
4947		-107.421875
4948		-113.281250
4949		-103.515625
4950		-109.375000
4951		-99.609375
4952		-105.468750
4953		-95.703125
4954		-99.609375
4955		-93.750000
4956		-95.703125
4957		-89.843750
4958		-89.843750
4959		-83.984375
4960		-87.890625
4961		-78.125000
4962		-83.984375
4963		-74.218750
4964		-80.078125
4965		-70.312500
4966		-74.218750
4967		-64.453125
4968		-70.312500
4969		-62.500000
4970		-66.406250
4971		-58.593750
4972		-60.546875
4973		-54.687500
4974		-56.640625
4975		-48.828125
4976		-50.781250
4977		-44.921875
4978		-48.828125
4979		-41.015625
4980		-44.921875
4981		-35.156250
4982		-39.062500
4983		-29.296875
4984		-35.156250
4985		-27.343750
4986		-31.250000
4987		-21.484375
4988		-25.390625
4989		-19.531250
4990		-19.531250
4991		-13.671875
4992		-15.625000
4993		-7.812500
4994		-13.671875
4995		-3.906250
4996		-7.812500
4997		1.953125
4998		-3.906250
4999		5.859375
5000		1.953125
5001		9.765625
5002		5.859375
5003		13.671875
5004		9.765625
5005		17.578125
5006		15.625000
5007		21.484375
5008		19.531250
5009		25.390625
5010		23.437500
5011		31.250000
5012		27.343750
5013		35.156250
5014		31.250000
5015		39.062500
5016		35.156250
5017		42.968750
5018		39.062500
5019		46.875000
5020		42.968750
5021		52.734375
5022		46.875000
5023		54.687500
5024		52.734375
5025		58.593750
5026		56.640625
5027		62.500000
5028		58.593750
5029		66.406250
5030		62.500000
5031		70.312500
5032		64.453125
5033		74.218750
5034		68.359375
5035		78.125000
5036		74.218750
5037		82.031250
5038		76.171875
5039		83.984375
5040		82.031250
5041		85.937500
5042		83.984375
5043		89.843750
5044		85.937500
5045		93.750000
5046		89.843750
5047		97.656250
5048		91.796875
5049		101.562500
5050		95.703125
5051		103.515625
5052		97.656250
5053		105.468750
5054		101.562500
5055		109.375000
5056		105.468750
5057		109.375000
5058		107.421875
5059		113.281250
5060		111.328125
5061		115.234375
5062		111.328125
5063		119.140625
5064		113.281250
5065		121.093750
5066		115.234375
5067		125.000000
5068		119.140625
5069		125.000000
5070		119.140625
5071		128.906250
5072		123.046875
5073		128.906250
5074		126.953125
5075		130.859375
5076		128.906250
5077		132.812500
5078		128.906250
5079		134.765625
5080		130.859375
5081		136.718750
5082		130.859375
5083		138.671875
5084		132.812500
5085		140.625000
5086		134.765625
5087		142.578125
5088		136.718750
5089		142.578125
5090		138.671875
5091		142.578125
5092		140.625000
5093		144.531250
5094		140.625000
5095		146.484375
5096		140.625000
5097		146.484375
5098		142.578125
5099		148.437500
5100		142.578125
5101		150.390625
5102		144.531250
5103		150.390625
5104		142.578125
5105		152.343750
5106		146.484375
5107		150.390625
5108		148.437500
5109		150.390625
5110		146.484375
5111		152.343750
5112		146.484375
5113		154.296875
5114		146.484375
5115		154.296875
5116		146.484375
5117		154.296875
5118		146.484375
5119		154.296875
5120		148.437500
5121		154.296875
5122		146.484375
5123		154.296875
5124		148.437500
5125		152.343750
5126		148.437500
5127		152.343750
5128		146.484375
5129		152.343750
5130		144.531250
5131		152.343750
5132		146.484375
5133		152.343750
5134		144.531250
5135		150.390625
5136		144.531250
5137		150.390625
5138		142.578125
5139		150.390625
5140		144.531250
5141		148.437500
5142		142.578125
5143		146.484375
5144		140.625000
5145		146.484375
5146		138.671875
5147		146.484375
5148		138.671875
5149		144.531250
5150		136.718750
5151		142.578125
5152		134.765625
5153		142.578125
5154		132.812500
5155		140.625000
5156		132.812500
5157		138.671875
5158		132.812500
5159		136.718750
5160		130.859375
5161		134.765625
5162		126.953125
5163		134.765625
5164		125.000000
5165		132.812500
5166		123.046875
5167		130.859375
5168		121.093750
5169		128.906250
5170		119.140625
5171		126.953125
5172		115.234375
5173		123.046875
5174		115.234375
5175		119.140625
5176		113.281250
5177		117.187500
5178		109.375000
5179		115.234375
5180		105.468750
5181		113.281250
5182		103.515625
5183		111.328125
5184		99.609375
5185		109.375000
5186		97.656250
5187		105.468750
5188		95.703125
5189		103.515625
5190		93.750000
5191		99.609375
5192		89.843750
5193		93.750000
5194		83.984375
5195		91.796875
5196		82.031250
5197		89.843750
5198		78.125000
5199		85.937500
5200		74.218750
5201		83.984375
5202		70.312500
5203		78.125000
5204		68.359375
5205		76.171875
5206		64.453125
5207		72.265625
5208		60.546875
5209		66.406250
5210		56.640625
5211		62.500000
5212		52.734375
5213		60.546875
5214		48.828125
5215		56.640625
5216		42.968750
5217		52.734375
5218		39.062500
5219		48.828125
5220		37.109375
5221		44.921875
5222		33.203125
5223		41.015625
5224		29.296875
5225		35.156250
5226		25.390625
5227		31.250000
5228		19.531250
5229		27.343750
5230		15.625000
5231		25.390625
5232		9.765625
5233		17.578125
5234		7.812500
5235		15.625000
5236		1.953125
5237		11.718750
5238		-1.953125
5239		5.859375
5240		-5.859375
5241		0.000000
5242		-9.765625
5243		-3.906250
5244		-15.625000
5245		-7.812500
5246		-21.484375
5247		-11.718750
5248		-25.390625
5249		-17.578125
5250		-29.296875
5251		-21.484375
5252		-33.203125
5253		-25.390625
5254		-37.109375
5255		-29.296875
5256		-41.015625
5257		-33.203125
5258		-44.921875
5259		-39.062500
5260		-50.781250
5261		-42.968750
5262		-56.640625
5263		-48.828125
5264		-60.546875
5265		-50.781250
5266		-64.453125
5267		-56.640625
5268		-68.359375
5269		-60.546875
5270		-74.218750
5271		-64.453125
5272		-76.171875
5273		-68.359375
5274		-80.078125
5275		-72.265625
5276		-83.984375
5277		-78.125000
5278		-89.843750
5279		-82.031250
5280		-93.750000
5281		-85.937500
5282		-97.656250
5283		-87.890625
5284		-101.562500
5285		-93.750000
5286		-105.468750
5287		-97.656250
5288		-109.375000
5289		-99.609375
5290		-111.328125
5291		-103.515625
5292		-115.234375
5293		-109.375000
5294		-119.140625
5295		-113.281250
5296		-123.046875
5297		-115.234375
5298		-126.953125
5299		-117.187500
5300		-130.859375
5301		-123.046875
5302		-132.812500
5303		-126.953125
5304		-136.718750
5305		-128.906250
5306		-138.671875
5307		-130.859375
5308		-140.625000
5309		-136.718750
5310		-144.531250
5311		-138.671875
5312		-148.437500
5313		-142.578125
5314		-150.390625
5315		-144.531250
5316		-152.343750
5317		-146.484375
5318		-156.250000
5319		-148.437500
5320		-158.203125
5321		-150.390625
5322		-160.156250
5323		-154.296875
5324		-162.109375
5325		-156.250000
5326		-162.109375
5327		-158.203125
5328		-166.015625
5329		-160.156250
5330		-167.968750
5331		-160.156250
5332		-167.968750
5333		-162.109375
5334		-169.921875
5335		-164.062500
5336		-171.875000
5337		-166.015625
5338		-173.828125
5339		-166.015625
5340		-173.828125
5341		-167.968750
5342		-173.828125
5343		-169.921875
5344		-173.828125
5345		-171.875000
5346		-175.781250
5347		-169.921875
5348		-175.781250
5349		-171.875000
5350		-177.734375
5351		-169.921875
5352		-177.734375
5353		-171.875000
5354		-177.734375
5355		-171.875000
5356		-177.734375
5357		-171.875000
5358		-175.781250
5359		-171.875000
5360		-175.781250
5361		-173.828125
5362		-177.734375
5363		-169.921875
5364		-175.781250
5365		-169.921875
5366		-175.781250
5367		-169.921875
5368		-175.781250
5369		-169.921875
5370		-175.781250
5371		-167.968750
5372		-171.875000
5373		-167.968750
5374		-169.921875
5375		-166.015625
5376		-167.968750
5377		-166.015625
5378		-167.968750
5379		-164.062500
5380		-167.968750
5381		-162.109375
5382		-166.015625
5383		-160.156250
5384		-164.062500
5385		-158.203125
5386		-162.109375
5387		-154.296875
5388		-160.156250
5389		-154.296875
5390		-156.250000
5391		-152.343750
5392		-154.296875
5393		-148.437500
5394		-150.390625
5395		-146.484375
5396		-148.437500
5397		-142.578125
5398		-146.484375
5399		-140.625000
5400		-142.578125
5401		-138.671875
5402		-140.625000
5403		-134.765625
5404		-136.718750
5405		-132.812500
5406		-134.765625
5407		-128.906250
5408		-130.859375
5409		-125.000000
5410		-126.953125
5411		-123.046875
5412		-125.000000
5413		-119.140625
5414		-123.046875
5415		-113.281250
5416		-117.187500
5417		-111.328125
5418		-113.281250
5419		-107.421875
5420		-109.375000
5421		-103.515625
5422		-105.468750
5423		-99.609375
5424		-101.562500
5425		-95.703125
5426		-97.656250
5427		-91.796875
5428		-93.750000
5429		-87.890625
5430		-89.843750
5431		-83.984375
5432		-85.937500
5433		-80.078125
5434		-82.031250
5435		-76.171875
5436		-78.125000
5437		-70.312500
5438		-74.218750
5439		-66.406250
5440		-68.359375
5441		-62.500000
5442		-64.453125
5443		-58.593750
5444		-60.546875
5445		-54.687500
5446		-56.640625
5447		-48.828125
5448		-50.781250
5449		-44.921875
5450		-46.875000
5451		-39.062500
5452		-42.968750
5453		-35.156250
5454		-37.109375
5455		-31.250000
5456		-33.203125
5457		-25.390625
5458		-29.296875
5459		-21.484375
5460		-23.437500
5461		-17.578125
5462		-19.531250
5463		-13.671875
5464		-15.625000
5465		-9.765625
5466		-9.765625
5467		-3.906250
5468		-5.859375
5469		0.000000
5470		-1.953125
5471		5.859375
5472		1.953125
5473		9.765625
5474		7.812500
5475		13.671875
5476		11.718750
5477		17.578125
5478		15.625000
5479		23.437500
5480		19.531250
5481		27.343750
5482		25.390625
5483		31.250000
5484		29.296875
5485		35.156250
5486		33.203125
5487		39.062500
5488		37.109375
5489		42.968750
5490		41.015625
5491		46.875000
5492		44.921875
5493		50.781250
5494		48.828125
5495		54.687500
5496		52.734375
5497		58.593750
5498		56.640625
5499		62.500000
5500		60.546875
5501		66.406250
5502		64.453125
5503		70.312500
5504		68.359375
5505		74.218750
5506		72.265625
5507		76.171875
5508		76.171875
5509		82.031250
5510		78.125000
5511		83.984375
5512		82.031250
5513		87.890625
5514		85.937500
5515		89.843750
5516		87.890625
5517		93.750000
5518		91.796875
5519		97.656250
5520		95.703125
5521		99.609375
5522		97.656250
5523		103.515625
5524		101.562500
5525		105.468750
5526		103.515625
5527		107.421875
5528		105.468750
5529		111.328125
5530		109.375000
5531		113.281250
5532		111.328125
5533		117.187500
5534		113.281250
5535		119.140625
5536		117.187500
5537		121.093750
5538		119.140625
5539		123.046875
5540		121.093750
5541		125.000000
5542		123.046875
5543		126.953125
5544		125.000000
5545		128.906250
5546		126.953125
5547		130.859375
5548		128.906250
5549		132.812500
5550		130.859375
5551		134.765625
5552		132.812500
5553		136.718750
5554		134.765625
5555		138.671875
5556		136.718750
5557		140.625000
5558		136.718750
5559		140.625000
5560		138.671875
5561		142.578125
5562		140.625000
5563		144.531250
5564		140.625000
5565		146.484375
5566		142.578125
5567		146.484375
5568		142.578125
5569		146.484375
5570		144.531250
5571		148.437500
5572		144.531250
5573		148.437500
5574		146.484375
5575		150.390625
5576		146.484375
5577		150.390625
5578		148.437500
5579		150.390625
5580		148.437500
5581		152.343750
5582		148.437500
5583		152.343750
5584		148.437500
5585		152.343750
5586		148.437500
5587		152.343750
5588		148.437500
5589		152.343750
5590		148.437500
5591		152.343750
5592		150.390625
5593		152.343750
5594		150.390625
5595		152.343750
5596		150.390625
5597		152.343750
5598		148.437500
5599		152.343750
5600		148.437500
5601		152.343750
5602		148.437500
5603		150.390625
5604		146.484375
5605		150.390625
5606		146.484375
5607		150.390625
5608		146.484375
5609		150.390625
5610		144.531250
5611		148.437500
5612		144.531250
5613		148.437500
5614		142.578125
5615		148.437500
5616		142.578125
5617		146.484375
5618		140.625000
5619		144.531250
5620		140.625000
5621		144.531250
5622		138.671875
5623		142.578125
5624		136.718750
5625		140.625000
5626		136.718750
5627		140.625000
5628		134.765625
5629		138.671875
5630		132.812500
5631		136.718750
5632		130.859375
5633		134.765625
5634		128.906250
5635		132.812500
5636		126.953125
5637		130.859375
5638		123.046875
5639		130.859375
5640		123.046875
5641		126.953125
5642		121.093750
5643		125.000000
5644		119.140625
5645		123.046875
5646		115.234375
5647		121.093750
5648		113.281250
5649		117.187500
5650		109.375000
5651		115.234375
5652		107.421875
5653		113.281250
5654		105.468750
5655		111.328125
5656		101.562500
5657		107.421875
5658		97.656250
5659		105.468750
5660		95.703125
5661		101.562500
5662		93.750000
5663		97.656250
5664		89.843750
5665		95.703125
5666		85.937500
5667		93.750000
5668		82.031250
5669		89.843750
5670		80.078125
5671		85.937500
5672		74.218750
5673		82.031250
5674		72.265625
5675		80.078125
5676		68.359375
5677		76.171875
5678		64.453125
5679		70.312500
5680		60.546875
5681		66.406250
5682		56.640625
5683		64.453125
5684		52.734375
5685		60.546875
5686		48.828125
5687		56.640625
5688		44.921875
5689		52.734375
5690		41.015625
5691		48.828125
5692		37.109375
5693		44.921875
5694		33.203125
5695		41.015625
5696		29.296875
5697		35.156250
5698		25.390625
5699		31.250000
5700		19.531250
5701		27.343750
5702		15.625000
5703		23.437500
5704		11.718750
5705		19.531250
5706		7.812500
5707		15.625000
5708		3.906250
5709		11.718750
5710		-1.953125
5711		5.859375
5712		-5.859375
5713		1.953125
5714		-9.765625
5715		-3.906250
5716		-15.625000
5717		-7.812500
5718		-19.531250
5719		-11.718750
5720		-23.437500
5721		-15.625000
5722		-29.296875
5723		-21.484375
5724		-33.203125
5725		-25.390625
5726		-37.109375
5727		-29.296875
5728		-41.015625
5729		-33.203125
5730		-44.921875
5731		-39.062500
5732		-48.828125
5733		-42.968750
5734		-54.687500
5735		-48.828125
5736		-58.593750
5737		-52.734375
5738		-62.500000
5739		-56.640625
5740		-66.406250
5741		-60.546875
5742		-70.312500
5743		-64.453125
5744		-74.218750
5745		-70.312500
5746		-80.078125
5747		-74.218750
5748		-83.984375
5749		-78.125000
5750		-87.890625
5751		-82.031250
5752		-91.796875
5753		-85.937500
5754		-95.703125
5755		-89.843750
5756		-99.609375
5757		-93.750000
5758		-103.515625
5759		-97.656250
5760		-107.421875
5761		-101.562500
5762		-111.328125
5763		-105.468750
5764		-115.234375
5765		-109.375000
5766		-117.187500
5767		-113.281250
5768		-121.093750
5769		-115.234375
5770		-125.000000
5771		-119.140625
5772		-128.906250
5773		-123.046875
5774		-130.859375
5775		-126.953125
5776		-134.765625
5777		-128.906250
5778		-136.718750
5779		-132.812500
5780		-140.625000
5781		-134.765625
5782		-142.578125
5783		-138.671875
5784		-146.484375
5785		-140.625000
5786		-148.437500
5787		-144.531250
5788		-150.390625
5789		-146.484375
5790		-154.296875
5791		-148.437500
5792		-156.250000
5793		-150.390625
5794		-158.203125
5795		-154.296875
5796		-160.156250
5797		-156.250000
5798		-162.109375
5799		-158.203125
5800		-164.062500
5801		-160.156250
5802		-166.015625
5803		-162.109375
5804		-167.968750
5805		-164.062500
5806		-167.968750
5807		-164.062500
5808		-169.921875
5809		-166.015625
5810		-169.921875
5811		-167.968750
5812		-171.875000
5813		-167.968750
5814		-173.828125
5815		-169.921875
5816		-173.828125
5817		-169.921875
5818		-173.828125
5819		-171.875000
5820		-175.781250
5821		-171.875000
5822		-175.781250
5823		-171.875000
5824		-175.781250
5825		-171.875000
5826		-175.781250
5827		-171.875000
5828		-175.781250
5829		-173.828125
5830		-175.781250
5831		-171.875000
5832		-175.781250
5833		-171.875000
5834		-177.734375
5835		-169.921875
5836		-177.734375
5837		-167.968750
5838		-175.781250
5839		-167.968750
5840		-173.828125
5841		-169.921875
5842		-171.875000
5843		-167.968750
5844		-171.875000
5845		-167.968750
5846		-169.921875
5847		-166.015625
5848		-167.968750
5849		-164.062500
5850		-167.968750
5851		-162.109375
5852		-167.968750
5853		-158.203125
5854		-166.015625
5855		-156.250000
5856		-162.109375
5857		-158.203125
5858		-160.156250
5859		-156.250000
5860		-158.203125
5861		-154.296875
5862		-156.250000
5863		-152.343750
5864		-154.296875
5865		-148.437500
5866		-152.343750
5867		-144.531250
5868		-152.343750
5869		-142.578125
5870		-148.437500
5871		-138.671875
5872		-146.484375
5873		-136.718750
5874		-140.625000
5875		-134.765625
5876		-136.718750
5877		-132.812500
5878		-134.765625
5879		-128.906250
5880		-130.859375
5881		-125.000000
5882		-126.953125
5883		-123.046875
5884		-126.953125
5885		-117.187500
5886		-123.046875
5887		-113.281250
5888		-119.140625
5889		-109.375000
5890		-113.281250
5891		-107.421875
5892		-109.375000
5893		-103.515625
5894		-105.468750
5895		-99.609375
5896		-101.562500
5897		-95.703125
5898		-97.656250
5899		-91.796875
5900		-93.750000
5901		-85.937500
5902		-93.750000
5903		-82.031250
5904		-87.890625
5905		-78.125000
5906		-83.984375
5907		-76.171875
5908		-78.125000
5909		-72.265625
5910		-72.265625
5911		-66.406250
5912		-68.359375
5913		-62.500000
5914		-64.453125
5915		-58.593750
5916		-60.546875
5917		-54.687500
5918		-58.593750
5919		-46.875000
5920		-54.687500
5921		-41.015625
5922		-48.828125
5923		-39.062500
5924		-41.015625
5925		-35.156250
5926		-37.109375
5927		-31.250000
5928		-33.203125
5929		-27.343750
5930		-27.343750
5931		-21.484375
5932		-23.437500
5933		-17.578125
5934		-19.531250
5935		-11.718750
5936		-15.625000
5937		-5.859375
5938		-11.718750
5939		-1.953125
5940		-5.859375
5941		0.000000
5942		-1.953125
5943		3.906250
5944		3.906250
5945		9.765625
5946		7.812500
5947		13.671875
5948		11.718750
5949		17.578125
5950		15.625000
5951		25.390625
5952		17.578125
5953		29.296875
5954		21.484375
5955		33.203125
5956		27.343750
5957		35.156250
5958		33.203125
5959		39.062500
5960		37.109375
5961		42.968750
5962		41.015625
5963		46.875000
5964		44.921875
5965		50.781250
5966		48.828125
5967		54.687500
5968		50.781250
5969		60.546875
5970		54.687500
5971		64.453125
5972		58.593750
5973		68.359375
5974		64.453125
5975		70.312500
5976		68.359375
5977		74.218750
5978		72.265625
5979		76.171875
5980		76.171875
5981		80.078125
5982		78.125000
5983		83.984375
5984		82.031250
5985		89.843750
5986		82.031250
5987		93.750000
5988		85.937500
5989		95.703125
5990		87.890625
5991		97.656250
5992		95.703125
5993		99.609375
5994		97.656250
5995		103.515625
5996		101.562500
5997		105.468750
5998		103.515625
5999		107.421875
6000		105.468750
6001		111.328125
6002		105.468750
6003		115.234375
6004		109.375000
6005		119.140625
6006		111.328125
6007		121.093750
6008		117.187500
6009		121.093750
6010		119.140625
6011		123.046875
6012		121.093750
6013		125.000000
6014		123.046875
6015		128.906250
6016		125.000000
6017		128.906250
6018		126.953125
6019		130.859375
6020		128.906250
6021		136.718750
6022		130.859375
6023		136.718750
6024		132.812500
6025		136.718750
6026		134.765625
6027		138.671875
6028		136.718750
6029		140.625000
6030		138.671875
6031		140.625000
6032		138.671875
6033		142.578125
6034		140.625000
6035		144.531250
6036		140.625000
6037		146.484375
6038		140.625000
6039		148.437500
6040		144.531250
6041		146.484375
6042		144.531250
6043		148.437500
6044		146.484375
6045		148.437500
6046		146.484375
6047		150.390625
6048		148.437500
6049		150.390625
6050		148.437500
6051		150.390625
6052		148.437500
6053		152.343750
6054		148.437500
6055		154.296875
6056		148.437500
6057		154.296875
6058		150.390625
6059		152.343750
6060		150.390625
6061		152.343750
6062		150.390625
6063		154.296875
6064		150.390625
6065		152.343750
6066		150.390625
6067		154.296875
6068		150.390625
6069		152.343750
6070		150.390625
6071		152.343750
6072		150.390625
6073		152.343750
6074		148.437500
6075		152.343750
6076		148.437500
6077		152.343750
6078		148.437500
6079		150.390625
6080		148.437500
6081		150.390625
6082		146.484375
6083		150.390625
6084		146.484375
6085		148.437500
6086		144.531250
6087		148.437500
6088		144.531250
6089		146.484375
6090		142.578125
6091		146.484375
6092		140.625000
6093		144.531250
6094		140.625000
6095		144.531250
6096		138.671875
6097		142.578125
6098		136.718750
6099		140.625000
6100		134.765625
6101		138.671875
6102		132.812500
6103		136.718750
6104		132.812500
6105		136.718750
6106		130.859375
6107		134.765625
6108		128.906250
6109		132.812500
6110		126.953125
6111		130.859375
6112		123.046875
6113		128.906250
6114		121.093750
6115		125.000000
6116		119.140625
6117		123.046875
6118		117.187500
6119		121.093750
6120		113.281250
6121		119.140625
6122		111.328125
6123		117.187500
6124		109.375000
6125		113.281250
6126		107.421875
6127		111.328125
6128		103.515625
6129		109.375000
6130		101.562500
6131		105.468750
6132		97.656250
6133		103.515625
6134		95.703125
6135		99.609375
6136		91.796875
6137		97.656250
6138		87.890625
6139		93.750000
6140		85.937500
6141		89.843750
6142		82.031250
6143		85.937500
6144		78.125000
6145		83.984375
6146		74.218750
6147		80.078125
6148		70.312500
6149		76.171875
6150		66.406250
6151		72.265625
6152		62.500000
6153		68.359375
6154		58.593750
6155		64.453125
6156		54.687500
6157		60.546875
6158		50.781250
6159		56.640625
6160		46.875000
6161		52.734375
6162		42.968750
6163		50.781250
6164		39.062500
6165		44.921875
6166		35.156250
6167		41.015625
6168		29.296875
6169		37.109375
6170		27.343750
6171		33.203125
6172		21.484375
6173		29.296875
6174		17.578125
6175		23.437500
6176		13.671875
6177		19.531250
6178		9.765625
6179		15.625000
6180		5.859375
6181		11.718750
6182		0.000000
6183		5.859375
6184		-3.906250
6185		1.953125
6186		-7.812500
6187		-1.953125
6188		-11.718750
6189		-5.859375
6190		-17.578125
6191		-11.718750
6192		-21.484375
6193		-15.625000
6194		-25.390625
6195		-19.531250
6196		-29.296875
6197		-23.437500
6198		-35.156250
6199		-29.296875
6200		-39.062500
6201		-33.203125
6202		-44.921875
6203		-37.109375
6204		-48.828125
6205		-41.015625
6206		-52.734375
6207		-44.921875
6208		-56.640625
6209		-50.781250
6210		-60.546875
6211		-52.734375
6212		-64.453125
6213		-58.593750
6214		-68.359375
6215		-62.500000
6216		-74.218750
6217		-68.359375
6218		-78.125000
6219		-72.265625
6220		-82.031250
6221		-74.218750
6222		-85.937500
6223		-80.078125
6224		-89.843750
6225		-83.984375
6226		-93.750000
6227		-87.890625
6228		-97.656250
6229		-91.796875
6230		-101.562500
6231		-95.703125
6232		-105.468750
6233		-99.609375
6234		-109.375000
6235		-103.515625
6236		-113.281250
6237		-105.468750
6238		-115.234375
6239		-109.375000
6240		-119.140625
6241		-113.281250
6242		-123.046875
6243		-117.187500
6244		-125.000000
6245		-119.140625
6246		-128.906250
6247		-123.046875
6248		-130.859375
6249		-126.953125
6250		-134.765625
6251		-130.859375
6252		-136.718750
6253		-132.812500
6254		-140.625000
6255		-134.765625
6256		-142.578125
6257		-138.671875
6258		-146.484375
6259		-140.625000
6260		-148.437500
6261		-144.531250
6262		-150.390625
6263		-146.484375
6264		-152.343750
6265		-148.437500
6266		-154.296875
6267		-150.390625
6268		-156.250000
6269		-152.343750
6270		-160.156250
6271		-154.296875
6272		-160.156250
6273		-156.250000
6274		-162.109375
6275		-158.203125
6276		-164.062500
6277		-160.156250
6278		-166.015625
6279		-160.156250
6280		-166.015625
6281		-162.109375
6282		-167.968750
6283		-164.062500
6284		-167.968750
6285		-164.062500
6286		-169.921875
6287		-166.015625
6288		-169.921875
6289		-166.015625
6290		-169.921875
6291		-167.968750
6292		-171.875000
6293		-167.968750
6294		-171.875000
6295		-167.968750
6296		-171.875000
6297		-167.968750
6298		-171.875000
6299		-167.968750
6300		-171.875000
6301		-169.921875
6302		-171.875000
6303		-167.968750
6304		-171.875000
6305		-167.968750
6306		-169.921875
6307		-167.968750
6308		-169.921875
6309		-167.968750
6310		-169.921875
6311		-166.015625
6312		-169.921875
6313		-166.015625
6314		-167.968750
6315		-164.062500
6316		-167.968750
6317		-164.062500
6318		-166.015625
6319		-162.109375
6320		-164.062500
6321		-160.156250
6322		-164.062500
6323		-160.156250
6324		-162.109375
6325		-158.203125
6326		-160.156250
6327		-156.250000
6328		-158.203125
6329		-154.296875
6330		-156.250000
6331		-152.343750
6332		-154.296875
6333		-150.390625
6334		-152.343750
6335		-146.484375
6336		-150.390625
6337		-146.484375
6338		-148.437500
6339		-142.578125
6340		-144.531250
6341		-140.625000
6342		-142.578125
6343		-136.718750
6344		-138.671875
6345		-134.765625
6346		-136.718750
6347		-130.859375
6348		-132.812500
6349		-128.906250
6350		-130.859375
6351		-125.000000
6352		-126.953125
6353		-121.093750
6354		-123.046875
6355		-119.140625
6356		-121.093750
6357		-115.234375
6358		-117.187500
6359		-111.328125
6360		-113.281250
6361		-107.421875
6362		-109.375000
6363		-103.515625
6364		-105.468750
6365		-99.609375
6366		-101.562500
6367		-95.703125
6368		-97.656250
6369		-91.796875
6370		-93.750000
6371		-87.890625
6372		-89.843750
6373		-83.984375
6374		-85.937500
6375		-80.078125
6376		-82.031250
6377		-76.171875
6378		-78.125000
6379		-72.265625
6380		-74.218750
6381		-68.359375
6382		-70.312500
6383		-64.453125
6384		-64.453125
6385		-58.593750
6386		-60.546875
6387		-54.687500
6388		-56.640625
6389		-50.781250
6390		-52.734375
6391		-44.921875
6392		-46.875000
6393		-41.015625
6394		-42.968750
6395		-37.109375
6396		-39.062500
6397		-31.250000
6398		-33.203125
6399		-27.343750
6400		-29.296875
6401		-23.437500
6402		-25.390625
6403		-19.531250
6404		-19.531250
6405		-13.671875
6406		-15.625000
6407		-9.765625
6408		-11.718750
6409		-5.859375
6410		-7.812500
6411		0.000000
6412		-3.906250
6413		3.906250
6414		1.953125
6415		7.812500
6416		5.859375
6417		11.718750
6418		9.765625
6419		17.578125
6420		15.625000
6421		21.484375
6422		17.578125
6423		25.390625
6424		23.437500
6425		29.296875
6426		27.343750
6427		33.203125
6428		31.250000
6429		37.109375
6430		35.156250
6431		42.968750
6432		41.015625
6433		46.875000
6434		44.921875
6435		50.781250
6436		48.828125
6437		54.687500
6438		52.734375
6439		58.593750
6440		56.640625
6441		62.500000
6442		60.546875
6443		66.406250
6444		64.453125
6445		68.359375
6446		68.359375
6447		72.265625
6448		72.265625
6449		76.171875
6450		74.218750
6451		80.078125
6452		78.125000
6453		83.984375
6454		82.031250
6455		87.890625
6456		83.984375
6457		91.796875
6458		87.890625
6459		93.750000
6460		91.796875
6461		95.703125
6462		93.750000
6463		99.609375
6464		97.656250
6465		101.562500
6466		101.562500
6467		105.468750
6468		103.515625
6469		107.421875
6470		105.468750
6471		111.328125
6472		107.421875
6473		115.234375
6474		111.328125
6475		115.234375
6476		113.281250
6477		119.140625
6478		117.187500
6479		121.093750
6480		119.140625
6481		123.046875
6482		121.093750
6483		125.000000
6484		123.046875
6485		126.953125
6486		125.000000
6487		128.906250
6488		126.953125
6489		132.812500
6490		128.906250
6491		134.765625
6492		130.859375
6493		136.718750
6494		132.812500
6495		136.718750
6496		134.765625
6497		138.671875
6498		136.718750
6499		140.625000
6500		138.671875
6501		142.578125
6502		140.625000
6503		142.578125
6504		140.625000
6505		144.531250
6506		140.625000
6507		146.484375
6508		142.578125
6509		148.437500
6510		144.531250
6511		148.437500
6512		146.484375
6513		148.437500
6514		146.484375
6515		150.390625
6516		148.437500
6517		150.390625
6518		148.437500
6519		152.343750
6520		148.437500
6521		152.343750
6522		148.437500
6523		154.296875
6524		148.437500
6525		154.296875
6526		150.390625
6527		154.296875
6528		150.390625
6529		154.296875
6530		150.390625
6531		154.296875
6532		152.343750
6533		154.296875
6534		152.343750
6535		154.296875
6536		152.343750
6537		154.296875
6538		150.390625
6539		154.296875
6540		150.390625
6541		156.250000
6542		150.390625
6543		154.296875
6544		150.390625
6545		154.296875
6546		150.390625
6547		152.343750
6548		150.390625
6549		152.343750
6550		148.437500
6551		152.343750
6552		148.437500
6553		152.343750
6554		148.437500
6555		150.390625
6556		146.484375
6557		152.343750
6558		144.531250
6559		150.390625
6560		144.531250
6561		148.437500
6562		144.531250
6563		146.484375
6564		142.578125
6565		146.484375
6566		140.625000
6567		144.531250
6568		140.625000
6569		142.578125
6570		138.671875
6571		142.578125
6572		134.765625
6573		140.625000
6574		134.765625
6575		138.671875
6576		132.812500
6577		136.718750
6578		130.859375
6579		134.765625
6580		128.906250
6581		132.812500
6582		126.953125
6583		130.859375
6584		125.000000
6585		128.906250
6586		123.046875
6587		126.953125
6588		121.093750
6589		125.000000
6590		117.187500
6591		123.046875
6592		115.234375
6593		121.093750
6594		113.281250
6595		117.187500
6596		111.328125
6597		115.234375
6598		107.421875
6599		111.328125
6600		105.468750
6601		109.375000
6602		101.562500
6603		107.421875
6604		99.609375
6605		103.515625
6606		93.750000
6607		101.562500
6608		91.796875
6609		97.656250
6610		89.843750
6611		93.750000
6612		85.937500
6613		89.843750
6614		82.031250
6615		87.890625
6616		78.125000
6617		83.984375
6618		76.171875
6619		80.078125
6620		72.265625
6621		76.171875
6622		66.406250
6623		74.218750
6624		64.453125
6625		72.265625
6626		60.546875
6627		68.359375
6628		56.640625
6629		62.500000
6630		52.734375
6631		58.593750
6632		48.828125
6633		54.687500
6634		44.921875
6635		50.781250
6636		41.015625
6637		46.875000
6638		37.109375
6639		42.968750
6640		33.203125
6641		39.062500
6642		27.343750
6643		33.203125
6644		23.437500
6645		29.296875
6646		19.531250
6647		25.390625
6648		15.625000
6649		21.484375
6650		9.765625
6651		17.578125
6652		5.859375
6653		11.718750
6654		1.953125
6655		7.812500
6656		-3.906250
6657		3.906250
6658		-7.812500
6659		0.000000
6660		-11.718750
6661		-5.859375
6662		-15.625000
6663		-9.765625
6664		-19.531250
6665		-13.671875
6666		-25.390625
6667		-17.578125
6668		-29.296875
6669		-23.437500
6670		-33.203125
6671		-27.343750
6672		-37.109375
6673		-31.250000
6674		-41.015625
6675		-37.109375
6676		-46.875000
6677		-41.015625
6678		-50.781250
6679		-44.921875
6680		-54.687500
6681		-48.828125
6682		-58.593750
6683		-52.734375
6684		-64.453125
6685		-58.593750
6686		-68.359375
6687		-62.500000
6688		-72.265625
6689		-66.406250
6690		-76.171875
6691		-70.312500
6692		-80.078125
6693		-74.218750
6694		-83.984375
6695		-80.078125
6696		-87.890625
6697		-83.984375
6698		-91.796875
6699		-87.890625
6700		-95.703125
6701		-91.796875
6702		-99.609375
6703		-93.750000
6704		-103.515625
6705		-99.609375
6706		-107.421875
6707		-103.515625
6708		-111.328125
6709		-105.468750
6710		-115.234375
6711		-109.375000
6712		-119.140625
6713		-113.281250
6714		-121.093750
6715		-117.187500
6716		-125.000000
6717		-121.093750
6718		-128.906250
6719		-123.046875
6720		-130.859375
6721		-126.953125
6722		-134.765625
6723		-128.906250
6724		-136.718750
6725		-132.812500
6726		-140.625000
6727		-134.765625
6728		-142.578125
6729		-138.671875
6730		-144.531250
6731		-140.625000
6732		-148.437500
6733		-144.531250
6734		-150.390625
6735		-146.484375
6736		-152.343750
6737		-148.437500
6738		-154.296875
6739		-150.390625
6740		-156.250000
6741		-152.343750
6742		-158.203125
6743		-154.296875
6744		-160.156250
6745		-156.250000
6746		-162.109375
6747		-158.203125
6748		-164.062500
6749		-160.156250
6750		-166.015625
6751		-162.109375
6752		-166.015625
6753		-164.062500
6754		-167.968750
6755		-164.062500
6756		-167.968750
6757		-166.015625
6758		-169.921875
6759		-166.015625
6760		-169.921875
6761		-167.968750
6762		-171.875000
6763		-167.968750
6764		-171.875000
6765		-167.968750
6766		-171.875000
6767		-167.968750
6768		-171.875000
6769		-169.921875
6770		-171.875000
6771		-169.921875
6772		-171.875000
6773		-169.921875
6774		-171.875000
6775		-169.921875
6776		-171.875000
6777		-169.921875
6778		-171.875000
6779		-167.968750
6780		-171.875000
6781		-167.968750
6782		-169.921875
6783		-167.968750
6784		-169.921875
6785		-166.015625
6786		-169.921875
6787		-166.015625
6788		-167.968750
6789		-164.062500
6790		-166.015625
6791		-164.062500
6792		-166.015625
6793		-162.109375
6794		-164.062500
6795		-160.156250
6796		-162.109375
6797		-158.203125
6798		-160.156250
6799		-156.250000
6800		-158.203125
6801		-154.296875
6802		-156.250000
6803		-152.343750
6804		-154.296875
6805		-150.390625
6806		-152.343750
6807		-148.437500
6808		-150.390625
6809		-146.484375
6810		-148.437500
6811		-142.578125
6812		-144.531250
6813		-140.625000
6814		-142.578125
6815		-138.671875
6816		-138.671875
6817		-134.765625
6818		-136.718750
6819		-132.812500
6820		-132.812500
6821		-128.906250
6822		-130.859375
6823		-125.000000
6824		-126.953125
6825		-121.093750
6826		-125.000000
6827		-119.140625
6828		-121.093750
6829		-115.234375
6830		-117.187500
6831		-111.328125
6832		-113.281250
6833		-107.421875
6834		-109.375000
6835		-103.515625
6836		-107.421875
6837		-99.609375
6838		-101.562500
6839		-95.703125
6840		-97.656250
6841		-91.796875
6842		-93.750000
6843		-87.890625
6844		-89.843750
6845		-83.984375
6846		-85.937500
6847		-80.078125
6848		-82.031250
6849		-76.171875
6850		-78.125000
6851		-72.265625
6852		-74.218750
6853		-68.359375
6854		-70.312500
6855		-64.453125
6856		-64.453125
6857		-58.593750
6858		-60.546875
6859		-54.687500
6860		-56.640625
6861		-50.781250
6862		-52.734375
6863		-44.921875
6864		-46.875000
6865		-41.015625
6866		-42.968750
6867		-37.109375
6868		-39.062500
6869		-31.250000
6870		-33.203125
6871		-27.343750
6872		-29.296875
6873		-23.437500
6874		-25.390625
6875		-19.531250
6876		-21.484375
6877		-13.671875
6878		-15.625000
6879		-9.765625
6880		-11.718750
6881		-5.859375
6882		-7.812500
6883		-1.953125
6884		-1.953125
6885		3.906250
6886		1.953125
6887		7.812500
6888		5.859375
6889		11.718750
6890		9.765625
6891		17.578125
6892		15.625000
6893		21.484375
6894		19.531250
6895		25.390625
6896		23.437500
6897		29.296875
6898		27.343750
6899		33.203125
6900		31.250000
6901		37.109375
6902		37.109375
6903		42.968750
6904		41.015625
6905		44.921875
6906		44.921875
6907		50.781250
6908		48.828125
6909		54.687500
6910		52.734375
6911		58.593750
6912		56.640625
6913		62.500000
6914		58.593750
6915		64.453125
6916		64.453125
6917		70.312500
6918		68.359375
6919		72.265625
6920		70.312500
6921		76.171875
6922		74.218750
6923		80.078125
6924		78.125000
6925		83.984375
6926		82.031250
6927		85.937500
6928		83.984375
6929		89.843750
6930		87.890625
6931		93.750000
6932		91.796875
6933		95.703125
6934		93.750000
6935		99.609375
6936		97.656250
6937		101.562500
6938		99.609375
6939		105.468750
6940		103.515625
6941		107.421875
6942		105.468750
6943		111.328125
6944		109.375000
6945		113.281250
6946		111.328125
6947		115.234375
6948		115.234375
6949		119.140625
6950		117.187500
6951		121.093750
6952		119.140625
6953		123.046875
6954		121.093750
6955		125.000000
6956		123.046875
6957		126.953125
6958		125.000000
6959		130.859375
6960		126.953125
6961		130.859375
6962		130.859375
6963		132.812500
6964		132.812500
6965		134.765625
6966		132.812500
6967		136.718750
6968		134.765625
6969		138.671875
6970		136.718750
6971		140.625000
6972		138.671875
6973		142.578125
6974		140.625000
6975		144.531250
6976		140.625000
6977		144.531250
6978		142.578125
6979		146.484375
6980		144.531250
6981		148.437500
6982		144.531250
6983		148.437500
6984		146.484375
6985		148.437500
6986		146.484375
6987		150.390625
6988		148.437500
6989		150.390625
6990		148.437500
6991		152.343750
6992		148.437500
6993		152.343750
6994		150.390625
6995		152.343750
6996		150.390625
6997		154.296875
6998		150.390625
6999		154.296875
7000		150.390625
7001		154.296875
7002		152.343750
7003		154.296875
7004		152.343750
7005		154.296875
7006		152.343750
7007		154.296875
7008		152.343750
7009		154.296875
7010		152.343750
7011		154.296875
7012		150.390625
7013		154.296875
7014		150.390625
7015		154.296875
7016		150.390625
7017		154.296875
7018		150.390625
7019		154.296875
7020		150.390625
7021		152.343750
7022		150.390625
7023		152.343750
7024		148.437500
7025		152.343750
7026		148.437500
7027		150.390625
7028		146.484375
7029		150.390625
7030		146.484375
7031		148.437500
7032		144.531250
7033		148.437500
7034		142.578125
7035		146.484375
7036		142.578125
7037		146.484375
7038		140.625000
7039		144.531250
7040		140.625000
7041		142.578125
7042		138.671875
7043		142.578125
7044		136.718750
7045		140.625000
7046		134.765625
7047		138.671875
7048		132.812500
7049		136.718750
7050		130.859375
7051		134.765625
7052		128.906250
7053		132.812500
7054		126.953125
7055		130.859375
7056		125.000000
7057		128.906250
7058		123.046875
7059		126.953125
7060		121.093750
7061		125.000000
7062		119.140625
7063		123.046875
7064		115.234375
7065		119.140625
7066		113.281250
7067		117.187500
7068		111.328125
7069		115.234375
7070		107.421875
7071		113.281250
7072		105.468750
7073		109.375000
7074		101.562500
7075		107.421875
7076		99.609375
7077		103.515625
7078		95.703125
7079		99.609375
7080		93.750000
7081		97.656250
7082		89.843750
7083		95.703125
7084		85.937500
7085		91.796875
7086		83.984375
7087		87.890625
7088		80.078125
7089		83.984375
7090		76.171875
7091		80.078125
7092		72.265625
7093		78.125000
7094		68.359375
7095		74.218750
7096		64.453125
7097		70.312500
7098		60.546875
7099		66.406250
7100		56.640625
7101		62.500000
7102		52.734375
7103		58.593750
7104		48.828125
7105		54.687500
7106		44.921875
7107		50.781250
7108		41.015625
7109		46.875000
7110		37.109375
7111		42.968750
7112		33.203125
7113		39.062500
7114		27.343750
7115		35.156250
7116		23.437500
7117		29.296875
7118		19.531250
7119		25.390625
7120		15.625000
7121		21.484375
7122		11.718750
7123		17.578125
7124		5.859375
7125		11.718750
7126		1.953125
7127		7.812500
7128		-1.953125
7129		3.906250
7130		-5.859375
7131		0.000000
7132		-11.718750
7133		-5.859375
7134		-15.625000
7135		-9.765625
7136		-19.531250
7137		-13.671875
7138		-23.437500
7139		-17.578125
7140		-29.296875
7141		-21.484375
7142		-33.203125
7143		-27.343750
7144		-37.109375
7145		-31.250000
7146		-42.968750
7147		-37.109375
7148		-46.875000
7149		-41.015625
7150		-50.781250
7151		-44.921875
7152		-54.687500
7153		-48.828125
7154		-58.593750
7155		-52.734375
7156		-64.453125
7157		-58.593750
7158		-68.359375
7159		-62.500000
7160		-72.265625
7161		-66.406250
7162		-76.171875
7163		-70.312500
7164		-80.078125
7165		-74.218750
7166		-83.984375
7167		-78.125000
7168		-87.890625
7169		-82.031250
7170		-91.796875
7171		-85.937500
7172		-95.703125
7173		-89.843750
7174		-99.609375
7175		-95.703125
7176		-103.515625
7177		-97.656250
7178		-107.421875
7179		-101.562500
7180		-111.328125
7181		-105.468750
7182		-115.234375
7183		-109.375000
7184		-117.187500
7185		-113.281250
7186		-121.093750
7187		-117.187500
7188		-125.000000
7189		-119.140625
7190		-128.906250
7191		-123.046875
7192		-130.859375
7193		-126.953125
7194		-134.765625
7195		-128.906250
7196		-136.718750
7197		-132.812500
7198		-140.625000
7199		-134.765625
7200		-142.578125
7201		-138.671875
7202		-144.531250
7203		-140.625000
7204		-148.437500
7205		-144.531250
7206		-150.390625
7207		-146.484375
7208		-152.343750
7209		-148.437500
7210		-154.296875
7211		-150.390625
7212		-156.250000
7213		-152.343750
7214		-158.203125
7215		-154.296875
7216		-160.156250
7217		-156.250000
7218		-162.109375
7219		-158.203125
7220		-164.062500
7221		-160.156250
7222		-166.015625
7223		-162.109375
7224		-167.968750
7225		-164.062500
7226		-167.968750
7227		-164.062500
7228		-169.921875
7229		-166.015625
7230		-169.921875
7231		-167.968750
7232		-171.875000
7233		-167.968750
7234		-171.875000
7235		-167.968750
7236		-171.875000
7237		-169.921875
7238		-173.828125
7239		-169.921875
7240		-173.828125
7241		-169.921875
7242		-173.828125
7243		-169.921875
7244		-173.828125
7245		-169.921875
7246		-173.828125
7247		-169.921875
7248		-173.828125
7249		-169.921875
7250		-171.875000
7251		-169.921875
7252		-171.875000
7253		-169.921875
7254		-171.875000
7255		-169.921875
7256		-171.875000
7257		-167.968750
7258		-169.921875
7259		-167.968750
7260		-169.921875
7261		-166.015625
7262		-167.968750
7263		-164.062500
7264		-167.968750
7265		-164.062500
7266		-166.015625
7267		-162.109375
7268		-164.062500
7269		-160.156250
7270		-162.109375
7271		-158.203125
7272		-160.156250
7273		-156.250000
7274		-158.203125
7275		-154.296875
7276		-156.250000
7277		-152.343750
7278		-154.296875
7279		-150.390625
7280		-152.343750
7281		-148.437500
7282		-150.390625
7283		-146.484375
7284		-146.484375
7285		-142.578125
7286		-144.531250
7287		-140.625000
7288		-142.578125
7289		-136.718750
7290		-138.671875
7291		-134.765625
7292		-136.718750
7293		-130.859375
7294		-132.812500
7295		-128.906250
7296		-130.859375
7297		-125.000000
7298		-126.953125
7299		-121.093750
7300		-123.046875
7301		-117.187500
7302		-119.140625
7303		-115.234375
7304		-115.234375
7305		-111.328125
7306		-113.281250
7307		-107.421875
7308		-109.375000
7309		-103.515625
7310		-105.468750
7311		-99.609375
7312		-101.562500
7313		-95.703125
7314		-97.656250
7315		-91.796875
7316		-93.750000
7317		-87.890625
7318		-89.843750
7319		-82.031250
7320		-83.984375
7321		-80.078125
7322		-80.078125
7323		-74.218750
7324		-76.171875
7325		-70.312500
7326		-72.265625
7327		-66.406250
7328		-68.359375
7329		-62.500000
7330		-62.500000
7331		-56.640625
7332		-58.593750
7333		-52.734375
7334		-54.687500
7335		-48.828125
7336		-48.828125
7337		-44.921875
7338		-44.921875
7339		-39.062500
7340		-41.015625
7341		-35.156250
7342		-37.109375
7343		-31.250000
7344		-31.250000
7345		-25.390625
7346		-27.343750
7347		-21.484375
7348		-23.437500
7349		-17.578125
7350		-19.531250
7351		-11.718750
7352		-13.671875
7353		-7.812500
7354		-9.765625
7355		-1.953125
7356		-5.859375
7357		1.953125
7358		0.000000
7359		5.859375
7360		3.906250
7361		9.765625
7362		7.812500
7363		13.671875
7364		11.718750
7365		19.531250
7366		17.578125
7367		23.437500
7368		21.484375
7369		27.343750
7370		25.390625
7371		31.250000
7372		29.296875
7373		35.156250
7374		33.203125
7375		39.062500
7376		37.109375
7377		44.921875
7378		41.015625
7379		46.875000
7380		46.875000
7381		52.734375
7382		50.781250
7383		54.687500
7384		54.687500
7385		58.593750
7386		58.593750
7387		62.500000
7388		62.500000
7389		66.406250
7390		66.406250
7391		70.312500
7392		68.359375
7393		74.218750
7394		72.265625
7395		78.125000
7396		76.171875
7397		82.031250
7398		80.078125
7399		83.984375
7400		82.031250
7401		87.890625
7402		85.937500
7403		91.796875
7404		89.843750
7405		93.750000
7406		93.750000
7407		97.656250
7408		95.703125
7409		101.562500
7410		99.609375
7411		103.515625
7412		101.562500
7413		105.468750
7414		103.515625
7415		109.375000
7416		107.421875
7417		111.328125
7418		109.375000
7419		115.234375
7420		113.281250
7421		117.187500
7422		115.234375
7423		119.140625
7424		117.187500
7425		123.046875
7426		119.140625
7427		125.000000
7428		123.046875
7429		126.953125
7430		125.000000
7431		128.906250
7432		126.953125
7433		130.859375
7434		128.906250
7435		132.812500
7436		130.859375
7437		134.765625
7438		132.812500
7439		136.718750
7440		134.765625
7441		138.671875
7442		134.765625
7443		138.671875
7444		136.718750
7445		140.625000
7446		138.671875
7447		142.578125
7448		140.625000
7449		144.531250
7450		140.625000
7451		144.531250
7452		142.578125
7453		146.484375
7454		144.531250
7455		146.484375
7456		144.531250
7457		148.437500
7458		146.484375
7459		150.390625
7460		146.484375
7461		150.390625
7462		148.437500
7463		150.390625
7464		148.437500
7465		152.343750
7466		148.437500
7467		152.343750
7468		150.390625
7469		152.343750
7470		150.390625
7471		154.296875
7472		150.390625
7473		154.296875
7474		150.390625
7475		154.296875
7476		150.390625
7477		154.296875
7478		150.390625
7479		154.296875
7480		150.390625
7481		154.296875
7482		150.390625
7483		154.296875
7484		148.437500
7485		154.296875
7486		150.390625
7487		152.343750
7488		148.437500
7489		154.296875
7490		150.390625
7491		152.343750
7492		148.437500
7493		152.343750
7494		148.437500
7495		152.343750
7496		148.437500
7497		150.390625
7498		146.484375
7499		150.390625
7500		144.531250
7501		150.390625
7502		144.531250
7503		148.437500
7504		142.578125
7505		146.484375
7506		140.625000
7507		146.484375
7508		138.671875
7509		146.484375
7510		140.625000
7511		144.531250
7512		138.671875
7513		142.578125
7514		136.718750
7515		140.625000
7516		134.765625
7517		140.625000
7518		132.812500
7519		138.671875
7520		132.812500
7521		136.718750
7522		130.859375
7523		134.765625
7524		128.906250
7525		132.812500
7526		126.953125
7527		132.812500
7528		125.000000
7529		128.906250
7530		121.093750
7531		126.953125
7532		119.140625
7533		125.000000
7534		117.187500
7535		121.093750
7536		115.234375
7537		121.093750
7538		111.328125
7539		117.187500
7540		109.375000
7541		115.234375
7542		105.468750
7543		111.328125
7544		103.515625
7545		109.375000
7546		101.562500
7547		105.468750
7548		97.656250
7549		103.515625
7550		93.750000
7551		101.562500
7552		91.796875
7553		97.656250
7554		87.890625
7555		93.750000
7556		85.937500
7557		91.796875
7558		82.031250
7559		87.890625
7560		78.125000
7561		83.984375
7562		74.218750
7563		80.078125
7564		68.359375
7565		76.171875
7566		66.406250
7567		74.218750
7568		62.500000
7569		68.359375
7570		58.593750
7571		64.453125
7572		52.734375
7573		60.546875
7574		50.781250
7575		60.546875
7576		44.921875
7577		54.687500
7578		42.968750
7579		48.828125
7580		39.062500
7581		44.921875
7582		35.156250
7583		41.015625
7584		29.296875
7585		39.062500
7586		27.343750
7587		33.203125
7588		23.437500
7589		29.296875
7590		17.578125
7591		25.390625
7592		11.718750
7593		19.531250
7594		9.765625
7595		17.578125
7596		3.906250
7597		11.718750
7598		0.000000
7599		7.812500
7600		-5.859375
7601		3.906250
7602		-7.812500
7603		-1.953125
7604		-11.718750
7605		-5.859375
7606		-19.531250
7607		-9.765625
7608		-21.484375
7609		-11.718750
7610		-25.390625
7611		-17.578125
7612		-29.296875
7613		-23.437500
7614		-35.156250
7615		-29.296875
7616		-41.015625
7617		-33.203125
7618		-44.921875
7619		-35.156250
7620		-46.875000
7621		-41.015625
7622		-52.734375
7623		-44.921875
7624		-58.593750
7625		-48.828125
7626		-62.500000
7627		-54.687500
7628		-64.453125
7629		-58.593750
7630		-68.359375
7631		-62.500000
7632		-74.218750
7633		-68.359375
7634		-78.125000
7635		-70.312500
7636		-83.984375
7637		-74.218750
7638		-85.937500
7639		-80.078125
7640		-91.796875
7641		-83.984375
7642		-93.750000
7643		-85.937500
7644		-97.656250
7645		-89.843750
7646		-101.562500
7647		-95.703125
7648		-107.421875
7649		-99.609375
7650		-111.328125
7651		-103.515625
7652		-113.281250
7653		-105.468750
7654		-115.234375
7655		-111.328125
7656		-121.093750
7657		-115.234375
7658		-125.000000
7659		-115.234375
7660		-128.906250
7661		-119.140625
7662		-128.906250
7663		-123.046875
7664		-132.812500
7665		-126.953125
7666		-136.718750
7667		-130.859375
7668		-138.671875
7669		-130.859375
7670		-140.625000
7671		-134.765625
7672		-144.531250
7673		-138.671875
7674		-148.437500
7675		-140.625000
7676		-150.390625
7677		-142.578125
7678		-152.343750
7679		-144.531250
7680		-154.296875
7681		-150.390625
7682		-158.203125
7683		-152.343750
7684		-160.156250
7685		-152.343750
7686		-160.156250
7687		-156.250000
7688		-162.109375
7689		-158.203125
7690		-166.015625
7691		-158.203125
7692		-166.015625
7693		-158.203125
7694		-167.968750
7695		-162.109375
7696		-167.968750
7697		-164.062500
7698		-167.968750
7699		-166.015625
7700		-169.921875
7701		-166.015625
7702		-171.875000
7703		-164.062500
7704		-171.875000
7705		-167.968750
7706		-173.828125
7707		-169.921875
7708		-175.781250
7709		-166.015625
7710		-175.781250
7711		-167.968750
7712		-173.828125
7713		-169.921875
7714		-173.828125
7715		-169.921875
7716		-175.781250
7717		-169.921875
7718		-175.781250
7719		-166.015625
7720		-175.781250
7721		-167.968750
7722		-171.875000
7723		-169.921875
7724		-175.781250
7725		-166.015625
7726		-173.828125
7727		-166.015625
7728		-171.875000
7729		-166.015625
7730		-169.921875
7731		-166.015625
7732		-169.921875
7733		-164.062500
7734		-169.921875
7735		-162.109375
7736		-169.921875
7737		-162.109375
7738		-164.062500
7739		-162.109375
7740		-164.062500
7741		-158.203125
7742		-166.015625
7743		-156.250000
7744		-160.156250
7745		-152.343750
7746		-158.203125
7747		-154.296875
7748		-156.250000
7749		-152.343750
7750		-154.296875
7751		-148.437500
7752		-152.343750
7753		-146.484375
7754		-150.390625
7755		-144.531250
7756		-146.484375
7757		-140.625000
7758		-144.531250
7759		-138.671875
7760		-140.625000
7761		-136.718750
7762		-138.671875
7763		-132.812500
7764		-134.765625
7765		-128.906250
7766		-130.859375
7767		-126.953125
7768		-128.906250
7769		-121.093750
7770		-125.000000
7771		-119.140625
7772		-121.093750
7773		-115.234375
7774		-117.187500
7775		-111.328125
7776		-115.234375
7777		-109.375000
7778		-111.328125
7779		-105.468750
7780		-107.421875
7781		-101.562500
7782		-103.515625
7783		-97.656250
7784		-99.609375
7785		-93.750000
7786		-95.703125
7787		-87.890625
7788		-91.796875
7789		-85.937500
7790		-87.890625
7791		-80.078125
7792		-83.984375
7793		-76.171875
7794		-78.125000
7795		-72.265625
7796		-74.218750
7797		-68.359375
7798		-70.312500
7799		-64.453125
7800		-66.406250
7801		-58.593750
7802		-60.546875
7803		-54.687500
7804		-56.640625
7805		-50.781250
7806		-52.734375
7807		-46.875000
7808		-48.828125
7809		-42.968750
7810		-42.968750
7811		-37.109375
7812		-39.062500
7813		-33.203125
7814		-35.156250
7815		-27.343750
7816		-29.296875
7817		-23.437500
7818		-25.390625
7819		-19.531250
7820		-21.484375
7821		-15.625000
7822		-15.625000
7823		-9.765625
7824		-11.718750
7825		-5.859375
7826		-7.812500
7827		-1.953125
7828		-1.953125
7829		3.906250
7830		1.953125
7831		7.812500
7832		5.859375
7833		11.718750
7834		9.765625
7835		17.578125
7836		13.671875
7837		21.484375
7838		17.578125
7839		25.390625
7840		21.484375
7841		29.296875
7842		27.343750
7843		33.203125
7844		31.250000
7845		39.062500
7846		35.156250
7847		41.015625
7848		39.062500
7849		44.921875
7850		42.968750
7851		50.781250
7852		46.875000
7853		52.734375
7854		50.781250
7855		58.593750
7856		54.687500
7857		62.500000
7858		58.593750
7859		66.406250
7860		62.500000
7861		70.312500
7862		66.406250
7863		72.265625
7864		70.312500
7865		76.171875
7866		74.218750
7867		80.078125
7868		78.125000
7869		83.984375
7870		80.078125
7871		87.890625
7872		83.984375
7873		89.843750
7874		85.937500
7875		93.750000
7876		89.843750
7877		97.656250
7878		93.750000
7879		99.609375
7880		97.656250
7881		101.562500
7882		99.609375
7883		105.468750
7884		103.515625
7885		107.421875
7886		105.468750
7887		111.328125
7888		107.421875
7889		113.281250
7890		111.328125
7891		117.187500
7892		113.281250
7893		119.140625
7894		115.234375
7895		121.093750
7896		117.187500
7897		123.046875
7898		121.093750
7899		125.000000
7900		123.046875
7901		126.953125
7902		125.000000
7903		128.906250
7904		126.953125
7905		130.859375
7906		128.906250
7907		134.765625
7908		130.859375
7909		136.718750
7910		132.812500
7911		136.718750
7912		134.765625
7913		138.671875
7914		136.718750
7915		140.625000
7916		136.718750
7917		142.578125
7918		138.671875
7919		142.578125
7920		140.625000
7921		144.531250
7922		140.625000
7923		146.484375
7924		140.625000
7925		146.484375
7926		144.531250
7927		148.437500
7928		144.531250
7929		148.437500
7930		144.531250
7931		150.390625
7932		146.484375
7933		150.390625
7934		148.437500
7935		150.390625
7936		148.437500
7937		152.343750
7938		148.437500
7939		152.343750
7940		148.437500
7941		154.296875
7942		150.390625
7943		154.296875
7944		148.437500
7945		154.296875
7946		150.390625
7947		154.296875
7948		150.390625
7949		154.296875
7950		150.390625
7951		154.296875
7952		150.390625
7953		154.296875
7954		150.390625
7955		154.296875
7956		150.390625
7957		154.296875
7958		148.437500
7959		154.296875
7960		150.390625
7961		154.296875
7962		148.437500
7963		152.343750
7964		148.437500
7965		152.343750
7966		148.437500
7967		152.343750
7968		146.484375
7969		152.343750
7970		146.484375
7971		150.390625
7972		146.484375
7973		148.437500
7974		144.531250
7975		150.390625
7976		144.531250
7977		148.437500
7978		142.578125
7979		146.484375
7980		142.578125
7981		144.531250
7982		140.625000
7983		144.531250
7984		138.671875
7985		142.578125
7986		136.718750
7987		142.578125
7988		134.765625
7989		138.671875
7990		132.812500
7991		138.671875
7992		132.812500
7993		136.718750
7994		130.859375
7995		134.765625
7996		126.953125
7997		132.812500
7998		126.953125
7999		130.859375
8000		125.000000
8001		128.906250
8002		121.093750
8003		126.953125
8004		119.140625
8005		123.046875
8006		117.187500
8007		121.093750
8008		115.234375
8009		119.140625
8010		111.328125
8011		117.187500
8012		109.375000
8013		113.281250
8014		107.421875
8015		111.328125
8016		103.515625
8017		109.375000
8018		101.562500
8019		105.468750
8020		97.656250
8021		103.515625
8022		95.703125
8023		99.609375
8024		91.796875
8025		95.703125
8026		87.890625
8027		93.750000
8028		83.984375
8029		89.843750
8030		80.078125
8031		87.890625
8032		78.125000
8033		83.984375
8034		74.218750
8035		80.078125
8036		70.312500
8037		76.171875
8038		66.406250
8039		72.265625
8040		62.500000
8041		68.359375
8042		58.593750
8043		66.406250
8044		56.640625
8045		60.546875
8046		50.781250
8047		56.640625
8048		46.875000
8049		52.734375
8050		42.968750
8051		48.828125
8052		39.062500
8053		44.921875
8054		35.156250
8055		41.015625
8056		31.250000
8057		37.109375
8058		27.343750
8059		33.203125
8060		23.437500
8061		29.296875
8062		17.578125
8063		25.390625
8064		13.671875
8065		19.531250
8066		9.765625
8067		15.625000
8068		3.906250
8069		11.718750
8070		0.000000
8071		5.859375
8072		-3.906250
8073		1.953125
8074		-9.765625
8075		-1.953125
8076		-11.718750
8077		-5.859375
8078		-17.578125
8079		-9.765625
8080		-21.484375
8081		-15.625000
8082		-25.390625
8083		-19.531250
8084		-31.250000
8085		-23.437500
8086		-35.156250
8087		-29.296875
8088		-39.062500
8089		-33.203125
8090		-42.968750
8091		-37.109375
8092		-48.828125
8093		-41.015625
8094		-52.734375
8095		-46.875000
8096		-56.640625
8097		-50.781250
8098		-60.546875
8099		-54.687500
8100		-64.453125
8101		-58.593750
8102		-70.312500
8103		-62.500000
8104		-74.218750
8105		-66.406250
8106		-78.125000
8107		-72.265625
8108		-82.031250
8109		-76.171875
8110		-85.937500
8111		-80.078125
8112		-89.843750
8113		-83.984375
8114		-93.750000
8115		-87.890625
8116		-97.656250
8117		-91.796875
8118		-101.562500
8119		-95.703125
8120		-105.468750
8121		-99.609375
8122		-109.375000
8123		-103.515625
8124		-111.328125
8125		-107.421875
8126		-117.187500
8127		-111.328125
8128		-119.140625
8129		-113.281250
8130		-123.046875
8131		-117.187500
8132		-126.953125
8133		-121.093750
8134		-128.906250
8135		-123.046875
8136		-130.859375
8137		-126.953125
8138		-134.765625
8139		-130.859375
8140		-138.671875
8141		-132.812500
8142		-140.625000
8143		-136.718750
8144		-142.578125
8145		-138.671875
8146		-146.484375
8147		-140.625000
8148		-148.437500
8149		-144.531250
8150		-150.390625
8151		-146.484375
8152		-154.296875
8153		-148.437500
8154		-156.250000
8155		-150.390625
8156		-156.250000
8157		-152.343750
8158		-158.203125
8159		-154.296875
8160		-160.156250
8161		-156.250000
8162		-162.109375
8163		-158.203125
8164		-164.062500
8165		-160.156250
8166		-166.015625
8167		-162.109375
8168		-166.015625
8169		-162.109375
8170		-167.968750
8171		-164.062500
8172		-169.921875
8173		-164.062500
8174		-169.921875
8175		-166.015625
8176		-169.921875
8177		-166.015625
8178		-171.875000
8179		-167.968750
8180		-171.875000
8181		-167.968750
8182		-171.875000
8183		-167.968750
8184		-171.875000
8185		-169.921875
8186		-171.875000
8187		-167.968750
8188		-171.875000
8189		-167.968750
8190		-171.875000
8191		-169.921875
8192		-171.875000
8193		-167.968750
8194		-171.875000
8195		-167.968750
8196		-169.921875
8197		-167.968750
8198		-169.921875
8199		-166.015625
8200		-169.921875
8201		-166.015625
8202		-167.968750
8203		-164.062500
8204		-167.968750
8205		-162.109375
8206		-166.015625
8207		-162.109375
8208		-164.062500
8209		-160.156250
8210		-164.062500
8211		-160.156250
8212		-162.109375
8213		-158.203125
8214		-160.156250
8215		-156.250000
8216		-158.203125
8217		-154.296875
8218		-156.250000
8219		-152.343750
8220		-154.296875
8221		-150.390625
8222		-152.343750
8223		-146.484375
8224		-150.390625
8225		-144.531250
8226		-146.484375
8227		-142.578125
8228		-144.531250
8229		-140.625000
8230		-140.625000
8231		-136.718750
8232		-138.671875
8233		-134.765625
8234		-136.718750
8235		-130.859375
8236		-132.812500
8237		-126.953125
8238		-130.859375
8239		-125.000000
8240		-126.953125
8241		-121.093750
8242		-123.046875
8243		-117.187500
8244		-119.140625
8245		-113.281250
8246		-117.187500
8247		-111.328125
8248		-113.281250
8249		-107.421875
8250		-109.375000
8251		-103.515625
8252		-105.468750
8253		-99.609375
8254		-101.562500
8255		-95.703125
8256		-97.656250
8257		-91.796875
8258		-93.750000
8259		-87.890625
8260		-89.843750
8261		-83.984375
8262		-85.937500
8263		-78.125000
8264		-82.031250
8265		-76.171875
8266		-78.125000
8267		-70.312500
8268		-72.265625
8269		-66.406250
8270		-68.359375
8271		-62.500000
8272		-64.453125
8273		-58.593750
8274		-60.546875
8275		-52.734375
8276		-56.640625
8277		-48.828125
8278		-50.781250
8279		-44.921875
8280		-46.875000
8281		-41.015625
8282		-42.968750
8283		-35.156250
8284		-37.109375
8285		-31.250000
8286		-33.203125
8287		-27.343750
8288		-29.296875
8289		-21.484375
8290		-23.437500
8291		-17.578125
8292		-19.531250
8293		-13.671875
8294		-15.625000
8295		-7.812500
8296		-9.765625
8297		-3.906250
8298		-5.859375
8299		0.000000
8300		-1.953125
8301		3.906250
8302		1.953125
8303		9.765625
8304		5.859375
8305		13.671875
8306		11.718750
8307		17.578125
8308		15.625000
8309		21.484375
8310		19.531250
8311		27.343750
8312		25.390625
8313		31.250000
8314		29.296875
8315		35.156250
8316		33.203125
8317		39.062500
8318		37.109375
8319		42.968750
8320		41.015625
8321		46.875000
8322		42.968750
8323		50.781250
8324		48.828125
8325		54.687500
8326		52.734375
8327		58.593750
8328		56.640625
8329		62.500000
8330		60.546875
8331		66.406250
8332		64.453125
8333		70.312500
8334		68.359375
8335		74.218750
8336		72.265625
8337		76.171875
8338		76.171875
8339		80.078125
8340		78.125000
8341		83.984375
8342		82.031250
8343		87.890625
8344		85.937500
8345		91.796875
8346		89.843750
8347		95.703125
8348		91.796875
8349		97.656250
8350		95.703125
8351		101.562500
8352		97.656250
8353		103.515625
8354		101.562500
8355		107.421875
8356		103.515625
8357		109.375000
8358		107.421875
8359		111.328125
8360		109.375000
8361		113.281250
8362		111.328125
8363		117.187500
8364		115.234375
8365		119.140625
8366		117.187500
8367		123.046875
8368		119.140625
8369		125.000000
8370		123.046875
8371		126.953125
8372		123.046875
8373		128.906250
8374		126.953125
8375		130.859375
8376		128.906250
8377		132.812500
8378		130.859375
8379		134.765625
8380		132.812500
8381		136.718750
8382		134.765625
8383		138.671875
8384		136.718750
8385		140.625000
8386		138.671875
8387		140.625000
8388		138.671875
8389		142.578125
8390		140.625000
8391		144.531250
8392		142.578125
8393		146.484375
8394		142.578125
8395		146.484375
8396		144.531250
8397		148.437500
8398		146.484375
8399		150.390625
8400		146.484375
8401		150.390625
8402		148.437500
8403		150.390625
8404		148.437500
8405		152.343750
8406		148.437500
8407		152.343750
8408		150.390625
8409		154.296875
8410		150.390625
8411		154.296875
8412		150.390625
8413		154.296875
8414		152.343750
8415		154.296875
8416		152.343750
8417		154.296875
8418		152.343750
8419		156.250000
8420		152.343750
8421		156.250000
8422		152.343750
8423		156.250000
8424		152.343750
8425		156.250000
8426		152.343750
8427		156.250000
8428		152.343750
8429		156.250000
8430		152.343750
8431		156.250000
8432		152.343750
8433		154.296875
8434		150.390625
8435		154.296875
8436		150.390625
8437		154.296875
8438		148.437500
8439		152.343750
8440		148.437500
8441		152.343750
8442		148.437500
8443		152.343750
8444		146.484375
8445		150.390625
8446		146.484375
8447		150.390625
8448		146.484375
8449		148.437500
8450		144.531250
8451		148.437500
8452		142.578125
8453		146.484375
8454		142.578125
8455		144.531250
8456		140.625000
8457		144.531250
8458		138.671875
8459		142.578125
8460		136.718750
8461		140.625000
8462		134.765625
8463		138.671875
8464		134.765625
8465		138.671875
8466		130.859375
8467		136.718750
8468		130.859375
8469		134.765625
8470		128.906250
8471		132.812500
8472		125.000000
8473		130.859375
8474		123.046875
8475		128.906250
8476		121.093750
8477		126.953125
8478		119.140625
8479		123.046875
8480		117.187500
8481		121.093750
8482		113.281250
8483		119.140625
8484		111.328125
8485		117.187500
8486		109.375000
8487		113.281250
8488		105.468750
8489		111.328125
8490		103.515625
8491		107.421875
8492		99.609375
8493		105.468750
8494		95.703125
8495		101.562500
8496		93.750000
8497		97.656250
8498		89.843750
8499		95.703125
8500		87.890625
8501		91.796875
8502		83.984375
8503		89.843750
8504		80.078125
8505		85.937500
8506		76.171875
8507		82.031250
8508		72.265625
8509		78.125000
8510		70.312500
8511		74.218750
8512		64.453125
8513		70.312500
8514		62.500000
8515		68.359375
8516		56.640625
8517		64.453125
8518		54.687500
8519		58.593750
8520		48.828125
8521		54.687500
8522		44.921875
8523		50.781250
8524		41.015625
8525		46.875000
8526		37.109375
8527		42.968750
8528		33.203125
8529		39.062500
8530		29.296875
8531		35.156250
8532		25.390625
8533		31.250000
8534		19.531250
8535		27.343750
8536		15.625000
8537		23.437500
8538		11.718750
8539		17.578125
8540		5.859375
8541		13.671875
8542		1.953125
8543		9.765625
8544		-1.953125
8545		5.859375
8546		-5.859375
8547		0.000000
8548		-9.765625
8549		-3.906250
8550		-15.625000
8551		-7.812500
8552		-19.531250
8553		-11.718750
8554		-23.437500
8555		-17.578125
8556		-29.296875
8557		-21.484375
8558		-33.203125
8559		-27.343750
8560		-37.109375
8561		-31.250000
8562		-41.015625
8563		-35.156250
8564		-46.875000
8565		-39.062500
8566		-50.781250
8567		-44.921875
8568		-54.687500
8569		-48.828125
8570		-58.593750
8571		-52.734375
8572		-62.500000
8573		-56.640625
8574		-68.359375
8575		-60.546875
8576		-72.265625
8577		-66.406250
8578		-76.171875
8579		-70.312500
8580		-80.078125
8581		-74.218750
8582		-83.984375
8583		-78.125000
8584		-87.890625
8585		-82.031250
8586		-91.796875
8587		-85.937500
8588		-95.703125
8589		-89.843750
8590		-101.562500
8591		-93.750000
8592		-103.515625
8593		-97.656250
8594		-109.375000
8595		-101.562500
8596		-113.281250
8597		-103.515625
8598		-115.234375
8599		-109.375000
8600		-117.187500
8601		-111.328125
8602		-121.093750
8603		-113.281250
8604		-125.000000
8605		-119.140625
8606		-128.906250
8607		-123.046875
8608		-130.859375
8609		-125.000000
8610		-136.718750
8611		-126.953125
8612		-138.671875
8613		-130.859375
8614		-138.671875
8615		-134.765625
8616		-144.531250
8617		-136.718750
8618		-146.484375
8619		-138.671875
8620		-146.484375
8621		-142.578125
8622		-150.390625
8623		-144.531250
8624		-154.296875
8625		-146.484375
8626		-156.250000
8627		-148.437500
8628		-156.250000
8629		-150.390625
8630		-160.156250
8631		-152.343750
8632		-162.109375
8633		-154.296875
8634		-164.062500
8635		-156.250000
8636		-164.062500
8637		-160.156250
8638		-164.062500
8639		-160.156250
8640		-167.968750
8641		-162.109375
8642		-169.921875
8643		-162.109375
8644		-169.921875
8645		-164.062500
8646		-171.875000
8647		-164.062500
8648		-171.875000
8649		-164.062500
8650		-173.828125
8651		-166.015625
8652		-171.875000
8653		-166.015625
8654		-171.875000
8655		-169.921875
8656		-171.875000
8657		-169.921875
8658		-173.828125
8659		-167.968750
8660		-173.828125
8661		-167.968750
8662		-173.828125
8663		-167.968750
8664		-173.828125
8665		-167.968750
8666		-173.828125
8667		-167.968750
8668		-173.828125
8669		-166.015625
8670		-171.875000
8671		-167.968750
8672		-169.921875
8673		-166.015625
8674		-169.921875
8675		-164.062500
8676		-169.921875
8677		-164.062500
8678		-167.968750
8679		-164.062500
8680		-166.015625
8681		-160.156250
8682		-164.062500
8683		-160.156250
8684		-164.062500
8685		-158.203125
8686		-162.109375
8687		-156.250000
8688		-160.156250
8689		-156.250000
8690		-158.203125
8691		-154.296875
8692		-158.203125
8693		-150.390625
8694		-154.296875
8695		-148.437500
8696		-152.343750
8697		-144.531250
8698		-150.390625
8699		-144.531250
8700		-148.437500
8701		-140.625000
8702		-144.531250
8703		-138.671875
8704		-140.625000
8705		-136.718750
8706		-138.671875
8707		-132.812500
8708		-134.765625
8709		-128.906250
8710		-132.812500
8711		-125.000000
8712		-128.906250
8713		-123.046875
8714		-126.953125
8715		-119.140625
8716		-123.046875
8717		-115.234375
8718		-119.140625
8719		-111.328125
8720		-115.234375
8721		-109.375000
8722		-111.328125
8723		-105.468750
8724		-107.421875
8725		-99.609375
8726		-105.468750
8727		-95.703125
8728		-101.562500
8729		-91.796875
8730		-97.656250
8731		-87.890625
8732		-93.750000
8733		-83.984375
8734		-87.890625
8735		-80.078125
8736		-85.937500
8737		-78.125000
8738		-78.125000
8739		-72.265625
8740		-74.218750
8741		-68.359375
8742		-70.312500
8743		-62.500000
8744		-66.406250
8745		-58.593750
8746		-62.500000
8747		-54.687500
8748		-58.593750
8749		-48.828125
8750		-52.734375
8751		-46.875000
8752		-50.781250
8753		-41.015625
8754		-44.921875
8755		-37.109375
8756		-41.015625
8757		-33.203125
8758		-35.156250
8759		-27.343750
8760		-31.250000
8761		-23.437500
8762		-27.343750
8763		-17.578125
8764		-21.484375
8765		-13.671875
8766		-19.531250
8767		-9.765625
8768		-13.671875
8769		-3.906250
8770		-9.765625
8771		-1.953125
8772		-3.906250
8773		1.953125
8774		0.000000
8775		7.812500
8776		3.906250
8777		13.671875
8778		7.812500
8779		17.578125
8780		13.671875
8781		21.484375
8782		15.625000
8783		25.390625
8784		21.484375
8785		29.296875
8786		25.390625
8787		33.203125
8788		31.250000
8789		37.109375
8790		35.156250
8791		41.015625
8792		39.062500
8793		46.875000
8794		42.968750
8795		50.781250
8796		44.921875
8797		54.687500
8798		48.828125
8799		58.593750
8800		52.734375
8801		62.500000
8802		58.593750
8803		66.406250
8804		60.546875
8805		68.359375
8806		66.406250
8807		72.265625
8808		70.312500
8809		76.171875
8810		74.218750
8811		80.078125
8812		76.171875
8813		83.984375
8814		78.125000
8815		87.890625
8816		82.031250
8817		91.796875
8818		85.937500
8819		93.750000
8820		87.890625
8821		95.703125
8822		93.750000
8823		99.609375
8824		97.656250
8825		101.562500
8826		99.609375
8827		105.468750
8828		101.562500
8829		109.375000
8830		103.515625
8831		113.281250
8832		107.421875
8833		115.234375
8834		109.375000
8835		117.187500
8836		111.328125
8837		119.140625
8838		115.234375
8839		121.093750
8840		119.140625
8841		123.046875
8842		121.093750
8843		126.953125
8844		121.093750
8845		128.906250
8846		123.046875
8847		132.812500
8848		126.953125
8849		132.812500
8850		126.953125
8851		134.765625
8852		128.906250
8853		136.718750
8854		130.859375
8855		136.718750
8856		134.765625
8857		138.671875
8858		136.718750
8859		140.625000
8860		136.718750
8861		144.531250
8862		138.671875
8863		144.531250
8864		140.625000
8865		146.484375
8866		140.625000
8867		146.484375
8868		142.578125
8869		148.437500
8870		142.578125
8871		148.437500
8872		146.484375
8873		148.437500
8874		146.484375
8875		150.390625
8876		146.484375
8877		154.296875
8878		146.484375
8879		152.343750
8880		148.437500
8881		154.296875
8882		148.437500
8883		154.296875
8884		148.437500
8885		156.250000
8886		148.437500
8887		156.250000
8888		150.390625
8889		154.296875
8890		152.343750
8891		154.296875
8892		150.390625
8893		156.250000
8894		150.390625
8895		156.250000
8896		150.390625
8897		156.250000
8898		150.390625
8899		156.250000
8900		150.390625
8901		156.250000
8902		150.390625
8903		156.250000
8904		148.437500
8905		156.250000
8906		150.390625
8907		154.296875
8908		150.390625
8909		154.296875
8910		146.484375
8911		154.296875
8912		146.484375
8913		154.296875
8914		144.531250
8915		152.343750
8916		146.484375
8917		152.343750
8918		144.531250
8919		150.390625
8920		142.578125
8921		150.390625
8922		144.531250
8923		148.437500
8924		142.578125
8925		146.484375
8926		138.671875
8927		144.531250
8928		138.671875
8929		144.531250
8930		136.718750
8931		142.578125
8932		134.765625
8933		140.625000
8934		132.812500
8935		140.625000
8936		130.859375
8937		138.671875
8938		130.859375
8939		136.718750
8940		128.906250
8941		132.812500
8942		126.953125
8943		130.859375
8944		123.046875
8945		130.859375
8946		121.093750
8947		128.906250
8948		119.140625
8949		126.953125
8950		117.187500
8951		125.000000
8952		113.281250
8953		121.093750
8954		113.281250
8955		119.140625
8956		111.328125
8957		115.234375
8958		107.421875
8959		113.281250
8960		103.515625
8961		111.328125
8962		99.609375
8963		107.421875
8964		97.656250
8965		105.468750
8966		93.750000
8967		103.515625
8968		91.796875
8969		99.609375
8970		87.890625
8971		95.703125
8972		85.937500
8973		91.796875
8974		83.984375
8975		87.890625
8976		78.125000
8977		83.984375
8978		76.171875
8979		82.031250
8980		72.265625
8981		78.125000
8982		66.406250
8983		76.171875
8984		62.500000
8985		70.312500
8986		60.546875
8987		68.359375
8988		56.640625
8989		64.453125
8990		52.734375
8991		58.593750
8992		48.828125
8993		54.687500
8994		42.968750
8995		52.734375
8996		39.062500
8997		48.828125
8998		35.156250
8999		42.968750
9000		31.250000
9001		39.062500
9002		27.343750
9003		37.109375
9004		23.437500
9005		31.250000
9006		19.531250
9007		25.390625
9008		15.625000
9009		21.484375
9010		9.765625
9011		17.578125
9012		5.859375
9013		13.671875
9014		1.953125
9015		7.812500
9016		-3.906250
9017		5.859375
9018		-9.765625
9019		0.000000
9020		-13.671875
9021		-3.906250
9022		-15.625000
9023		-9.765625
9024		-19.531250
9025		-13.671875
9026		-23.437500
9027		-17.578125
9028		-31.250000
9029		-21.484375
9030		-35.156250
9031		-25.390625
9032		-39.062500
9033		-29.296875
9034		-42.968750
9035		-33.203125
9036		-48.828125
9037		-39.062500
9038		-50.781250
9039		-42.968750
9040		-54.687500
9041		-48.828125
9042		-58.593750
9043		-52.734375
9044		-64.453125
9045		-58.593750
9046		-68.359375
9047		-60.546875
9048		-74.218750
9049		-64.453125
9050		-78.125000
9051		-68.359375
9052		-82.031250
9053		-74.218750
9054		-83.984375
9055		-78.125000
9056		-87.890625
9057		-82.031250
9058		-91.796875
9059		-87.890625
9060		-97.656250
9061		-89.843750
9062		-101.562500
9063		-93.750000
9064		-105.468750
9065		-95.703125
9066		-109.375000
9067		-101.562500
9068		-111.328125
9069		-103.515625
9070		-117.187500
9071		-107.421875
9072		-119.140625
9073		-113.281250
9074		-123.046875
9075		-117.187500
9076		-125.000000
9077		-121.093750
9078		-130.859375
9079		-123.046875
9080		-132.812500
9081		-125.000000
9082		-136.718750
9083		-128.906250
9084		-138.671875
9085		-130.859375
9086		-142.578125
9087		-134.765625
9088		-144.531250
9089		-136.718750
9090		-146.484375
9091		-140.625000
9092		-148.437500
9093		-144.531250
9094		-152.343750
9095		-146.484375
9096		-154.296875
9097		-148.437500
9098		-158.203125
9099		-150.390625
9100		-160.156250
9101		-152.343750
9102		-162.109375
9103		-154.296875
9104		-164.062500
9105		-156.250000
9106		-164.062500
9107		-158.203125
9108		-166.015625
9109		-162.109375
9110		-166.015625
9111		-162.109375
9112		-169.921875
9113		-162.109375
9114		-171.875000
9115		-164.062500
9116		-171.875000
9117		-166.015625
9118		-173.828125
9119		-166.015625
9120		-173.828125
9121		-167.968750
9122		-173.828125
9123		-167.968750
9124		-173.828125
9125		-169.921875
9126		-173.828125
9127		-171.875000
9128		-175.781250
9129		-169.921875
9130		-175.781250
9131		-169.921875
9132		-175.781250
9133		-169.921875
9134		-175.781250
9135		-169.921875
9136		-175.781250
9137		-169.921875
9138		-175.781250
9139		-169.921875
9140		-175.781250
9141		-167.968750
9142		-171.875000
9143		-169.921875
9144		-171.875000
9145		-167.968750
9146		-173.828125
9147		-166.015625
9148		-171.875000
9149		-166.015625
9150		-169.921875
9151		-164.062500
9152		-169.921875
9153		-162.109375
9154		-167.968750
9155		-160.156250
9156		-167.968750
9157		-160.156250
9158		-164.062500
9159		-158.203125
9160		-162.109375
9161		-158.203125
9162		-160.156250
9163		-154.296875
9164		-160.156250
9165		-152.343750
9166		-156.250000
9167		-148.437500
9168		-154.296875
9169		-148.437500
9170		-152.343750
9171		-144.531250
9172		-148.437500
9173		-142.578125
9174		-146.484375
9175		-140.625000
9176		-142.578125
9177		-138.671875
9178		-140.625000
9179		-132.812500
9180		-138.671875
9181		-130.859375
9182		-134.765625
9183		-126.953125
9184		-132.812500
9185		-125.000000
9186		-128.906250
9187		-121.093750
9188		-125.000000
9189		-117.187500
9190		-121.093750
9191		-115.234375
9192		-117.187500
9193		-111.328125
9194		-113.281250
9195		-107.421875
9196		-109.375000
9197		-101.562500
9198		-107.421875
9199		-99.609375
9200		-103.515625
9201		-93.750000
9202		-99.609375
9203		-89.843750
9204		-93.750000
9205		-85.937500
9206		-89.843750
9207		-82.031250
9208		-85.937500
9209		-78.125000
9210		-80.078125
9211		-74.218750
9212		-76.171875
9213		-68.359375
9214		-74.218750
9215		-64.453125
9216		-68.359375
9217		-60.546875
9218		-64.453125
9219		-54.687500
9220		-60.546875
9221		-52.734375
9222		-56.640625
9223		-46.875000
9224		-50.781250
9225		-42.968750
9226		-44.921875
9227		-39.062500
9228		-41.015625
9229		-33.203125
9230		-39.062500
9231		-29.296875
9232		-33.203125
9233		-23.437500
9234		-27.343750
9235		-19.531250
9236		-23.437500
9237		-17.578125
9238		-21.484375
9239		-11.718750
9240		-15.625000
9241		-7.812500
9242		-9.765625
9243		-3.906250
9244		-5.859375
9245		0.000000
9246		-1.953125
9247		5.859375
9248		1.953125
9249		11.718750
9250		7.812500
9251		15.625000
9252		11.718750
9253		19.531250
9254		15.625000
9255		23.437500
9256		19.531250
9257		29.296875
9258		21.484375
9259		31.250000
9260		29.296875
9261		35.156250
9262		33.203125
9263		41.015625
9264		37.109375
9265		44.921875
9266		41.015625
9267		48.828125
9268		44.921875
9269		52.734375
9270		48.828125
9271		56.640625
9272		52.734375
9273		62.500000
9274		56.640625
9275		64.453125
9276		60.546875
9277		66.406250
9278		64.453125
9279		70.312500
9280		68.359375
9281		76.171875
9282		70.312500
9283		80.078125
9284		74.218750
9285		82.031250
9286		78.125000
9287		85.937500
9288		82.031250
9289		89.843750
9290		83.984375
9291		91.796875
9292		89.843750
9293		95.703125
9294		93.750000
9295		97.656250
9296		95.703125
9297		101.562500
9298		97.656250
9299		105.468750
9300		99.609375
9301		107.421875
9302		103.515625
9303		109.375000
9304		105.468750
9305		113.281250
9306		107.421875
9307		115.234375
9308		111.328125
9309		117.187500
9310		115.234375
9311		119.140625
9312		117.187500
9313		123.046875
9314		117.187500
9315		125.000000
9316		121.093750
9317		128.906250
9318		123.046875
9319		128.906250
9320		125.000000
9321		130.859375
9322		125.000000
9323		132.812500
9324		128.906250
9325		134.765625
9326		130.859375
9327		134.765625
9328		134.765625
9329		136.718750
9330		132.812500
9331		140.625000
9332		134.765625
9333		142.578125
9334		136.718750
9335		142.578125
9336		138.671875
9337		144.531250
9338		138.671875
9339		146.484375
9340		140.625000
9341		148.437500
9342		142.578125
9343		148.437500
9344		144.531250
9345		148.437500
9346		144.531250
9347		150.390625
9348		144.531250
9349		152.343750
9350		146.484375
9351		152.343750
9352		146.484375
9353		152.343750
9354		146.484375
9355		152.343750
9356		146.484375
9357		154.296875
9358		148.437500
9359		154.296875
9360		150.390625
9361		152.343750
9362		150.390625
9363		154.296875
9364		148.437500
9365		156.250000
9366		148.437500
9367		156.250000
9368		148.437500
9369		156.250000
9370		148.437500
9371		156.250000
9372		148.437500
9373		156.250000
9374		148.437500
9375		154.296875
9376		150.390625
9377		152.343750
9378		148.437500
9379		152.343750
9380		148.437500
9381		152.343750
9382		146.484375
9383		154.296875
9384		146.484375
9385		152.343750
9386		144.531250
9387		152.343750
9388		144.531250
9389		152.343750
9390		144.531250
9391		150.390625
9392		142.578125
9393		148.437500
9394		142.578125
9395		146.484375
9396		142.578125
9397		144.531250
9398		138.671875
9399		146.484375
9400		136.718750
9401		142.578125
9402		134.765625
9403		142.578125
9404		134.765625
9405		140.625000
9406		132.812500
9407		140.625000
9408		130.859375
9409		138.671875
9410		130.859375
9411		134.765625
9412		128.906250
9413		132.812500
9414		125.000000
9415		130.859375
9416		123.046875
9417		130.859375
9418		121.093750
9419		128.906250
9420		119.140625
9421		125.000000
9422		115.234375
9423		125.000000
9424		113.281250
9425		121.093750
9426		111.328125
9427		117.187500
9428		109.375000
9429		113.281250
9430		103.515625
9431		111.328125
9432		101.562500
9433		111.328125
9434		99.609375
9435		107.421875
9436		95.703125
9437		105.468750
9438		93.750000
9439		101.562500
9440		91.796875
9441		97.656250
9442		87.890625
9443		95.703125
9444		85.937500
9445		89.843750
9446		82.031250
9447		87.890625
9448		78.125000
9449		83.984375
9450		72.265625
9451		82.031250
9452		68.359375
9453		78.125000
9454		64.453125
9455		74.218750
9456		62.500000
9457		70.312500
9458		58.593750
9459		66.406250
9460		56.640625
9461		62.500000
9462		52.734375
9463		56.640625
9464		46.875000
9465		52.734375
9466		42.968750
9467		50.781250
9468		37.109375
9469		46.875000
9470		33.203125
9471		42.968750
9472		31.250000
9473		39.062500
9474		25.390625
9475		35.156250
9476		23.437500
9477		29.296875
9478		17.578125
9479		25.390625
9480		13.671875
9481		19.531250
9482		7.812500
9483		15.625000
9484		3.906250
9485		11.718750
9486		0.000000
9487		7.812500
9488		-3.906250
9489		3.906250
9490		-9.765625
9491		-1.953125
9492		-13.671875
9493		-5.859375
9494		-15.625000
9495		-9.765625
9496		-21.484375
9497		-15.625000
9498		-27.343750
9499		-19.531250
9500		-31.250000
9501		-23.437500
9502		-35.156250
9503		-27.343750
9504		-41.015625
9505		-31.250000
9506		-44.921875
9507		-35.156250
9508		-48.828125
9509		-39.062500
9510		-52.734375
9511		-44.921875
9512		-56.640625
9513		-50.781250
9514		-62.500000
9515		-54.687500
9516		-66.406250
9517		-58.593750
9518		-68.359375
9519		-62.500000
9520		-74.218750
9521		-66.406250
9522		-78.125000
9523		-70.312500
9524		-82.031250
9525		-74.218750
9526		-85.937500
9527		-78.125000
9528		-89.843750
9529		-83.984375
9530		-93.750000
9531		-87.890625
9532		-99.609375
9533		-91.796875
9534		-103.515625
9535		-93.750000
9536		-107.421875
9537		-97.656250
9538		-109.375000
9539		-101.562500
9540		-113.281250
9541		-105.468750
9542		-117.187500
9543		-109.375000
9544		-119.140625
9545		-113.281250
9546		-123.046875
9547		-117.187500
9548		-126.953125
9549		-121.093750
9550		-130.859375
9551		-123.046875
9552		-134.765625
9553		-125.000000
9554		-136.718750
9555		-128.906250
9556		-140.625000
9557		-132.812500
9558		-142.578125
9559		-136.718750
9560		-144.531250
9561		-138.671875
9562		-146.484375
9563		-142.578125
9564		-148.437500
9565		-144.531250
9566		-154.296875
9567		-146.484375
9568		-156.250000
9569		-148.437500
9570		-158.203125
9571		-150.390625
9572		-160.156250
9573		-152.343750
9574		-162.109375
9575		-154.296875
9576		-164.062500
9577		-158.203125
9578		-164.062500
9579		-160.156250
9580		-166.015625
9581		-162.109375
9582		-167.968750
9583		-162.109375
9584		-169.921875
9585		-164.062500
9586		-171.875000
9587		-164.062500
9588		-171.875000
9589		-166.015625
9590		-173.828125
9591		-166.015625
9592		-173.828125
9593		-167.968750
9594		-173.828125
9595		-167.968750
9596		-173.828125
9597		-169.921875
9598		-175.781250
9599		-169.921875
9600		-175.781250
9601		-169.921875
9602		-175.781250
9603		-169.921875
9604		-175.781250
9605		-169.921875
9606		-175.781250
9607		-169.921875
9608		-175.781250
9609		-169.921875
9610		-175.781250
9611		-169.921875
9612		-173.828125
9613		-169.921875
9614		-173.828125
9615		-169.921875
9616		-173.828125
9617		-167.968750
9618		-173.828125
9619		-166.015625
9620		-171.875000
9621		-164.062500
9622		-169.921875
9623		-164.062500
9624		-169.921875
9625		-162.109375
9626		-167.968750
9627		-160.156250
9628		-166.015625
9629		-162.109375
9630		-164.062500
9631		-160.156250
9632		-162.109375
9633		-154.296875
9634		-162.109375
9635		-154.296875
9636		-158.203125
9637		-152.343750
9638		-156.250000
9639		-148.437500
9640		-154.296875
9641		-146.484375
9642		-152.343750
9643		-144.531250
9644		-148.437500
9645		-142.578125
9646		-144.531250
9647		-140.625000
9648		-142.578125
9649		-136.718750
9650		-140.625000
9651		-132.812500
9652		-136.718750
9653		-130.859375
9654		-134.765625
9655		-126.953125
9656		-130.859375
9657		-123.046875
9658		-128.906250
9659		-119.140625
9660		-125.000000
9661		-117.187500
9662		-121.093750
9663		-115.234375
9664		-115.234375
9665		-111.328125
9666		-113.281250
9667		-105.468750
9668		-111.328125
9669		-101.562500
9670		-107.421875
9671		-97.656250
9672		-103.515625
9673		-93.750000
9674		-97.656250
9675		-89.843750
9676		-95.703125
9677		-85.937500
9678		-89.843750
9679		-82.031250
9680		-83.984375
9681		-78.125000
9682		-80.078125
9683		-74.218750
9684		-78.125000
9685		-70.312500
9686		-74.218750
9687		-64.453125
9688		-70.312500
9689		-60.546875
9690		-64.453125
9691		-56.640625
9692		-58.593750
9693		-52.734375
9694		-54.687500
9695		-48.828125
9696		-48.828125
9697		-42.968750
9698		-44.921875
9699		-39.062500
9700		-41.015625
9701		-33.203125
9702		-37.109375
9703		-29.296875
9704		-33.203125
9705		-25.390625
9706		-29.296875
9707		-21.484375
9708		-25.390625
9709		-15.625000
9710		-19.531250
9711		-9.765625
9712		-13.671875
9713		-7.812500
9714		-9.765625
9715		-3.906250
9716		-3.906250
9717		3.906250
9718		-1.953125
9719		7.812500
9720		1.953125
9721		11.718750
9722		7.812500
9723		15.625000
9724		11.718750
9725		21.484375
9726		15.625000
9727		25.390625
9728		19.531250
9729		27.343750
9730		25.390625
9731		31.250000
9732		31.250000
9733		35.156250
9734		33.203125
9735		41.015625
9736		37.109375
9737		46.875000
9738		41.015625
9739		48.828125
9740		44.921875
9741		52.734375
9742		48.828125
9743		56.640625
9744		52.734375
9745		60.546875
9746		58.593750
9747		64.453125
9748		62.500000
9749		68.359375
9750		66.406250
9751		72.265625
9752		68.359375
9753		76.171875
9754		70.312500
9755		80.078125
9756		74.218750
9757		83.984375
9758		80.078125
9759		85.937500
9760		82.031250
9761		89.843750
9762		83.984375
9763		91.796875
9764		89.843750
9765		93.750000
9766		93.750000
9767		99.609375
9768		93.750000
9769		101.562500
9770		97.656250
9771		105.468750
9772		99.609375
9773		107.421875
9774		103.515625
9775		111.328125
9776		105.468750
9777		113.281250
9778		107.421875
9779		115.234375
9780		113.281250
9781		117.187500
9782		115.234375
9783		119.140625
9784		117.187500
9785		123.046875
9786		119.140625
9787		126.953125
9788		121.093750
9789		126.953125
9790		123.046875
9791		128.906250
9792		125.000000
9793		132.812500
9794		126.953125
9795		132.812500
9796		128.906250
9797		134.765625
9798		132.812500
9799		136.718750
9800		132.812500
9801		140.625000
9802		134.765625
9803		140.625000
9804		136.718750
9805		142.578125
9806		136.718750
9807		144.531250
9808		138.671875
9809		146.484375
9810		140.625000
9811		146.484375
9812		140.625000
9813		148.437500
9814		144.531250
9815		148.437500
9816		144.531250
9817		148.437500
9818		144.531250
9819		152.343750
9820		146.484375
9821		152.343750
9822		144.531250
9823		152.343750
9824		146.484375
9825		154.296875
9826		148.437500
9827		154.296875
9828		148.437500
9829		154.296875
9830		150.390625
9831		152.343750
9832		150.390625
9833		154.296875
9834		148.437500
9835		154.296875
9836		148.437500
9837		156.250000
9838		150.390625
9839		156.250000
9840		150.390625
9841		156.250000
9842		150.390625
9843		156.250000
9844		148.437500
9845		156.250000
9846		150.390625
9847		154.296875
9848		150.390625
9849		154.296875
9850		148.437500
9851		154.296875
9852		148.437500
9853		154.296875
9854		146.484375
9855		154.296875
9856		146.484375
9857		152.343750
9858		146.484375
9859		152.343750
9860		144.531250
9861		152.343750
9862		144.531250
9863		150.390625
9864		144.531250
9865		148.437500
9866		144.531250
9867		146.484375
9868		140.625000
9869		146.484375
9870		138.671875
9871		146.484375
9872		136.718750
9873		144.531250
9874		136.718750
9875		144.531250
9876		134.765625
9877		142.578125
9878		132.812500
9879		140.625000
9880		132.812500
9881		138.671875
9882		130.859375
9883		134.765625
9884		126.953125
9885		132.812500
9886		126.953125
9887		132.812500
9888		123.046875
9889		130.859375
9890		121.093750
9891		128.906250
9892		119.140625
9893		126.953125
9894		117.187500
9895		123.046875
9896		115.234375
9897		121.093750
9898		113.281250
9899		117.187500
9900		109.375000
9901		115.234375
9902		105.468750
9903		113.281250
9904		103.515625
9905		111.328125
9906		99.609375
9907		107.421875
9908		95.703125
9909		105.468750
9910		93.750000
9911		101.562500
9912		91.796875
9913		97.656250
9914		89.843750
9915		93.750000
9916		85.937500
9917		91.796875
9918		80.078125
9919		87.890625
9920		76.171875
9921		85.937500
9922		74.218750
9923		82.031250
9924		70.312500
9925		78.125000
9926		66.406250
9927		76.171875
9928		62.500000
9929		72.265625
9930		60.546875
9931		66.406250
9932		56.640625
9933		62.500000
9934		50.781250
9935		58.593750
9936		46.875000
9937		56.640625
9938		42.968750
9939		50.781250
9940		39.062500
9941		46.875000
9942		35.156250
9943		42.968750
9944		29.296875
9945		39.062500
9946		27.343750
9947		35.156250
9948		23.437500
9949		29.296875
9950		19.531250
9951		25.390625
9952		13.671875
9953		21.484375
9954		7.812500
9955		17.578125
9956		3.906250
9957		13.671875
9958		0.000000
9959		9.765625
9960		-3.906250
9961		3.906250
9962		-7.812500
9963		0.000000
9964		-11.718750
9965		-3.906250
9966		-15.625000
9967		-9.765625
9968		-21.484375
9969		-13.671875
9970		-25.390625
9971		-17.578125
9972		-31.250000
9973		-21.484375
9974		-35.156250
9975		-25.390625
9976		-41.015625
9977		-31.250000
9978		-42.968750
9979		-35.156250
9980		-46.875000
9981		-39.062500
9982		-50.781250
9983		-44.921875
9984		-56.640625
9985		-50.781250
9986		-60.546875
9987		-52.734375
9988		-66.406250
9989		-56.640625
9990		-70.312500
9991		-60.546875
9992		-74.218750
9993		-66.406250
9994		-78.125000
9995		-70.312500
9996		-82.031250
9997		-72.265625
9998		-85.937500
9999		-80.078125
10000		-89.843750
