Channel              :		CH1
Frequency            :		1.061kHz
Period               :		0.943ms
PK-PK                :		150.4mV
Probe attenuation    :		1X
Voltage per ADC value:		0.122070mV
Time interval        :		2.00000us

index		CH1_Voltage(mV)
1		29.296875
2		29.296875
3		33.203125
4		27.343750
5		31.250000
6		25.390625
7		29.296875
8		25.390625
9		29.296875
10		23.437500
11		27.343750
12		21.484375
13		25.390625
14		19.531250
15		23.437500
16		17.578125
17		21.484375
18		15.625000
19		19.531250
20		13.671875
21		17.578125
22		11.718750
23		15.625000
24		11.718750
25		15.625000
26		7.812500
27		13.671875
28		7.812500
29		11.718750
30		5.859375
31		9.765625
32		3.906250
33		7.812500
34		1.953125
35		5.859375
36		0.000000
37		3.906250
38		-1.953125
39		1.953125
40		-3.906250
41		0.000000
42		-5.859375
43		-1.953125
44		-7.812500
45		-3.906250
46		-9.765625
47		-5.859375
48		-11.718750
49		-7.812500
50		-13.671875
51		-9.765625
52		-15.625000
53		-11.718750
54		-17.578125
55		-13.671875
56		-19.531250
57		-13.671875
58		-21.484375
59		-15.625000
60		-23.437500
61		-17.578125
62		-25.390625
63		-21.484375
64		-25.390625
65		-21.484375
66		-27.343750
67		-23.437500
68		-29.296875
69		-25.390625
70		-31.250000
71		-27.343750
72		-33.203125
73		-29.296875
74		-35.156250
75		-31.250000
76		-37.109375
77		-33.203125
78		-39.062500
79		-35.156250
80		-39.062500
81		-35.156250
82		-41.015625
83		-37.109375
84		-42.968750
85		-39.062500
86		-44.921875
87		-41.015625
88		-46.875000
89		-42.968750
90		-46.875000
91		-42.968750
92		-48.828125
93		-44.921875
94		-50.781250
95		-46.875000
96		-52.734375
97		-48.828125
98		-52.734375
99		-48.828125
100		-54.687500
101		-50.781250
102		-56.640625
103		-52.734375
104		-56.640625
105		-54.687500
106		-58.593750
107		-54.687500
108		-60.546875
109		-56.640625
110		-60.546875
111		-56.640625
112		-60.546875
113		-58.593750
114		-64.453125
115		-58.593750
116		-64.453125
117		-60.546875
118		-64.453125
119		-60.546875
120		-64.453125
121		-62.500000
122		-66.406250
123		-62.500000
124		-66.406250
125		-62.500000
126		-68.359375
127		-64.453125
128		-68.359375
129		-64.453125
130		-68.359375
131		-66.406250
132		-70.312500
133		-66.406250
134		-70.312500
135		-66.406250
136		-70.312500
137		-68.359375
138		-70.312500
139		-68.359375
140		-72.265625
141		-68.359375
142		-72.265625
143		-68.359375
144		-72.265625
145		-68.359375
146		-72.265625
147		-70.312500
148		-72.265625
149		-70.312500
150		-72.265625
151		-70.312500
152		-72.265625
153		-70.312500
154		-72.265625
155		-70.312500
156		-72.265625
157		-68.359375
158		-72.265625
159		-70.312500
160		-72.265625
161		-68.359375
162		-72.265625
163		-68.359375
164		-72.265625
165		-68.359375
166		-72.265625
167		-68.359375
168		-72.265625
169		-68.359375
170		-70.312500
171		-68.359375
172		-70.312500
173		-66.406250
174		-70.312500
175		-66.406250
176		-68.359375
177		-66.406250
178		-68.359375
179		-66.406250
180		-68.359375
181		-64.453125
182		-68.359375
183		-64.453125
184		-66.406250
185		-62.500000
186		-66.406250
187		-62.500000
188		-64.453125
189		-60.546875
190		-64.453125
191		-60.546875
192		-64.453125
193		-58.593750
194		-62.500000
195		-58.593750
196		-60.546875
197		-56.640625
198		-60.546875
199		-54.687500
200		-58.593750
201		-54.687500
202		-58.593750
203		-54.687500
204		-56.640625
205		-52.734375
206		-54.687500
207		-50.781250
208		-54.687500
209		-50.781250
210		-52.734375
211		-48.828125
212		-50.781250
213		-46.875000
214		-48.828125
215		-46.875000
216		-48.828125
217		-44.921875
218		-46.875000
219		-42.968750
220		-44.921875
221		-41.015625
222		-44.921875
223		-39.062500
224		-42.968750
225		-39.062500
226		-41.015625
227		-37.109375
228		-39.062500
229		-35.156250
230		-37.109375
231		-33.203125
232		-35.156250
233		-31.250000
234		-33.203125
235		-29.296875
236		-31.250000
237		-29.296875
238		-31.250000
239		-27.343750
240		-29.296875
241		-23.437500
242		-27.343750
243		-23.437500
244		-25.390625
245		-21.484375
246		-23.437500
247		-19.531250
248		-21.484375
249		-17.578125
250		-19.531250
251		-15.625000
252		-17.578125
253		-13.671875
254		-15.625000
255		-11.718750
256		-13.671875
257		-9.765625
258		-13.671875
259		-7.812500
260		-9.765625
261		-5.859375
262		-7.812500
263		-3.906250
264		-5.859375
265		-1.953125
266		-5.859375
267		0.000000
268		-3.906250
269		1.953125
270		-1.953125
271		1.953125
272		0.000000
273		3.906250
274		1.953125
275		5.859375
276		3.906250
277		7.812500
278		5.859375
279		9.765625
280		7.812500
281		11.718750
282		9.765625
283		13.671875
284		11.718750
285		15.625000
286		13.671875
287		17.578125
288		15.625000
289		19.531250
290		17.578125
291		21.484375
292		17.578125
293		23.437500
294		19.531250
295		23.437500
296		21.484375
297		25.390625
298		23.437500
299		27.343750
300		25.390625
301		29.296875
302		25.390625
303		31.250000
304		29.296875
305		31.250000
306		31.250000
307		33.203125
308		31.250000
309		35.156250
310		33.203125
311		37.109375
312		33.203125
313		39.062500
314		37.109375
315		39.062500
316		37.109375
317		41.015625
318		39.062500
319		42.968750
320		39.062500
321		44.921875
322		42.968750
323		44.921875
324		42.968750
325		46.875000
326		44.921875
327		48.828125
328		44.921875
329		48.828125
330		46.875000
331		50.781250
332		48.828125
333		52.734375
334		48.828125
335		52.734375
336		50.781250
337		54.687500
338		52.734375
339		54.687500
340		52.734375
341		56.640625
342		52.734375
343		56.640625
344		54.687500
345		58.593750
346		54.687500
347		58.593750
348		56.640625
349		60.546875
350		56.640625
351		60.546875
352		58.593750
353		62.500000
354		58.593750
355		62.500000
356		60.546875
357		62.500000
358		60.546875
359		64.453125
360		60.546875
361		64.453125
362		62.500000
363		64.453125
364		62.500000
365		66.406250
366		62.500000
367		66.406250
368		64.453125
369		66.406250
370		64.453125
371		68.359375
372		64.453125
373		68.359375
374		64.453125
375		68.359375
376		64.453125
377		68.359375
378		64.453125
379		68.359375
380		66.406250
381		68.359375
382		66.406250
383		68.359375
384		66.406250
385		68.359375
386		66.406250
387		68.359375
388		66.406250
389		68.359375
390		66.406250
391		68.359375
392		66.406250
393		70.312500
394		66.406250
395		68.359375
396		66.406250
397		70.312500
398		66.406250
399		68.359375
400		64.453125
401		68.359375
402		64.453125
403		68.359375
404		64.453125
405		68.359375
406		64.453125
407		68.359375
408		64.453125
409		68.359375
410		64.453125
411		66.406250
412		62.500000
413		68.359375
414		62.500000
415		66.406250
416		62.500000
417		66.406250
418		62.500000
419		66.406250
420		60.546875
421		64.453125
422		60.546875
423		64.453125
424		60.546875
425		62.500000
426		58.593750
427		62.500000
428		58.593750
429		62.500000
430		56.640625
431		60.546875
432		56.640625
433		60.546875
434		56.640625
435		60.546875
436		54.687500
437		58.593750
438		54.687500
439		58.593750
440		52.734375
441		56.640625
442		50.781250
443		56.640625
444		50.781250
445		54.687500
446		48.828125
447		52.734375
448		48.828125
449		52.734375
450		46.875000
451		50.781250
452		44.921875
453		48.828125
454		44.921875
455		46.875000
456		42.968750
457		46.875000
458		41.015625
459		44.921875
460		41.015625
461		44.921875
462		39.062500
463		42.968750
464		37.109375
465		41.015625
466		35.156250
467		39.062500
468		33.203125
469		37.109375
470		31.250000
471		37.109375
472		31.250000
473		35.156250
474		29.296875
475		33.203125
476		27.343750
477		33.203125
478		27.343750
479		29.296875
480		23.437500
481		29.296875
482		23.437500
483		27.343750
484		21.484375
485		25.390625
486		19.531250
487		23.437500
488		17.578125
489		21.484375
490		15.625000
491		19.531250
492		13.671875
493		17.578125
494		11.718750
495		15.625000
496		9.765625
497		15.625000
498		7.812500
499		11.718750
500		7.812500
501		11.718750
502		3.906250
503		9.765625
504		3.906250
505		7.812500
506		1.953125
507		5.859375
508		0.000000
509		3.906250
510		-1.953125
511		1.953125
512		-3.906250
513		0.000000
514		-5.859375
515		-1.953125
516		-7.812500
517		-3.906250
518		-9.765625
519		-5.859375
520		-11.718750
521		-7.812500
522		-13.671875
523		-9.765625
524		-15.625000
525		-11.718750
526		-17.578125
527		-13.671875
528		-19.531250
529		-15.625000
530		-21.484375
531		-17.578125
532		-23.437500
533		-17.578125
534		-23.437500
535		-21.484375
536		-25.390625
537		-23.437500
538		-29.296875
539		-23.437500
540		-29.296875
541		-25.390625
542		-33.203125
543		-27.343750
544		-35.156250
545		-29.296875
546		-35.156250
547		-31.250000
548		-37.109375
549		-33.203125
550		-37.109375
551		-33.203125
552		-41.015625
553		-35.156250
554		-42.968750
555		-37.109375
556		-42.968750
557		-39.062500
558		-44.921875
559		-41.015625
560		-46.875000
561		-42.968750
562		-48.828125
563		-42.968750
564		-48.828125
565		-44.921875
566		-50.781250
567		-46.875000
568		-50.781250
569		-48.828125
570		-52.734375
571		-48.828125
572		-54.687500
573		-50.781250
574		-54.687500
575		-52.734375
576		-56.640625
577		-52.734375
578		-58.593750
579		-54.687500
580		-58.593750
581		-56.640625
582		-60.546875
583		-56.640625
584		-62.500000
585		-58.593750
586		-62.500000
587		-58.593750
588		-64.453125
589		-60.546875
590		-64.453125
591		-60.546875
592		-64.453125
593		-62.500000
594		-66.406250
595		-62.500000
596		-66.406250
597		-62.500000
598		-68.359375
599		-64.453125
600		-68.359375
601		-64.453125
602		-68.359375
603		-64.453125
604		-70.312500
605		-66.406250
606		-70.312500
607		-66.406250
608		-70.312500
609		-66.406250
610		-70.312500
611		-66.406250
612		-70.312500
613		-68.359375
614		-72.265625
615		-68.359375
616		-72.265625
617		-68.359375
618		-72.265625
619		-68.359375
620		-72.265625
621		-68.359375
622		-72.265625
623		-68.359375
624		-72.265625
625		-68.359375
626		-72.265625
627		-68.359375
628		-72.265625
629		-68.359375
630		-72.265625
631		-68.359375
632		-72.265625
633		-68.359375
634		-72.265625
635		-68.359375
636		-70.312500
637		-68.359375
638		-70.312500
639		-68.359375
640		-70.312500
641		-66.406250
642		-70.312500
643		-68.359375
644		-70.312500
645		-66.406250
646		-68.359375
647		-66.406250
648		-68.359375
649		-64.453125
650		-68.359375
651		-64.453125
652		-68.359375
653		-64.453125
654		-66.406250
655		-62.500000
656		-66.406250
657		-62.500000
658		-64.453125
659		-62.500000
660		-64.453125
661		-60.546875
662		-64.453125
663		-58.593750
664		-62.500000
665		-58.593750
666		-60.546875
667		-58.593750
668		-60.546875
669		-56.640625
670		-58.593750
671		-54.687500
672		-58.593750
673		-54.687500
674		-56.640625
675		-52.734375
676		-54.687500
677		-52.734375
678		-54.687500
679		-50.781250
680		-52.734375
681		-48.828125
682		-50.781250
683		-46.875000
684		-50.781250
685		-46.875000
686		-48.828125
687		-44.921875
688		-46.875000
689		-42.968750
690		-46.875000
691		-42.968750
692		-44.921875
693		-41.015625
694		-42.968750
695		-39.062500
696		-41.015625
697		-37.109375
698		-39.062500
699		-35.156250
700		-39.062500
701		-33.203125
702		-37.109375
703		-33.203125
704		-35.156250
705		-31.250000
706		-33.203125
707		-29.296875
708		-31.250000
709		-27.343750
710		-29.296875
711		-25.390625
712		-29.296875
713		-23.437500
714		-25.390625
715		-21.484375
716		-23.437500
717		-19.531250
718		-21.484375
719		-17.578125
720		-21.484375
721		-15.625000
722		-19.531250
723		-13.671875
724		-17.578125
725		-13.671875
726		-15.625000
727		-11.718750
728		-13.671875
729		-9.765625
730		-11.718750
731		-7.812500
732		-9.765625
733		-5.859375
734		-7.812500
735		-3.906250
736		-5.859375
737		-1.953125
738		-3.906250
739		0.000000
740		-1.953125
741		1.953125
742		0.000000
743		3.906250
744		1.953125
745		5.859375
746		3.906250
747		7.812500
748		5.859375
749		9.765625
750		7.812500
751		11.718750
752		7.812500
753		13.671875
754		9.765625
755		13.671875
756		11.718750
757		15.625000
758		13.671875
759		19.531250
760		15.625000
761		19.531250
762		17.578125
763		21.484375
764		19.531250
765		23.437500
766		21.484375
767		25.390625
768		23.437500
769		27.343750
770		25.390625
771		29.296875
772		25.390625
773		31.250000
774		27.343750
775		31.250000
776		29.296875
777		33.203125
778		31.250000
779		35.156250
780		33.203125
781		37.109375
782		33.203125
783		37.109375
784		35.156250
785		39.062500
786		37.109375
787		41.015625
788		39.062500
789		42.968750
790		41.015625
791		44.921875
792		41.015625
793		44.921875
794		42.968750
795		46.875000
796		42.968750
797		46.875000
798		44.921875
799		48.828125
800		46.875000
801		50.781250
802		48.828125
803		50.781250
804		48.828125
805		52.734375
806		50.781250
807		54.687500
808		50.781250
809		54.687500
810		52.734375
811		56.640625
812		52.734375
813		56.640625
814		54.687500
815		58.593750
816		56.640625
817		58.593750
818		56.640625
819		60.546875
820		56.640625
821		60.546875
822		58.593750
823		60.546875
824		58.593750
825		62.500000
826		60.546875
827		62.500000
828		60.546875
829		64.453125
830		60.546875
831		64.453125
832		62.500000
833		64.453125
834		62.500000
835		66.406250
836		62.500000
837		66.406250
838		64.453125
839		66.406250
840		64.453125
841		68.359375
842		64.453125
843		68.359375
844		64.453125
845		68.359375
846		64.453125
847		68.359375
848		66.406250
849		68.359375
850		66.406250
851		68.359375
852		66.406250
853		70.312500
854		66.406250
855		70.312500
856		66.406250
857		70.312500
858		66.406250
859		70.312500
860		66.406250
861		70.312500
862		66.406250
863		70.312500
864		66.406250
865		70.312500
866		66.406250
867		70.312500
868		66.406250
869		70.312500
870		66.406250
871		70.312500
872		66.406250
873		68.359375
874		64.453125
875		68.359375
876		64.453125
877		68.359375
878		66.406250
879		68.359375
880		64.453125
881		68.359375
882		64.453125
883		68.359375
884		64.453125
885		66.406250
886		64.453125
887		66.406250
888		62.500000
889		66.406250
890		62.500000
891		66.406250
892		62.500000
893		64.453125
894		60.546875
895		64.453125
896		60.546875
897		62.500000
898		58.593750
899		62.500000
900		58.593750
901		62.500000
902		58.593750
903		60.546875
904		56.640625
905		60.546875
906		56.640625
907		60.546875
908		54.687500
909		58.593750
910		54.687500
911		56.640625
912		52.734375
913		56.640625
914		50.781250
915		54.687500
916		50.781250
917		54.687500
918		48.828125
919		52.734375
920		48.828125
921		52.734375
922		46.875000
923		50.781250
924		44.921875
925		50.781250
926		44.921875
927		48.828125
928		42.968750
929		46.875000
930		41.015625
931		46.875000
932		41.015625
933		44.921875
934		39.062500
935		42.968750
936		37.109375
937		41.015625
938		35.156250
939		39.062500
940		33.203125
941		37.109375
942		33.203125
943		37.109375
944		31.250000
945		35.156250
946		29.296875
947		35.156250
948		27.343750
949		31.250000
950		25.390625
951		29.296875
952		25.390625
953		29.296875
954		23.437500
955		27.343750
956		21.484375
957		25.390625
958		19.531250
959		23.437500
960		17.578125
961		21.484375
962		15.625000
963		19.531250
964		13.671875
965		17.578125
966		11.718750
967		17.578125
968		9.765625
969		13.671875
970		7.812500
971		11.718750
972		7.812500
973		11.718750
974		5.859375
975		9.765625
976		3.906250
977		7.812500
978		1.953125
979		5.859375
980		0.000000
981		3.906250
982		-1.953125
983		1.953125
984		-3.906250
985		0.000000
986		-5.859375
987		-1.953125
988		-7.812500
989		-3.906250
990		-9.765625
991		-5.859375
992		-11.718750
993		-7.812500
994		-13.671875
995		-9.765625
996		-17.578125
997		-11.718750
998		-17.578125
999		-13.671875
1000		-19.531250
1001		-13.671875
1002		-21.484375
1003		-17.578125
1004		-23.437500
1005		-19.531250
1006		-25.390625
1007		-19.531250
1008		-25.390625
1009		-21.484375
1010		-27.343750
1011		-23.437500
1012		-29.296875
1013		-25.390625
1014		-31.250000
1015		-27.343750
1016		-33.203125
1017		-29.296875
1018		-35.156250
1019		-31.250000
1020		-37.109375
1021		-33.203125
1022		-39.062500
1023		-35.156250
1024		-39.062500
1025		-37.109375
1026		-42.968750
1027		-37.109375
1028		-42.968750
1029		-39.062500
1030		-44.921875
1031		-41.015625
1032		-46.875000
1033		-42.968750
1034		-46.875000
1035		-42.968750
1036		-48.828125
1037		-44.921875
1038		-50.781250
1039		-46.875000
1040		-52.734375
1041		-46.875000
1042		-54.687500
1043		-48.828125
1044		-54.687500
1045		-50.781250
1046		-54.687500
1047		-52.734375
1048		-56.640625
1049		-52.734375
1050		-58.593750
1051		-54.687500
1052		-58.593750
1053		-56.640625
1054		-60.546875
1055		-56.640625
1056		-60.546875
1057		-58.593750
1058		-62.500000
1059		-58.593750
1060		-62.500000
1061		-58.593750
1062		-64.453125
1063		-60.546875
1064		-64.453125
1065		-60.546875
1066		-66.406250
1067		-62.500000
1068		-66.406250
1069		-62.500000
1070		-66.406250
1071		-62.500000
1072		-68.359375
1073		-64.453125
1074		-68.359375
1075		-64.453125
1076		-68.359375
1077		-66.406250
1078		-68.359375
1079		-66.406250
1080		-70.312500
1081		-66.406250
1082		-70.312500
1083		-66.406250
1084		-70.312500
1085		-68.359375
1086		-70.312500
1087		-68.359375
1088		-70.312500
1089		-68.359375
1090		-72.265625
1091		-68.359375
1092		-72.265625
1093		-68.359375
1094		-70.312500
1095		-68.359375
1096		-72.265625
1097		-68.359375
1098		-72.265625
1099		-68.359375
1100		-70.312500
1101		-68.359375
1102		-72.265625
1103		-68.359375
1104		-70.312500
1105		-68.359375
1106		-70.312500
1107		-68.359375
1108		-70.312500
1109		-68.359375
1110		-70.312500
1111		-66.406250
1112		-70.312500
1113		-66.406250
1114		-70.312500
1115		-66.406250
1116		-68.359375
1117		-66.406250
1118		-68.359375
1119		-64.453125
1120		-68.359375
1121		-64.453125
1122		-66.406250
1123		-64.453125
1124		-66.406250
1125		-62.500000
1126		-66.406250
1127		-62.500000
1128		-64.453125
1129		-62.500000
1130		-64.453125
1131		-60.546875
1132		-64.453125
1133		-60.546875
1134		-62.500000
1135		-58.593750
1136		-60.546875
1137		-56.640625
1138		-60.546875
1139		-56.640625
1140		-58.593750
1141		-56.640625
1142		-58.593750
1143		-54.687500
1144		-56.640625
1145		-52.734375
1146		-56.640625
1147		-52.734375
1148		-54.687500
1149		-50.781250
1150		-52.734375
1151		-48.828125
1152		-50.781250
1153		-46.875000
1154		-50.781250
1155		-46.875000
1156		-48.828125
1157		-44.921875
1158		-46.875000
1159		-44.921875
1160		-46.875000
1161		-42.968750
1162		-44.921875
1163		-41.015625
1164		-42.968750
1165		-39.062500
1166		-41.015625
1167		-37.109375
1168		-41.015625
1169		-37.109375
1170		-39.062500
1171		-35.156250
1172		-37.109375
1173		-33.203125
1174		-35.156250
1175		-31.250000
1176		-33.203125
1177		-29.296875
1178		-31.250000
1179		-27.343750
1180		-29.296875
1181		-25.390625
1182		-27.343750
1183		-23.437500
1184		-27.343750
1185		-23.437500
1186		-25.390625
1187		-19.531250
1188		-23.437500
1189		-19.531250
1190		-21.484375
1191		-17.578125
1192		-19.531250
1193		-15.625000
1194		-17.578125
1195		-13.671875
1196		-15.625000
1197		-11.718750
1198		-13.671875
1199		-7.812500
1200		-11.718750
1201		-7.812500
1202		-9.765625
1203		-5.859375
1204		-7.812500
1205		-3.906250
1206		-5.859375
1207		-1.953125
1208		-3.906250
1209		0.000000
1210		-3.906250
1211		1.953125
1212		0.000000
1213		3.906250
1214		1.953125
1215		5.859375
1216		1.953125
1217		7.812500
1218		3.906250
1219		9.765625
1220		5.859375
1221		9.765625
1222		7.812500
1223		11.718750
1224		9.765625
1225		13.671875
1226		11.718750
1227		15.625000
1228		13.671875
1229		17.578125
1230		15.625000
1231		19.531250
1232		17.578125
1233		21.484375
1234		17.578125
1235		23.437500
1236		19.531250
1237		23.437500
1238		23.437500
1239		27.343750
1240		23.437500
1241		27.343750
1242		25.390625
1243		31.250000
1244		25.390625
1245		31.250000
1246		29.296875
1247		33.203125
1248		31.250000
1249		35.156250
1250		29.296875
1251		37.109375
1252		31.250000
1253		39.062500
1254		35.156250
1255		39.062500
1256		37.109375
1257		41.015625
1258		37.109375
1259		42.968750
1260		39.062500
1261		44.921875
1262		41.015625
1263		44.921875
1264		42.968750
1265		44.921875
1266		41.015625
1267		48.828125
1268		42.968750
1269		50.781250
1270		44.921875
1271		50.781250
1272		44.921875
1273		52.734375
1274		48.828125
1275		54.687500
1276		48.828125
1277		54.687500
1278		48.828125
1279		54.687500
1280		52.734375
1281		54.687500
1282		52.734375
1283		58.593750
1284		52.734375
1285		58.593750
1286		54.687500
1287		60.546875
1288		54.687500
1289		60.546875
1290		54.687500
1291		62.500000
1292		56.640625
1293		62.500000
1294		56.640625
1295		64.453125
1296		60.546875
1297		62.500000
1298		60.546875
1299		64.453125
1300		60.546875
1301		66.406250
1302		60.546875
1303		66.406250
1304		60.546875
1305		66.406250
1306		60.546875
1307		68.359375
1308		60.546875
1309		68.359375
1310		62.500000
1311		68.359375
1312		64.453125
1313		68.359375
1314		64.453125
1315		68.359375
1316		64.453125
1317		70.312500
1318		64.453125
1319		70.312500
1320		64.453125
1321		70.312500
1322		64.453125
1323		70.312500
1324		64.453125
1325		70.312500
1326		64.453125
1327		72.265625
1328		64.453125
1329		72.265625
1330		66.406250
1331		70.312500
1332		66.406250
1333		70.312500
1334		64.453125
1335		72.265625
1336		64.453125
1337		72.265625
1338		64.453125
1339		72.265625
1340		64.453125
1341		70.312500
1342		64.453125
1343		72.265625
1344		64.453125
1345		70.312500
1346		66.406250
1347		68.359375
1348		66.406250
1349		68.359375
1350		62.500000
1351		70.312500
1352		62.500000
1353		68.359375
1354		62.500000
1355		68.359375
1356		62.500000
1357		68.359375
1358		60.546875
1359		68.359375
1360		60.546875
1361		66.406250
1362		60.546875
1363		68.359375
1364		60.546875
1365		64.453125
1366		58.593750
1367		64.453125
1368		58.593750
1369		64.453125
1370		56.640625
1371		64.453125
1372		56.640625
1373		62.500000
1374		54.687500
1375		62.500000
1376		54.687500
1377		60.546875
1378		52.734375
1379		60.546875
1380		54.687500
1381		56.640625
1382		52.734375
1383		56.640625
1384		50.781250
1385		56.640625
1386		48.828125
1387		56.640625
1388		48.828125
1389		54.687500
1390		46.875000
1391		54.687500
1392		46.875000
1393		52.734375
1394		44.921875
1395		50.781250
1396		44.921875
1397		48.828125
1398		42.968750
1399		46.875000
1400		41.015625
1401		46.875000
1402		39.062500
1403		46.875000
1404		37.109375
1405		44.921875
1406		37.109375
1407		42.968750
1408		35.156250
1409		42.968750
1410		33.203125
1411		41.015625
1412		33.203125
1413		39.062500
1414		31.250000
1415		35.156250
1416		31.250000
1417		35.156250
1418		27.343750
1419		35.156250
1420		25.390625
1421		33.203125
1422		23.437500
1423		31.250000
1424		21.484375
1425		29.296875
1426		21.484375
1427		27.343750
1428		19.531250
1429		25.390625
1430		19.531250
1431		23.437500
1432		17.578125
1433		21.484375
1434		11.718750
1435		21.484375
1436		11.718750
1437		19.531250
1438		9.765625
1439		17.578125
1440		7.812500
1441		15.625000
1442		5.859375
1443		13.671875
1444		3.906250
1445		11.718750
1446		3.906250
1447		9.765625
1448		1.953125
1449		5.859375
1450		-1.953125
1451		3.906250
1452		-1.953125
1453		3.906250
1454		-3.906250
1455		1.953125
1456		-7.812500
1457		0.000000
1458		-7.812500
1459		-1.953125
1460		-11.718750
1461		-1.953125
1462		-11.718750
1463		-5.859375
1464		-11.718750
1465		-7.812500
1466		-13.671875
1467		-11.718750
1468		-17.578125
1469		-11.718750
1470		-19.531250
1471		-11.718750
1472		-21.484375
1473		-13.671875
1474		-23.437500
1475		-15.625000
1476		-25.390625
1477		-17.578125
1478		-27.343750
1479		-19.531250
1480		-27.343750
1481		-23.437500
1482		-29.296875
1483		-25.390625
1484		-31.250000
1485		-25.390625
1486		-35.156250
1487		-25.390625
1488		-35.156250
1489		-29.296875
1490		-37.109375
1491		-31.250000
1492		-39.062500
1493		-33.203125
1494		-41.015625
1495		-33.203125
1496		-41.015625
1497		-35.156250
1498		-42.968750
1499		-39.062500
1500		-42.968750
1501		-41.015625
1502		-46.875000
1503		-41.015625
1504		-48.828125
1505		-41.015625
1506		-50.781250
1507		-42.968750
1508		-50.781250
1509		-42.968750
1510		-52.734375
1511		-46.875000
1512		-52.734375
1513		-46.875000
1514		-54.687500
1515		-48.828125
1516		-54.687500
1517		-50.781250
1518		-58.593750
1519		-50.781250
1520		-58.593750
1521		-50.781250
1522		-60.546875
1523		-52.734375
1524		-62.500000
1525		-54.687500
1526		-62.500000
1527		-54.687500
1528		-62.500000
1529		-56.640625
1530		-64.453125
1531		-58.593750
1532		-62.500000
1533		-60.546875
1534		-66.406250
1535		-60.546875
1536		-66.406250
1537		-60.546875
1538		-68.359375
1539		-60.546875
1540		-68.359375
1541		-62.500000
1542		-70.312500
1543		-62.500000
1544		-70.312500
1545		-62.500000
1546		-70.312500
1547		-64.453125
1548		-70.312500
1549		-66.406250
1550		-70.312500
1551		-66.406250
1552		-72.265625
1553		-66.406250
1554		-72.265625
1555		-64.453125
1556		-72.265625
1557		-66.406250
1558		-72.265625
1559		-66.406250
1560		-72.265625
1561		-66.406250
1562		-74.218750
1563		-66.406250
1564		-72.265625
1565		-68.359375
1566		-72.265625
1567		-68.359375
1568		-74.218750
1569		-66.406250
1570		-74.218750
1571		-66.406250
1572		-74.218750
1573		-66.406250
1574		-74.218750
1575		-66.406250
1576		-74.218750
1577		-66.406250
1578		-72.265625
1579		-66.406250
1580		-72.265625
1581		-66.406250
1582		-70.312500
1583		-66.406250
1584		-70.312500
1585		-66.406250
1586		-70.312500
1587		-66.406250
1588		-70.312500
1589		-64.453125
1590		-70.312500
1591		-64.453125
1592		-68.359375
1593		-64.453125
1594		-68.359375
1595		-62.500000
1596		-66.406250
1597		-62.500000
1598		-66.406250
1599		-62.500000
1600		-64.453125
1601		-62.500000
1602		-64.453125
1603		-58.593750
1604		-64.453125
1605		-58.593750
1606		-64.453125
1607		-56.640625
1608		-62.500000
1609		-56.640625
1610		-62.500000
1611		-54.687500
1612		-60.546875
1613		-52.734375
1614		-60.546875
1615		-52.734375
1616		-56.640625
1617		-52.734375
1618		-56.640625
1619		-50.781250
1620		-56.640625
1621		-48.828125
1622		-54.687500
1623		-46.875000
1624		-52.734375
1625		-46.875000
1626		-50.781250
1627		-44.921875
1628		-50.781250
1629		-44.921875
1630		-48.828125
1631		-41.015625
1632		-44.921875
1633		-42.968750
1634		-44.921875
1635		-41.015625
1636		-42.968750
1637		-37.109375
1638		-42.968750
1639		-35.156250
1640		-41.015625
1641		-35.156250
1642		-41.015625
1643		-33.203125
1644		-39.062500
1645		-31.250000
1646		-35.156250
1647		-29.296875
1648		-33.203125
1649		-29.296875
1650		-31.250000
1651		-27.343750
1652		-29.296875
1653		-23.437500
1654		-29.296875
1655		-21.484375
1656		-27.343750
1657		-19.531250
1658		-25.390625
1659		-19.531250
1660		-25.390625
1661		-15.625000
1662		-21.484375
1663		-13.671875
1664		-21.484375
1665		-15.625000
1666		-17.578125
1667		-13.671875
1668		-15.625000
1669		-11.718750
1670		-15.625000
1671		-7.812500
1672		-11.718750
1673		-5.859375
1674		-11.718750
1675		-3.906250
1676		-9.765625
1677		-1.953125
1678		-7.812500
1679		0.000000
1680		-5.859375
1681		1.953125
1682		-3.906250
1683		1.953125
1684		0.000000
1685		3.906250
1686		1.953125
1687		7.812500
1688		1.953125
1689		7.812500
1690		3.906250
1691		9.765625
1692		5.859375
1693		13.671875
1694		7.812500
1695		13.671875
1696		9.765625
1697		15.625000
1698		11.718750
1699		17.578125
1700		13.671875
1701		17.578125
1702		15.625000
1703		21.484375
1704		15.625000
1705		23.437500
1706		17.578125
1707		25.390625
1708		19.531250
1709		27.343750
1710		21.484375
1711		27.343750
1712		23.437500
1713		29.296875
1714		23.437500
1715		31.250000
1716		27.343750
1717		31.250000
1718		29.296875
1719		33.203125
1720		29.296875
1721		37.109375
1722		31.250000
1723		39.062500
1724		33.203125
1725		39.062500
1726		33.203125
1727		41.015625
1728		35.156250
1729		42.968750
1730		37.109375
1731		44.921875
1732		39.062500
1733		44.921875
1734		41.015625
1735		44.921875
1736		41.015625
1737		48.828125
1738		42.968750
1739		48.828125
1740		42.968750
1741		50.781250
1742		44.921875
1743		50.781250
1744		44.921875
1745		52.734375
1746		46.875000
1747		54.687500
1748		48.828125
1749		54.687500
1750		50.781250
1751		54.687500
1752		52.734375
1753		56.640625
1754		50.781250
1755		58.593750
1756		52.734375
1757		58.593750
1758		54.687500
1759		60.546875
1760		54.687500
1761		62.500000
1762		54.687500
1763		62.500000
1764		56.640625
1765		62.500000
1766		58.593750
1767		62.500000
1768		60.546875
1769		64.453125
1770		58.593750
1771		66.406250
1772		60.546875
1773		66.406250
1774		60.546875
1775		66.406250
1776		60.546875
1777		68.359375
1778		60.546875
1779		68.359375
1780		62.500000
1781		68.359375
1782		62.500000
1783		68.359375
1784		64.453125
1785		68.359375
1786		64.453125
1787		68.359375
1788		64.453125
1789		70.312500
1790		64.453125
1791		70.312500
1792		64.453125
1793		72.265625
1794		64.453125
1795		70.312500
1796		64.453125
1797		72.265625
1798		64.453125
1799		70.312500
1800		66.406250
1801		70.312500
1802		66.406250
1803		70.312500
1804		64.453125
1805		70.312500
1806		64.453125
1807		72.265625
1808		64.453125
1809		72.265625
1810		64.453125
1811		70.312500
1812		64.453125
1813		72.265625
1814		64.453125
1815		70.312500
1816		64.453125
1817		72.265625
1818		66.406250
1819		68.359375
1820		64.453125
1821		70.312500
1822		62.500000
1823		70.312500
1824		62.500000
1825		70.312500
1826		62.500000
1827		68.359375
1828		62.500000
1829		68.359375
1830		60.546875
1831		68.359375
1832		60.546875
1833		66.406250
1834		62.500000
1835		64.453125
1836		60.546875
1837		64.453125
1838		58.593750
1839		64.453125
1840		58.593750
1841		64.453125
1842		56.640625
1843		64.453125
1844		56.640625
1845		62.500000
1846		54.687500
1847		62.500000
1848		54.687500
1849		60.546875
1850		54.687500
1851		58.593750
1852		54.687500
1853		56.640625
1854		50.781250
1855		56.640625
1856		50.781250
1857		56.640625
1858		48.828125
1859		56.640625
1860		46.875000
1861		54.687500
1862		46.875000
1863		52.734375
1864		44.921875
1865		52.734375
1866		44.921875
1867		50.781250
1868		44.921875
1869		48.828125
1870		42.968750
1871		46.875000
1872		41.015625
1873		46.875000
1874		39.062500
1875		44.921875
1876		37.109375
1877		44.921875
1878		35.156250
1879		42.968750
1880		35.156250
1881		41.015625
1882		33.203125
1883		41.015625
1884		33.203125
1885		37.109375
1886		31.250000
1887		35.156250
1888		29.296875
1889		35.156250
1890		27.343750
1891		33.203125
1892		25.390625
1893		31.250000
1894		23.437500
1895		31.250000
1896		21.484375
1897		27.343750
1898		19.531250
1899		25.390625
1900		19.531250
1901		25.390625
1902		17.578125
1903		21.484375
1904		13.671875
1905		21.484375
1906		11.718750
1907		19.531250
1908		11.718750
1909		17.578125
1910		9.765625
1911		15.625000
1912		7.812500
1913		15.625000
1914		5.859375
1915		11.718750
1916		3.906250
1917		11.718750
1918		3.906250
1919		7.812500
1920		1.953125
1921		5.859375
1922		-1.953125
1923		5.859375
1924		-3.906250
1925		3.906250
1926		-5.859375
1927		1.953125
1928		-7.812500
1929		-1.953125
1930		-9.765625
1931		-1.953125
1932		-11.718750
1933		-3.906250
1934		-11.718750
1935		-5.859375
1936		-13.671875
1937		-9.765625
1938		-17.578125
1939		-9.765625
1940		-19.531250
1941		-11.718750
1942		-21.484375
1943		-13.671875
1944		-23.437500
1945		-15.625000
1946		-23.437500
1947		-17.578125
1948		-27.343750
1949		-19.531250
1950		-27.343750
1951		-21.484375
1952		-27.343750
1953		-23.437500
1954		-29.296875
1955		-25.390625
1956		-33.203125
1957		-25.390625
1958		-35.156250
1959		-27.343750
1960		-37.109375
1961		-29.296875
1962		-39.062500
1963		-31.250000
1964		-39.062500
1965		-33.203125
1966		-42.968750
1967		-35.156250
1968		-41.015625
1969		-37.109375
1970		-42.968750
1971		-39.062500
1972		-46.875000
1973		-39.062500
1974		-46.875000
1975		-41.015625
1976		-48.828125
1977		-42.968750
1978		-50.781250
1979		-42.968750
1980		-50.781250
1981		-44.921875
1982		-54.687500
1983		-46.875000
1984		-54.687500
1985		-48.828125
1986		-54.687500
1987		-50.781250
1988		-56.640625
1989		-52.734375
1990		-58.593750
1991		-52.734375
1992		-60.546875
1993		-54.687500
1994		-62.500000
1995		-54.687500
1996		-60.546875
1997		-54.687500
1998		-62.500000
1999		-54.687500
2000		-64.453125
2001		-56.640625
2002		-62.500000
2003		-60.546875
2004		-64.453125
2005		-60.546875
2006		-66.406250
2007		-60.546875
2008		-68.359375
2009		-60.546875
2010		-68.359375
2011		-62.500000
2012		-68.359375
2013		-62.500000
2014		-70.312500
2015		-62.500000
2016		-70.312500
2017		-62.500000
2018		-70.312500
2019		-66.406250
2020		-70.312500
2021		-66.406250
2022		-72.265625
2023		-66.406250
2024		-72.265625
2025		-66.406250
2026		-72.265625
2027		-66.406250
2028		-74.218750
2029		-66.406250
2030		-72.265625
2031		-66.406250
2032		-74.218750
2033		-66.406250
2034		-74.218750
2035		-66.406250
2036		-72.265625
2037		-68.359375
2038		-72.265625
2039		-68.359375
2040		-74.218750
2041		-66.406250
2042		-74.218750
2043		-66.406250
2044		-74.218750
2045		-66.406250
2046		-74.218750
2047		-66.406250
2048		-72.265625
2049		-66.406250
2050		-72.265625
2051		-66.406250
2052		-72.265625
2053		-68.359375
2054		-70.312500
2055		-66.406250
2056		-72.265625
2057		-64.453125
2058		-72.265625
2059		-64.453125
2060		-70.312500
2061		-64.453125
2062		-70.312500
2063		-62.500000
2064		-70.312500
2065		-62.500000
2066		-68.359375
2067		-62.500000
2068		-68.359375
2069		-60.546875
2070		-64.453125
2071		-62.500000
2072		-64.453125
2073		-58.593750
2074		-64.453125
2075		-58.593750
2076		-64.453125
2077		-58.593750
2078		-62.500000
2079		-56.640625
2080		-62.500000
2081		-56.640625
2082		-60.546875
2083		-54.687500
2084		-60.546875
2085		-52.734375
2086		-56.640625
2087		-54.687500
2088		-56.640625
2089		-52.734375
2090		-56.640625
2091		-48.828125
2092		-54.687500
2093		-48.828125
2094		-54.687500
2095		-46.875000
2096		-52.734375
2097		-44.921875
2098		-52.734375
2099		-44.921875
2100		-50.781250
2101		-42.968750
2102		-48.828125
2103		-42.968750
2104		-44.921875
2105		-41.015625
2106		-44.921875
2107		-37.109375
2108		-42.968750
2109		-37.109375
2110		-42.968750
2111		-35.156250
2112		-41.015625
2113		-33.203125
2114		-39.062500
2115		-31.250000
2116		-37.109375
2117		-29.296875
2118		-35.156250
2119		-29.296875
2120		-33.203125
2121		-29.296875
2122		-31.250000
2123		-25.390625
2124		-29.296875
2125		-23.437500
2126		-29.296875
2127		-21.484375
2128		-27.343750
2129		-19.531250
2130		-25.390625
2131		-17.578125
2132		-23.437500
2133		-15.625000
2134		-21.484375
2135		-13.671875
2136		-19.531250
2137		-13.671875
2138		-15.625000
2139		-11.718750
2140		-13.671875
2141		-7.812500
2142		-15.625000
2143		-5.859375
2144		-11.718750
2145		-5.859375
2146		-9.765625
2147		-3.906250
2148		-9.765625
2149		-1.953125
2150		-7.812500
2151		0.000000
2152		-5.859375
2153		0.000000
2154		-1.953125
2155		1.953125
2156		0.000000
2157		5.859375
2158		0.000000
2159		7.812500
2160		1.953125
2161		9.765625
2162		3.906250
2163		11.718750
2164		5.859375
2165		13.671875
2166		7.812500
2167		15.625000
2168		9.765625
2169		15.625000
2170		13.671875
2171		15.625000
2172		15.625000
2173		19.531250
2174		15.625000
2175		21.484375
2176		15.625000
2177		25.390625
2178		17.578125
2179		25.390625
2180		19.531250
2181		27.343750
2182		21.484375
2183		29.296875
2184		23.437500
2185		31.250000
2186		25.390625
2187		31.250000
2188		29.296875
2189		31.250000
2190		29.296875
2191		35.156250
2192		29.296875
2193		35.156250
2194		31.250000
2195		39.062500
2196		31.250000
2197		39.062500
2198		35.156250
2199		41.015625
2200		37.109375
2201		42.968750
2202		37.109375
2203		44.921875
2204		41.015625
2205		42.968750
2206		42.968750
2207		44.921875
2208		41.015625
2209		48.828125
2210		42.968750
2211		50.781250
2212		44.921875
2213		50.781250
2214		44.921875
2215		52.734375
2216		46.875000
2217		52.734375
2218		46.875000
2219		54.687500
2220		50.781250
2221		54.687500
2222		52.734375
2223		54.687500
2224		50.781250
2225		58.593750
2226		52.734375
2227		58.593750
2228		52.734375
2229		60.546875
2230		52.734375
2231		60.546875
2232		54.687500
2233		62.500000
2234		56.640625
2235		62.500000
2236		56.640625
2237		62.500000
2238		58.593750
2239		62.500000
2240		60.546875
2241		64.453125
2242		58.593750
2243		66.406250
2244		60.546875
2245		66.406250
2246		60.546875
2247		68.359375
2248		60.546875
2249		68.359375
2250		60.546875
2251		68.359375
2252		62.500000
2253		68.359375
2254		64.453125
2255		68.359375
2256		64.453125
2257		68.359375
2258		62.500000
2259		70.312500
2260		64.453125
2261		70.312500
2262		64.453125
2263		70.312500
2264		64.453125
2265		70.312500
2266		64.453125
2267		70.312500
2268		64.453125
2269		72.265625
2270		64.453125
2271		70.312500
2272		66.406250
2273		70.312500
2274		66.406250
2275		70.312500
2276		64.453125
2277		72.265625
2278		64.453125
2279		72.265625
2280		64.453125
2281		72.265625
2282		64.453125
2283		72.265625
2284		64.453125
2285		70.312500
2286		64.453125
2287		70.312500
2288		66.406250
2289		68.359375
2290		66.406250
2291		68.359375
2292		62.500000
2293		70.312500
2294		62.500000
2295		70.312500
2296		62.500000
2297		68.359375
2298		60.546875
2299		68.359375
2300		62.500000
2301		68.359375
2302		60.546875
2303		66.406250
2304		60.546875
2305		66.406250
2306		62.500000
2307		64.453125
2308		58.593750
2309		64.453125
2310		58.593750
2311		64.453125
2312		58.593750
2313		64.453125
2314		56.640625
2315		62.500000
2316		54.687500
2317		62.500000
2318		54.687500
2319		60.546875
2320		52.734375
2321		60.546875
2322		54.687500
2323		58.593750
2324		52.734375
2325		58.593750
2326		50.781250
2327		58.593750
2328		50.781250
2329		56.640625
2330		48.828125
2331		54.687500
2332		46.875000
2333		52.734375
2334		46.875000
2335		52.734375
2336		44.921875
2337		52.734375
2338		44.921875
2339		48.828125
2340		44.921875
2341		48.828125
2342		41.015625
2343		46.875000
2344		39.062500
2345		44.921875
2346		37.109375
2347		44.921875
2348		37.109375
2349		42.968750
2350		35.156250
2351		42.968750
2352		33.203125
2353		41.015625
2354		33.203125
2355		39.062500
2356		33.203125
2357		35.156250
2358		29.296875
2359		35.156250
2360		27.343750
2361		33.203125
2362		25.390625
2363		33.203125
2364		25.390625
2365		31.250000
2366		23.437500
2367		29.296875
2368		19.531250
2369		27.343750
2370		19.531250
2371		25.390625
2372		19.531250
2373		23.437500
2374		17.578125
2375		21.484375
2376		13.671875
2377		21.484375
2378		11.718750
2379		19.531250
2380		9.765625
2381		17.578125
2382		7.812500
2383		15.625000
2384		5.859375
2385		13.671875
2386		5.859375
2387		11.718750
2388		3.906250
2389		9.765625
2390		1.953125
2391		5.859375
2392		0.000000
2393		5.859375
2394		-1.953125
2395		3.906250
2396		-5.859375
2397		1.953125
2398		-7.812500
2399		0.000000
2400		-7.812500
2401		-1.953125
2402		-9.765625
2403		-3.906250
2404		-11.718750
2405		-5.859375
2406		-11.718750
2407		-7.812500
2408		-15.625000
2409		-11.718750
2410		-17.578125
2411		-11.718750
2412		-19.531250
2413		-13.671875
2414		-21.484375
2415		-13.671875
2416		-23.437500
2417		-17.578125
2418		-25.390625
2419		-17.578125
2420		-27.343750
2421		-19.531250
2422		-27.343750
2423		-23.437500
2424		-29.296875
2425		-25.390625
2426		-33.203125
2427		-25.390625
2428		-33.203125
2429		-27.343750
2430		-35.156250
2431		-29.296875
2432		-37.109375
2433		-31.250000
2434		-39.062500
2435		-31.250000
2436		-41.015625
2437		-33.203125
2438		-41.015625
2439		-35.156250
2440		-42.968750
2441		-39.062500
2442		-46.875000
2443		-39.062500
2444		-46.875000
2445		-41.015625
2446		-48.828125
2447		-41.015625
2448		-50.781250
2449		-44.921875
2450		-50.781250
2451		-44.921875
2452		-52.734375
2453		-46.875000
2454		-54.687500
2455		-46.875000
2456		-54.687500
2457		-50.781250
2458		-54.687500
2459		-52.734375
2460		-58.593750
2461		-50.781250
2462		-58.593750
2463		-52.734375
2464		-60.546875
2465		-54.687500
2466		-62.500000
2467		-54.687500
2468		-62.500000
2469		-54.687500
2470		-64.453125
2471		-56.640625
2472		-64.453125
2473		-58.593750
2474		-64.453125
2475		-60.546875
2476		-66.406250
2477		-60.546875
2478		-66.406250
2479		-60.546875
2480		-68.359375
2481		-62.500000
2482		-68.359375
2483		-62.500000
2484		-68.359375
2485		-62.500000
2486		-70.312500
2487		-64.453125
2488		-70.312500
2489		-64.453125
2490		-68.359375
2491		-66.406250
2492		-70.312500
2493		-66.406250
2494		-72.265625
2495		-66.406250
2496		-72.265625
2497		-66.406250
2498		-74.218750
2499		-66.406250
2500		-72.265625
2501		-66.406250
2502		-74.218750
2503		-66.406250
2504		-74.218750
2505		-66.406250
2506		-72.265625
2507		-68.359375
2508		-72.265625
2509		-70.312500
2510		-74.218750
2511		-68.359375
2512		-74.218750
2513		-66.406250
2514		-74.218750
2515		-66.406250
2516		-74.218750
2517		-66.406250
2518		-74.218750
2519		-66.406250
2520		-74.218750
2521		-66.406250
2522		-72.265625
2523		-66.406250
2524		-70.312500
2525		-68.359375
2526		-72.265625
2527		-66.406250
2528		-72.265625
2529		-64.453125
2530		-72.265625
2531		-64.453125
2532		-70.312500
2533		-62.500000
2534		-70.312500
2535		-62.500000
2536		-68.359375
2537		-62.500000
2538		-68.359375
2539		-62.500000
2540		-66.406250
2541		-62.500000
2542		-64.453125
2543		-62.500000
2544		-66.406250
2545		-58.593750
2546		-66.406250
2547		-58.593750
2548		-64.453125
2549		-58.593750
2550		-62.500000
2551		-56.640625
2552		-62.500000
2553		-54.687500
2554		-60.546875
2555		-54.687500
2556		-60.546875
2557		-54.687500
2558		-56.640625
2559		-52.734375
2560		-56.640625
2561		-50.781250
2562		-56.640625
2563		-50.781250
2564		-56.640625
2565		-48.828125
2566		-52.734375
2567		-46.875000
2568		-52.734375
2569		-44.921875
2570		-50.781250
2571		-44.921875
2572		-48.828125
2573		-42.968750
2574		-46.875000
2575		-42.968750
2576		-44.921875
2577		-41.015625
2578		-44.921875
2579		-37.109375
2580		-42.968750
2581		-37.109375
2582		-41.015625
2583		-33.203125
2584		-39.062500
2585		-33.203125
2586		-37.109375
2587		-31.250000
2588		-37.109375
2589		-29.296875
2590		-33.203125
2591		-29.296875
2592		-31.250000
2593		-27.343750
2594		-31.250000
2595		-23.437500
2596		-29.296875
2597		-23.437500
2598		-29.296875
2599		-21.484375
2600		-27.343750
2601		-19.531250
2602		-23.437500
2603		-17.578125
2604		-23.437500
2605		-15.625000
2606		-21.484375
2607		-13.671875
2608		-17.578125
2609		-13.671875
2610		-15.625000
2611		-9.765625
2612		-15.625000
2613		-7.812500
2614		-13.671875
2615		-5.859375
2616		-11.718750
2617		-3.906250
2618		-9.765625
2619		-1.953125
2620		-7.812500
2621		0.000000
2622		-5.859375
2623		0.000000
2624		-1.953125
2625		1.953125
2626		0.000000
2627		3.906250
2628		0.000000
2629		7.812500
2630		1.953125
2631		7.812500
2632		3.906250
2633		9.765625
2634		3.906250
2635		13.671875
2636		5.859375
2637		13.671875
2638		7.812500
2639		15.625000
2640		11.718750
2641		15.625000
2642		13.671875
2643		17.578125
2644		13.671875
2645		21.484375
2646		15.625000
2647		23.437500
2648		17.578125
2649		25.390625
2650		19.531250
2651		25.390625
2652		21.484375
2653		27.343750
2654		21.484375
2655		29.296875
2656		23.437500
2657		29.296875
2658		27.343750
2659		31.250000
2660		29.296875
2661		33.203125
2662		29.296875
2663		37.109375
2664		31.250000
2665		37.109375
2666		33.203125
2667		39.062500
2668		33.203125
2669		41.015625
2670		35.156250
2671		42.968750
2672		35.156250
2673		42.968750
2674		39.062500
2675		42.968750
2676		41.015625
2677		44.921875
2678		41.015625
2679		48.828125
2680		42.968750
2681		48.828125
2682		44.921875
2683		50.781250
2684		44.921875
2685		50.781250
2686		44.921875
2687		52.734375
2688		46.875000
2689		54.687500
2690		48.828125
2691		54.687500
2692		50.781250
2693		54.687500
2694		52.734375
2695		56.640625
2696		50.781250
2697		58.593750
2698		52.734375
2699		60.546875
2700		54.687500
2701		60.546875
2702		54.687500
2703		62.500000
2704		56.640625
2705		62.500000
2706		56.640625
2707		62.500000
2708		58.593750
2709		62.500000
2710		60.546875
2711		62.500000
2712		58.593750
2713		64.453125
2714		58.593750
2715		64.453125
2716		60.546875
2717		66.406250
2718		60.546875
2719		68.359375
2720		60.546875
2721		68.359375
2722		62.500000
2723		68.359375
2724		62.500000
2725		68.359375
2726		64.453125
2727		68.359375
2728		64.453125
2729		70.312500
2730		62.500000
2731		70.312500
2732		64.453125
2733		70.312500
2734		64.453125
2735		70.312500
2736		64.453125
2737		72.265625
2738		64.453125
2739		70.312500
2740		64.453125
2741		72.265625
2742		66.406250
2743		70.312500
2744		66.406250
2745		70.312500
2746		64.453125
2747		72.265625
2748		64.453125
2749		70.312500
2750		64.453125
2751		70.312500
2752		64.453125
2753		72.265625
2754		64.453125
2755		72.265625
2756		64.453125
2757		70.312500
2758		66.406250
2759		68.359375
2760		66.406250
2761		68.359375
2762		62.500000
2763		68.359375
2764		62.500000
2765		70.312500
2766		62.500000
2767		70.312500
2768		62.500000
2769		68.359375
2770		62.500000
2771		68.359375
2772		60.546875
2773		68.359375
2774		60.546875
2775		66.406250
2776		62.500000
2777		64.453125
2778		60.546875
2779		64.453125
2780		58.593750
2781		64.453125
2782		58.593750
2783		64.453125
2784		56.640625
2785		62.500000
2786		56.640625
2787		62.500000
2788		54.687500
2789		62.500000
2790		54.687500
2791		60.546875
2792		54.687500
2793		58.593750
2794		54.687500
2795		56.640625
2796		50.781250
2797		56.640625
2798		50.781250
2799		56.640625
2800		48.828125
2801		56.640625
2802		46.875000
2803		54.687500
2804		46.875000
2805		54.687500
2806		44.921875
2807		52.734375
2808		44.921875
2809		50.781250
2810		44.921875
2811		48.828125
2812		42.968750
2813		46.875000
2814		39.062500
2815		48.828125
2816		39.062500
2817		44.921875
2818		37.109375
2819		44.921875
2820		37.109375
2821		42.968750
2822		33.203125
2823		41.015625
2824		33.203125
2825		41.015625
2826		33.203125
2827		37.109375
2828		31.250000
2829		35.156250
2830		27.343750
2831		35.156250
2832		27.343750
2833		33.203125
2834		25.390625
2835		33.203125
2836		23.437500
2837		29.296875
2838		21.484375
2839		27.343750
2840		19.531250
2841		27.343750
2842		19.531250
2843		25.390625
2844		17.578125
2845		21.484375
2846		13.671875
2847		21.484375
2848		11.718750
2849		19.531250
2850		11.718750
2851		17.578125
2852		9.765625
2853		15.625000
2854		7.812500
2855		15.625000
2856		5.859375
2857		13.671875
2858		3.906250
2859		9.765625
2860		3.906250
2861		7.812500
2862		1.953125
2863		5.859375
2864		-1.953125
2865		5.859375
2866		-3.906250
2867		3.906250
2868		-5.859375
2869		1.953125
2870		-7.812500
2871		0.000000
2872		-9.765625
2873		-1.953125
2874		-11.718750
2875		-3.906250
2876		-11.718750
2877		-7.812500
2878		-13.671875
2879		-9.765625
2880		-17.578125
2881		-9.765625
2882		-17.578125
2883		-11.718750
2884		-21.484375
2885		-13.671875
2886		-21.484375
2887		-15.625000
2888		-25.390625
2889		-17.578125
2890		-25.390625
2891		-19.531250
2892		-27.343750
2893		-21.484375
2894		-27.343750
2895		-23.437500
2896		-31.250000
2897		-25.390625
2898		-33.203125
2899		-25.390625
2900		-35.156250
2901		-27.343750
2902		-37.109375
2903		-29.296875
2904		-39.062500
2905		-31.250000
2906		-39.062500
2907		-33.203125
2908		-41.015625
2909		-35.156250
2910		-41.015625
2911		-37.109375
2912		-42.968750
2913		-39.062500
2914		-46.875000
2915		-39.062500
2916		-48.828125
2917		-39.062500
2918		-48.828125
2919		-42.968750
2920		-50.781250
2921		-44.921875
2922		-52.734375
2923		-44.921875
2924		-54.687500
2925		-46.875000
2926		-52.734375
2927		-46.875000
2928		-54.687500
2929		-50.781250
2930		-58.593750
2931		-50.781250
2932		-58.593750
2933		-52.734375
2934		-60.546875
2935		-52.734375
2936		-60.546875
2937		-54.687500
2938		-62.500000
2939		-56.640625
2940		-62.500000
2941		-56.640625
2942		-64.453125
2943		-56.640625
2944		-64.453125
2945		-60.546875
2946		-66.406250
2947		-60.546875
2948		-66.406250
2949		-60.546875
2950		-68.359375
2951		-60.546875
2952		-68.359375
2953		-62.500000
2954		-68.359375
2955		-62.500000
2956		-70.312500
2957		-62.500000
2958		-72.265625
2959		-64.453125
2960		-68.359375
2961		-66.406250
2962		-70.312500
2963		-66.406250
2964		-72.265625
2965		-66.406250
2966		-72.265625
2967		-66.406250
2968		-72.265625
2969		-66.406250
2970		-74.218750
2971		-66.406250
2972		-74.218750
2973		-66.406250
2974		-74.218750
2975		-68.359375
2976		-74.218750
2977		-68.359375
2978		-72.265625
2979		-70.312500
2980		-74.218750
2981		-68.359375
2982		-74.218750
2983		-68.359375
2984		-74.218750
2985		-68.359375
2986		-74.218750
2987		-68.359375
2988		-74.218750
2989		-68.359375
2990		-74.218750
2991		-66.406250
2992		-74.218750
2993		-68.359375
2994		-70.312500
2995		-68.359375
2996		-70.312500
2997		-68.359375
2998		-72.265625
2999		-64.453125
3000		-72.265625
3001		-66.406250
3002		-72.265625
3003		-64.453125
3004		-70.312500
3005		-64.453125
3006		-70.312500
3007		-62.500000
3008		-70.312500
3009		-62.500000
3010		-68.359375
3011		-62.500000
3012		-66.406250
3013		-62.500000
3014		-66.406250
3015		-60.546875
3016		-66.406250
3017		-58.593750
3018		-64.453125
3019		-58.593750
3020		-64.453125
3021		-56.640625
3022		-62.500000
3023		-56.640625
3024		-62.500000
3025		-56.640625
3026		-60.546875
3027		-54.687500
3028		-58.593750
3029		-54.687500
3030		-56.640625
3031		-52.734375
3032		-56.640625
3033		-50.781250
3034		-56.640625
3035		-48.828125
3036		-54.687500
3037		-46.875000
3038		-54.687500
3039		-46.875000
3040		-52.734375
3041		-44.921875
3042		-50.781250
3043		-44.921875
3044		-46.875000
3045		-44.921875
3046		-46.875000
3047		-42.968750
3048		-44.921875
3049		-39.062500
3050		-44.921875
3051		-37.109375
3052		-42.968750
3053		-37.109375
3054		-41.015625
3055		-35.156250
3056		-39.062500
3057		-33.203125
3058		-39.062500
3059		-31.250000
3060		-37.109375
3061		-29.296875
3062		-33.203125
3063		-29.296875
3064		-31.250000
3065		-27.343750
3066		-31.250000
3067		-23.437500
3068		-29.296875
3069		-21.484375
3070		-27.343750
3071		-21.484375
3072		-25.390625
3073		-19.531250
3074		-23.437500
3075		-17.578125
3076		-21.484375
3077		-15.625000
3078		-19.531250
3079		-15.625000
3080		-17.578125
3081		-13.671875
3082		-15.625000
3083		-9.765625
3084		-15.625000
3085		-7.812500
3086		-13.671875
3087		-5.859375
3088		-11.718750
3089		-3.906250
3090		-9.765625
3091		-1.953125
3092		-7.812500
3093		0.000000
3094		-5.859375
3095		0.000000
3096		-1.953125
3097		1.953125
3098		-1.953125
3099		5.859375
3100		0.000000
3101		5.859375
3102		1.953125
3103		9.765625
3104		3.906250
3105		9.765625
3106		5.859375
3107		13.671875
3108		7.812500
3109		13.671875
3110		9.765625
3111		15.625000
3112		11.718750
3113		15.625000
3114		13.671875
3115		17.578125
3116		15.625000
3117		21.484375
3118		15.625000
3119		23.437500
3120		17.578125
3121		25.390625
3122		19.531250
3123		25.390625
3124		21.484375
3125		27.343750
3126		21.484375
3127		29.296875
3128		25.390625
3129		29.296875
3130		27.343750
3131		31.250000
3132		29.296875
3133		35.156250
3134		29.296875
3135		37.109375
3136		29.296875
3137		39.062500
3138		33.203125
3139		39.062500
3140		33.203125
3141		41.015625
3142		35.156250
3143		42.968750
3144		37.109375
3145		42.968750
3146		41.015625
3147		42.968750
3148		41.015625
3149		44.921875
3150		41.015625
3151		48.828125
3152		42.968750
3153		48.828125
3154		42.968750
3155		50.781250
3156		44.921875
3157		50.781250
3158		46.875000
3159		52.734375
3160		46.875000
3161		54.687500
3162		50.781250
3163		52.734375
3164		50.781250
3165		54.687500
3166		50.781250
3167		56.640625
3168		52.734375
3169		58.593750
3170		52.734375
3171		60.546875
3172		52.734375
3173		60.546875
3174		54.687500
3175		62.500000
3176		54.687500
3177		62.500000
3178		56.640625
3179		62.500000
3180		58.593750
3181		62.500000
3182		58.593750
3183		64.453125
3184		58.593750
3185		64.453125
3186		58.593750
3187		66.406250
3188		58.593750
3189		66.406250
3190		60.546875
3191		68.359375
3192		60.546875
3193		68.359375
3194		60.546875
3195		68.359375
3196		64.453125
3197		66.406250
3198		64.453125
3199		68.359375
3200		62.500000
3201		68.359375
3202		62.500000
3203		70.312500
3204		64.453125
3205		70.312500
3206		64.453125
3207		70.312500
3208		64.453125
3209		70.312500
3210		64.453125
3211		70.312500
3212		66.406250
3213		68.359375
3214		66.406250
3215		68.359375
3216		64.453125
3217		70.312500
3218		64.453125
3219		72.265625
3220		64.453125
3221		72.265625
3222		64.453125
3223		70.312500
3224		64.453125
3225		70.312500
3226		64.453125
3227		70.312500
3228		64.453125
3229		70.312500
3230		66.406250
3231		68.359375
3232		64.453125
3233		68.359375
3234		62.500000
3235		70.312500
3236		62.500000
3237		68.359375
3238		62.500000
3239		68.359375
3240		60.546875
3241		68.359375
3242		60.546875
3243		68.359375
3244		60.546875
3245		66.406250
3246		62.500000
3247		64.453125
3248		62.500000
3249		64.453125
3250		58.593750
3251		64.453125
3252		58.593750
3253		64.453125
3254		56.640625
3255		64.453125
3256		56.640625
3257		62.500000
3258		54.687500
3259		62.500000
3260		54.687500
3261		60.546875
3262		54.687500
3263		60.546875
3264		54.687500
3265		58.593750
3266		52.734375
3267		56.640625
3268		50.781250
3269		56.640625
3270		48.828125
3271		56.640625
3272		48.828125
3273		54.687500
3274		46.875000
3275		52.734375
3276		46.875000
3277		52.734375
3278		44.921875
3279		50.781250
3280		44.921875
3281		48.828125
3282		42.968750
3283		46.875000
3284		41.015625
3285		46.875000
3286		39.062500
3287		46.875000
3288		37.109375
3289		44.921875
3290		35.156250
3291		42.968750
3292		35.156250
3293		42.968750
3294		33.203125
3295		41.015625
3296		33.203125
3297		37.109375
3298		31.250000
3299		35.156250
3300		27.343750
3301		35.156250
3302		27.343750
3303		35.156250
3304		25.390625
3305		33.203125
3306		23.437500
3307		31.250000
3308		21.484375
3309		29.296875
3310		19.531250
3311		27.343750
3312		19.531250
3313		25.390625
3314		19.531250
3315		23.437500
3316		15.625000
3317		21.484375
3318		11.718750
3319		21.484375
3320		11.718750
3321		19.531250
3322		9.765625
3323		17.578125
3324		7.812500
3325		15.625000
3326		3.906250
3327		13.671875
3328		5.859375
3329		11.718750
3330		3.906250
3331		7.812500
3332		1.953125
3333		5.859375
3334		-1.953125
3335		5.859375
3336		-3.906250
3337		3.906250
3338		-5.859375
3339		1.953125
3340		-7.812500
3341		0.000000
3342		-9.765625
3343		-1.953125
3344		-9.765625
3345		-3.906250
3346		-11.718750
3347		-3.906250
3348		-13.671875
3349		-9.765625
3350		-15.625000
3351		-9.765625
3352		-17.578125
3353		-11.718750
3354		-19.531250
3355		-13.671875
3356		-21.484375
3357		-13.671875
3358		-23.437500
3359		-15.625000
3360		-25.390625
3361		-17.578125
3362		-27.343750
3363		-19.531250
3364		-27.343750
3365		-23.437500
3366		-29.296875
3367		-25.390625
3368		-31.250000
3369		-25.390625
3370		-35.156250
3371		-25.390625
3372		-37.109375
3373		-29.296875
3374		-37.109375
3375		-31.250000
3376		-39.062500
3377		-33.203125
3378		-41.015625
3379		-33.203125
3380		-41.015625
3381		-37.109375
3382		-42.968750
3383		-39.062500
3384		-46.875000
3385		-39.062500
3386		-46.875000
3387		-41.015625
3388		-48.828125
3389		-41.015625
3390		-50.781250
3391		-42.968750
3392		-52.734375
3393		-44.921875
3394		-54.687500
3395		-44.921875
3396		-54.687500
3397		-48.828125
3398		-54.687500
3399		-50.781250
3400		-56.640625
3401		-52.734375
3402		-58.593750
3403		-50.781250
3404		-60.546875
3405		-52.734375
3406		-60.546875
3407		-54.687500
3408		-62.500000
3409		-54.687500
3410		-62.500000
3411		-56.640625
3412		-64.453125
3413		-56.640625
3414		-64.453125
3415		-60.546875
3416		-64.453125
3417		-60.546875
3418		-68.359375
3419		-60.546875
3420		-68.359375
3421		-60.546875
3422		-68.359375
3423		-62.500000
3424		-68.359375
3425		-62.500000
3426		-70.312500
3427		-62.500000
3428		-70.312500
3429		-64.453125
3430		-70.312500
3431		-64.453125
3432		-70.312500
3433		-66.406250
3434		-72.265625
3435		-66.406250
3436		-72.265625
3437		-66.406250
3438		-72.265625
3439		-66.406250
3440		-74.218750
3441		-66.406250
3442		-74.218750
3443		-68.359375
3444		-74.218750
3445		-68.359375
3446		-74.218750
3447		-68.359375
3448		-72.265625
3449		-70.312500
3450		-72.265625
3451		-70.312500
3452		-74.218750
3453		-68.359375
3454		-74.218750
3455		-68.359375
3456		-74.218750
3457		-68.359375
3458		-74.218750
3459		-68.359375
3460		-74.218750
3461		-68.359375
3462		-74.218750
3463		-66.406250
3464		-72.265625
3465		-68.359375
3466		-72.265625
3467		-68.359375
3468		-72.265625
3469		-66.406250
3470		-72.265625
3471		-66.406250
3472		-72.265625
3473		-64.453125
3474		-72.265625
3475		-64.453125
3476		-70.312500
3477		-64.453125
3478		-70.312500
3479		-62.500000
3480		-70.312500
3481		-62.500000
3482		-66.406250
3483		-64.453125
3484		-66.406250
3485		-62.500000
3486		-66.406250
3487		-60.546875
3488		-66.406250
3489		-60.546875
3490		-64.453125
3491		-58.593750
3492		-64.453125
3493		-56.640625
3494		-64.453125
3495		-56.640625
3496		-62.500000
3497		-56.640625
3498		-58.593750
3499		-56.640625
3500		-58.593750
3501		-54.687500
3502		-58.593750
3503		-50.781250
3504		-56.640625
3505		-50.781250
3506		-56.640625
3507		-48.828125
3508		-54.687500
3509		-46.875000
3510		-52.734375
3511		-46.875000
3512		-52.734375
3513		-44.921875
3514		-50.781250
3515		-44.921875
3516		-46.875000
3517		-42.968750
3518		-44.921875
3519		-41.015625
3520		-46.875000
3521		-39.062500
3522		-44.921875
3523		-37.109375
3524		-42.968750
3525		-35.156250
3526		-41.015625
3527		-35.156250
3528		-39.062500
3529		-33.203125
3530		-37.109375
3531		-31.250000
3532		-35.156250
3533		-31.250000
3534		-33.203125
3535		-29.296875
3536		-31.250000
3537		-25.390625
3538		-31.250000
3539		-23.437500
3540		-29.296875
3541		-21.484375
3542		-27.343750
3543		-19.531250
3544		-25.390625
3545		-19.531250
3546		-23.437500
3547		-15.625000
3548		-21.484375
3549		-15.625000
3550		-19.531250
3551		-15.625000
3552		-17.578125
3553		-11.718750
3554		-17.578125
3555		-7.812500
3556		-13.671875
3557		-7.812500
3558		-13.671875
3559		-5.859375
3560		-11.718750
3561		-3.906250
3562		-9.765625
3563		-1.953125
3564		-7.812500
3565		0.000000
3566		-3.906250
3567		0.000000
3568		-1.953125
3569		1.953125
3570		-1.953125
3571		5.859375
3572		0.000000
3573		7.812500
3574		1.953125
3575		9.765625
3576		1.953125
3577		11.718750
3578		5.859375
3579		11.718750
3580		7.812500
3581		13.671875
3582		11.718750
3583		13.671875
3584		11.718750
3585		15.625000
3586		13.671875
3587		19.531250
3588		15.625000
3589		19.531250
3590		15.625000
3591		23.437500
3592		17.578125
3593		25.390625
3594		19.531250
3595		27.343750
3596		21.484375
3597		29.296875
3598		23.437500
3599		29.296875
3600		27.343750
3601		29.296875
3602		27.343750
3603		31.250000
3604		27.343750
3605		35.156250
3606		29.296875
3607		35.156250
3608		31.250000
3609		39.062500
3610		33.203125
3611		39.062500
3612		33.203125
3613		41.015625
3614		35.156250
3615		42.968750
3616		39.062500
3617		42.968750
3618		41.015625
3619		42.968750
3620		41.015625
3621		46.875000
3622		41.015625
3623		48.828125
3624		42.968750
3625		50.781250
3626		42.968750
3627		50.781250
3628		44.921875
3629		50.781250
3630		46.875000
3631		52.734375
3632		46.875000
3633		52.734375
3634		50.781250
3635		52.734375
3636		50.781250
3637		56.640625
3638		50.781250
3639		58.593750
3640		52.734375
3641		58.593750
3642		52.734375
3643		58.593750
3644		54.687500
3645		60.546875
3646		54.687500
3647		62.500000
3648		56.640625
3649		62.500000
3650		58.593750
3651		60.546875
3652		58.593750
3653		62.500000
3654		58.593750
3655		64.453125
3656		58.593750
3657		64.453125
3658		60.546875
3659		66.406250
3660		60.546875
3661		66.406250
3662		60.546875
3663		68.359375
3664		60.546875
3665		66.406250
3666		64.453125
3667		66.406250
3668		64.453125
3669		66.406250
3670		62.500000
3671		68.359375
3672		62.500000
3673		70.312500
3674		64.453125
3675		70.312500
3676		64.453125
3677		70.312500
3678		64.453125
3679		70.312500
3680		64.453125
3681		70.312500
3682		66.406250
3683		70.312500
3684		66.406250
3685		68.359375
3686		66.406250
3687		70.312500
3688		64.453125
3689		70.312500
3690		64.453125
3691		70.312500
3692		64.453125
3693		70.312500
3694		64.453125
3695		70.312500
3696		66.406250
3697		68.359375
3698		66.406250
3699		68.359375
3700		66.406250
3701		68.359375
3702		64.453125
3703		68.359375
3704		64.453125
3705		70.312500
3706		62.500000
3707		68.359375
3708		62.500000
3709		68.359375
3710		62.500000
3711		68.359375
3712		64.453125
3713		66.406250
3714		62.500000
3715		66.406250
3716		62.500000
3717		66.406250
3718		62.500000
3719		64.453125
3720		60.546875
3721		64.453125
3722		60.546875
3723		64.453125
3724		58.593750
3725		62.500000
3726		58.593750
3727		62.500000
3728		56.640625
3729		62.500000
3730		56.640625
3731		60.546875
3732		54.687500
3733		58.593750
3734		54.687500
3735		58.593750
3736		54.687500
3737		56.640625
3738		52.734375
3739		56.640625
3740		52.734375
3741		54.687500
3742		50.781250
3743		54.687500
3744		48.828125
3745		52.734375
3746		48.828125
3747		52.734375
3748		44.921875
3749		50.781250
3750		46.875000
3751		48.828125
3752		44.921875
3753		46.875000
3754		42.968750
3755		46.875000
3756		41.015625
3757		44.921875
3758		41.015625
3759		42.968750
3760		39.062500
3761		42.968750
3762		37.109375
3763		41.015625
3764		35.156250
3765		39.062500
3766		35.156250
3767		39.062500
3768		33.203125
3769		37.109375
3770		31.250000
3771		35.156250
3772		29.296875
3773		33.203125
3774		27.343750
3775		31.250000
3776		25.390625
3777		31.250000
3778		23.437500
3779		27.343750
3780		23.437500
3781		27.343750
3782		21.484375
3783		25.390625
3784		19.531250
3785		23.437500
3786		17.578125
3787		21.484375
3788		15.625000
3789		19.531250
3790		13.671875
3791		17.578125
3792		11.718750
3793		17.578125
3794		11.718750
3795		15.625000
3796		9.765625
3797		11.718750
3798		5.859375
3799		11.718750
3800		5.859375
3801		9.765625
3802		3.906250
3803		7.812500
3804		1.953125
3805		5.859375
3806		0.000000
3807		3.906250
3808		-3.906250
3809		1.953125
3810		-3.906250
3811		0.000000
3812		-5.859375
3813		-1.953125
3814		-7.812500
3815		-3.906250
3816		-9.765625
3817		-5.859375
3818		-11.718750
3819		-7.812500
3820		-13.671875
3821		-9.765625
3822		-15.625000
3823		-11.718750
3824		-17.578125
3825		-11.718750
3826		-19.531250
3827		-15.625000
3828		-21.484375
3829		-17.578125
3830		-23.437500
3831		-19.531250
3832		-25.390625
3833		-21.484375
3834		-25.390625
3835		-23.437500
3836		-27.343750
3837		-23.437500
3838		-29.296875
3839		-25.390625
3840		-33.203125
3841		-27.343750
3842		-33.203125
3843		-29.296875
3844		-35.156250
3845		-31.250000
3846		-37.109375
3847		-33.203125
3848		-39.062500
3849		-35.156250
3850		-41.015625
3851		-35.156250
3852		-41.015625
3853		-39.062500
3854		-44.921875
3855		-39.062500
3856		-44.921875
3857		-41.015625
3858		-46.875000
3859		-42.968750
3860		-48.828125
3861		-42.968750
3862		-48.828125
3863		-44.921875
3864		-50.781250
3865		-46.875000
3866		-52.734375
3867		-48.828125
3868		-52.734375
3869		-50.781250
3870		-54.687500
3871		-50.781250
3872		-56.640625
3873		-52.734375
3874		-56.640625
3875		-54.687500
3876		-58.593750
3877		-54.687500
3878		-60.546875
3879		-56.640625
3880		-60.546875
3881		-56.640625
3882		-62.500000
3883		-58.593750
3884		-62.500000
3885		-58.593750
3886		-64.453125
3887		-60.546875
3888		-64.453125
3889		-60.546875
3890		-66.406250
3891		-62.500000
3892		-66.406250
3893		-62.500000
3894		-66.406250
3895		-64.453125
3896		-68.359375
3897		-64.453125
3898		-68.359375
3899		-66.406250
3900		-70.312500
3901		-66.406250
3902		-70.312500
3903		-66.406250
3904		-70.312500
3905		-68.359375
3906		-70.312500
3907		-68.359375
3908		-70.312500
3909		-68.359375
3910		-72.265625
3911		-68.359375
3912		-72.265625
3913		-68.359375
3914		-72.265625
3915		-70.312500
3916		-72.265625
3917		-70.312500
3918		-72.265625
3919		-70.312500
3920		-72.265625
3921		-70.312500
3922		-74.218750
3923		-70.312500
3924		-74.218750
3925		-70.312500
3926		-72.265625
3927		-70.312500
3928		-72.265625
3929		-70.312500
3930		-72.265625
3931		-70.312500
3932		-72.265625
3933		-68.359375
3934		-72.265625
3935		-68.359375
3936		-72.265625
3937		-68.359375
3938		-72.265625
3939		-66.406250
3940		-72.265625
3941		-68.359375
3942		-70.312500
3943		-66.406250
3944		-70.312500
3945		-66.406250
3946		-70.312500
3947		-66.406250
3948		-68.359375
3949		-66.406250
3950		-68.359375
3951		-64.453125
3952		-68.359375
3953		-64.453125
3954		-66.406250
3955		-62.500000
3956		-66.406250
3957		-62.500000
3958		-64.453125
3959		-62.500000
3960		-64.453125
3961		-60.546875
3962		-64.453125
3963		-60.546875
3964		-62.500000
3965		-58.593750
3966		-60.546875
3967		-56.640625
3968		-60.546875
3969		-56.640625
3970		-58.593750
3971		-54.687500
3972		-56.640625
3973		-54.687500
3974		-56.640625
3975		-52.734375
3976		-54.687500
3977		-50.781250
3978		-54.687500
3979		-50.781250
3980		-52.734375
3981		-48.828125
3982		-50.781250
3983		-46.875000
3984		-50.781250
3985		-44.921875
3986		-48.828125
3987		-44.921875
3988		-46.875000
3989		-42.968750
3990		-46.875000
3991		-41.015625
3992		-42.968750
3993		-41.015625
3994		-42.968750
3995		-39.062500
3996		-41.015625
3997		-37.109375
3998		-39.062500
3999		-35.156250
4000		-37.109375
4001		-33.203125
4002		-37.109375
4003		-33.203125
4004		-33.203125
4005		-29.296875
4006		-33.203125
4007		-27.343750
4008		-31.250000
4009		-25.390625
4010		-29.296875
4011		-25.390625
4012		-27.343750
4013		-23.437500
4014		-25.390625
4015		-21.484375
4016		-23.437500
4017		-19.531250
4018		-21.484375
4019		-17.578125
4020		-19.531250
4021		-15.625000
4022		-17.578125
4023		-13.671875
4024		-15.625000
4025		-11.718750
4026		-13.671875
4027		-9.765625
4028		-13.671875
4029		-7.812500
4030		-9.765625
4031		-5.859375
4032		-9.765625
4033		-5.859375
4034		-5.859375
4035		-1.953125
4036		-5.859375
4037		-1.953125
4038		-3.906250
4039		0.000000
4040		-1.953125
4041		1.953125
4042		0.000000
4043		3.906250
4044		1.953125
4045		5.859375
4046		3.906250
4047		7.812500
4048		5.859375
4049		9.765625
4050		7.812500
4051		11.718750
4052		9.765625
4053		13.671875
4054		11.718750
4055		15.625000
4056		13.671875
4057		17.578125
4058		15.625000
4059		19.531250
4060		17.578125
4061		21.484375
4062		17.578125
4063		23.437500
4064		19.531250
4065		23.437500
4066		21.484375
4067		25.390625
4068		23.437500
4069		27.343750
4070		25.390625
4071		29.296875
4072		27.343750
4073		31.250000
4074		27.343750
4075		33.203125
4076		29.296875
4077		33.203125
4078		31.250000
4079		35.156250
4080		33.203125
4081		37.109375
4082		35.156250
4083		39.062500
4084		37.109375
4085		39.062500
4086		37.109375
4087		41.015625
4088		39.062500
4089		42.968750
4090		41.015625
4091		42.968750
4092		41.015625
4093		44.921875
4094		42.968750
4095		46.875000
4096		44.921875
4097		48.828125
4098		44.921875
4099		48.828125
4100		46.875000
4101		50.781250
4102		48.828125
4103		52.734375
4104		48.828125
4105		52.734375
4106		50.781250
4107		54.687500
4108		50.781250
4109		54.687500
4110		52.734375
4111		56.640625
4112		54.687500
4113		56.640625
4114		54.687500
4115		58.593750
4116		54.687500
4117		58.593750
4118		56.640625
4119		60.546875
4120		56.640625
4121		60.546875
4122		58.593750
4123		60.546875
4124		58.593750
4125		62.500000
4126		58.593750
4127		62.500000
4128		60.546875
4129		64.453125
4130		60.546875
4131		64.453125
4132		60.546875
4133		64.453125
4134		62.500000
4135		66.406250
4136		62.500000
4137		66.406250
4138		64.453125
4139		66.406250
4140		62.500000
4141		68.359375
4142		64.453125
4143		68.359375
4144		64.453125
4145		68.359375
4146		64.453125
4147		68.359375
4148		64.453125
4149		68.359375
4150		66.406250
4151		68.359375
4152		64.453125
4153		70.312500
4154		66.406250
4155		68.359375
4156		66.406250
4157		68.359375
4158		66.406250
4159		68.359375
4160		66.406250
4161		68.359375
4162		66.406250
4163		70.312500
4164		66.406250
4165		68.359375
4166		66.406250
4167		68.359375
4168		66.406250
4169		68.359375
4170		64.453125
4171		68.359375
4172		64.453125
4173		68.359375
4174		64.453125
4175		68.359375
4176		64.453125
4177		68.359375
4178		64.453125
4179		66.406250
4180		64.453125
4181		66.406250
4182		62.500000
4183		66.406250
4184		62.500000
4185		66.406250
4186		62.500000
4187		66.406250
4188		62.500000
4189		64.453125
4190		60.546875
4191		64.453125
4192		58.593750
4193		64.453125
4194		58.593750
4195		62.500000
4196		58.593750
4197		62.500000
4198		56.640625
4199		60.546875
4200		56.640625
4201		60.546875
4202		56.640625
4203		60.546875
4204		54.687500
4205		58.593750
4206		54.687500
4207		56.640625
4208		52.734375
4209		56.640625
4210		52.734375
4211		54.687500
4212		50.781250
4213		54.687500
4214		50.781250
4215		52.734375
4216		48.828125
4217		52.734375
4218		46.875000
4219		50.781250
4220		46.875000
4221		50.781250
4222		44.921875
4223		48.828125
4224		42.968750
4225		46.875000
4226		42.968750
4227		44.921875
4228		41.015625
4229		44.921875
4230		39.062500
4231		42.968750
4232		39.062500
4233		42.968750
4234		37.109375
4235		41.015625
4236		35.156250
4237		39.062500
4238		33.203125
4239		37.109375
4240		31.250000
4241		35.156250
4242		31.250000
4243		35.156250
4244		29.296875
4245		33.203125
4246		27.343750
4247		31.250000
4248		25.390625
4249		29.296875
4250		23.437500
4251		27.343750
4252		21.484375
4253		25.390625
4254		19.531250
4255		25.390625
4256		19.531250
4257		23.437500
4258		17.578125
4259		21.484375
4260		15.625000
4261		19.531250
4262		13.671875
4263		17.578125
4264		11.718750
4265		15.625000
4266		9.765625
4267		13.671875
4268		7.812500
4269		11.718750
4270		5.859375
4271		9.765625
4272		3.906250
4273		7.812500
4274		0.000000
4275		5.859375
4276		0.000000
4277		5.859375
4278		-1.953125
4279		1.953125
4280		-3.906250
4281		0.000000
4282		-5.859375
4283		-1.953125
4284		-5.859375
4285		-3.906250
4286		-9.765625
4287		-5.859375
4288		-9.765625
4289		-5.859375
4290		-11.718750
4291		-9.765625
4292		-13.671875
4293		-11.718750
4294		-15.625000
4295		-11.718750
4296		-17.578125
4297		-13.671875
4298		-19.531250
4299		-15.625000
4300		-23.437500
4301		-17.578125
4302		-23.437500
4303		-19.531250
4304		-25.390625
4305		-21.484375
4306		-27.343750
4307		-23.437500
4308		-29.296875
4309		-25.390625
4310		-31.250000
4311		-27.343750
4312		-33.203125
4313		-29.296875
4314		-35.156250
4315		-31.250000
4316		-35.156250
4317		-31.250000
4318		-37.109375
4319		-35.156250
4320		-41.015625
4321		-35.156250
4322		-41.015625
4323		-37.109375
4324		-42.968750
4325		-39.062500
4326		-44.921875
4327		-41.015625
4328		-44.921875
4329		-42.968750
4330		-46.875000
4331		-42.968750
4332		-48.828125
4333		-44.921875
4334		-50.781250
4335		-46.875000
4336		-50.781250
4337		-48.828125
4338		-52.734375
4339		-48.828125
4340		-54.687500
4341		-50.781250
4342		-56.640625
4343		-52.734375
4344		-56.640625
4345		-52.734375
4346		-58.593750
4347		-54.687500
4348		-60.546875
4349		-56.640625
4350		-60.546875
4351		-56.640625
4352		-62.500000
4353		-58.593750
4354		-62.500000
4355		-58.593750
4356		-64.453125
4357		-60.546875
4358		-64.453125
4359		-62.500000
4360		-66.406250
4361		-62.500000
4362		-66.406250
4363		-62.500000
4364		-66.406250
4365		-64.453125
4366		-68.359375
4367		-64.453125
4368		-68.359375
4369		-66.406250
4370		-70.312500
4371		-66.406250
4372		-70.312500
4373		-66.406250
4374		-70.312500
4375		-68.359375
4376		-70.312500
4377		-68.359375
4378		-72.265625
4379		-68.359375
4380		-72.265625
4381		-68.359375
4382		-72.265625
4383		-68.359375
4384		-72.265625
4385		-70.312500
4386		-72.265625
4387		-70.312500
4388		-74.218750
4389		-70.312500
4390		-74.218750
4391		-70.312500
4392		-74.218750
4393		-70.312500
4394		-74.218750
4395		-70.312500
4396		-72.265625
4397		-70.312500
4398		-74.218750
4399		-70.312500
4400		-72.265625
4401		-70.312500
4402		-72.265625
4403		-70.312500
4404		-72.265625
4405		-68.359375
4406		-72.265625
4407		-70.312500
4408		-72.265625
4409		-70.312500
4410		-72.265625
4411		-68.359375
4412		-70.312500
4413		-68.359375
4414		-70.312500
4415		-66.406250
4416		-70.312500
4417		-66.406250
4418		-70.312500
4419		-66.406250
4420		-68.359375
4421		-66.406250
4422		-68.359375
4423		-64.453125
4424		-66.406250
4425		-64.453125
4426		-66.406250
4427		-62.500000
4428		-66.406250
4429		-62.500000
4430		-66.406250
4431		-62.500000
4432		-64.453125
4433		-60.546875
4434		-62.500000
4435		-60.546875
4436		-62.500000
4437		-58.593750
4438		-60.546875
4439		-56.640625
4440		-60.546875
4441		-56.640625
4442		-58.593750
4443		-54.687500
4444		-58.593750
4445		-54.687500
4446		-56.640625
4447		-52.734375
4448		-54.687500
4449		-50.781250
4450		-54.687500
4451		-50.781250
4452		-52.734375
4453		-48.828125
4454		-50.781250
4455		-46.875000
4456		-48.828125
4457		-46.875000
4458		-46.875000
4459		-44.921875
4460		-46.875000
4461		-42.968750
4462		-44.921875
4463		-41.015625
4464		-42.968750
4465		-39.062500
4466		-41.015625
4467		-37.109375
4468		-41.015625
4469		-35.156250
4470		-39.062500
4471		-35.156250
4472		-37.109375
4473		-33.203125
4474		-35.156250
4475		-31.250000
4476		-33.203125
4477		-29.296875
4478		-31.250000
4479		-27.343750
4480		-29.296875
4481		-25.390625
4482		-27.343750
4483		-25.390625
4484		-25.390625
4485		-21.484375
4486		-25.390625
4487		-19.531250
4488		-23.437500
4489		-19.531250
4490		-21.484375
4491		-17.578125
4492		-19.531250
4493		-15.625000
4494		-17.578125
4495		-13.671875
4496		-15.625000
4497		-11.718750
4498		-13.671875
4499		-9.765625
4500		-11.718750
4501		-7.812500
4502		-9.765625
4503		-5.859375
4504		-7.812500
4505		-3.906250
4506		-5.859375
4507		-1.953125
4508		-3.906250
4509		0.000000
4510		-1.953125
4511		1.953125
4512		0.000000
4513		3.906250
4514		1.953125
4515		5.859375
4516		1.953125
4517		5.859375
4518		3.906250
4519		7.812500
4520		7.812500
4521		11.718750
4522		7.812500
4523		11.718750
4524		9.765625
4525		13.671875
4526		11.718750
4527		15.625000
4528		13.671875
4529		17.578125
4530		15.625000
4531		19.531250
4532		17.578125
4533		21.484375
4534		19.531250
4535		23.437500
4536		21.484375
4537		25.390625
4538		21.484375
4539		27.343750
4540		23.437500
4541		27.343750
4542		25.390625
4543		29.296875
4544		27.343750
4545		31.250000
4546		29.296875
4547		33.203125
4548		31.250000
4549		33.203125
4550		33.203125
4551		35.156250
4552		33.203125
4553		37.109375
4554		35.156250
4555		39.062500
4556		37.109375
4557		41.015625
4558		39.062500
4559		41.015625
4560		39.062500
4561		42.968750
4562		41.015625
4563		44.921875
4564		42.968750
4565		46.875000
4566		42.968750
4567		46.875000
4568		44.921875
4569		48.828125
4570		44.921875
4571		48.828125
4572		46.875000
4573		50.781250
4574		48.828125
4575		52.734375
4576		50.781250
4577		52.734375
4578		50.781250
4579		54.687500
4580		50.781250
4581		54.687500
4582		52.734375
4583		56.640625
4584		54.687500
4585		56.640625
4586		54.687500
4587		58.593750
4588		56.640625
4589		58.593750
4590		56.640625
4591		60.546875
4592		58.593750
4593		60.546875
4594		58.593750
4595		62.500000
4596		58.593750
4597		62.500000
4598		58.593750
4599		64.453125
4600		60.546875
4601		64.453125
4602		60.546875
4603		64.453125
4604		62.500000
4605		64.453125
4606		62.500000
4607		66.406250
4608		62.500000
4609		66.406250
4610		64.453125
4611		66.406250
4612		62.500000
4613		66.406250
4614		64.453125
4615		68.359375
4616		64.453125
4617		68.359375
4618		64.453125
4619		68.359375
4620		64.453125
4621		68.359375
4622		66.406250
4623		68.359375
4624		66.406250
4625		68.359375
4626		66.406250
4627		68.359375
4628		66.406250
4629		68.359375
4630		66.406250
4631		68.359375
4632		64.453125
4633		68.359375
4634		66.406250
4635		68.359375
4636		64.453125
4637		68.359375
4638		66.406250
4639		68.359375
4640		66.406250
4641		68.359375
4642		66.406250
4643		68.359375
4644		64.453125
4645		68.359375
4646		64.453125
4647		68.359375
4648		64.453125
4649		68.359375
4650		64.453125
4651		66.406250
4652		62.500000
4653		66.406250
4654		62.500000
4655		66.406250
4656		62.500000
4657		66.406250
4658		62.500000
4659		64.453125
4660		62.500000
4661		64.453125
4662		60.546875
4663		64.453125
4664		58.593750
4665		62.500000
4666		58.593750
4667		62.500000
4668		58.593750
4669		62.500000
4670		58.593750
4671		60.546875
4672		56.640625
4673		60.546875
4674		56.640625
4675		60.546875
4676		54.687500
4677		58.593750
4678		52.734375
4679		56.640625
4680		52.734375
4681		56.640625
4682		50.781250
4683		54.687500
4684		50.781250
4685		54.687500
4686		48.828125
4687		52.734375
4688		48.828125
4689		50.781250
4690		46.875000
4691		50.781250
4692		46.875000
4693		48.828125
4694		44.921875
4695		46.875000
4696		42.968750
4697		46.875000
4698		41.015625
4699		44.921875
4700		41.015625
4701		42.968750
4702		39.062500
4703		42.968750
4704		37.109375
4705		41.015625
4706		35.156250
4707		39.062500
4708		35.156250
4709		39.062500
4710		33.203125
4711		37.109375
4712		31.250000
4713		35.156250
4714		29.296875
4715		33.203125
4716		27.343750
4717		31.250000
4718		25.390625
4719		29.296875
4720		25.390625
4721		29.296875
4722		23.437500
4723		27.343750
4724		21.484375
4725		25.390625
4726		19.531250
4727		23.437500
4728		17.578125
4729		21.484375
4730		15.625000
4731		19.531250
4732		13.671875
4733		17.578125
4734		11.718750
4735		15.625000
4736		9.765625
4737		13.671875
4738		7.812500
4739		11.718750
4740		5.859375
4741		9.765625
4742		5.859375
4743		9.765625
4744		3.906250
4745		7.812500
4746		1.953125
4747		5.859375
4748		0.000000
4749		3.906250
4750		-1.953125
4751		1.953125
4752		-3.906250
4753		0.000000
4754		-5.859375
4755		-1.953125
4756		-7.812500
4757		-3.906250
4758		-9.765625
4759		-5.859375
4760		-11.718750
4761		-7.812500
4762		-13.671875
4763		-9.765625
4764		-15.625000
4765		-11.718750
4766		-17.578125
4767		-13.671875
4768		-19.531250
4769		-15.625000
4770		-21.484375
4771		-17.578125
4772		-23.437500
4773		-19.531250
4774		-25.390625
4775		-21.484375
4776		-25.390625
4777		-23.437500
4778		-27.343750
4779		-25.390625
4780		-31.250000
4781		-25.390625
4782		-33.203125
4783		-27.343750
4784		-33.203125
4785		-29.296875
4786		-35.156250
4787		-31.250000
4788		-39.062500
4789		-33.203125
4790		-39.062500
4791		-35.156250
4792		-41.015625
4793		-37.109375
4794		-41.015625
4795		-39.062500
4796		-42.968750
4797		-39.062500
4798		-44.921875
4799		-41.015625
4800		-46.875000
4801		-42.968750
4802		-48.828125
4803		-44.921875
4804		-48.828125
4805		-46.875000
4806		-50.781250
4807		-46.875000
4808		-52.734375
4809		-48.828125
4810		-54.687500
4811		-50.781250
4812		-56.640625
4813		-52.734375
4814		-56.640625
4815		-52.734375
4816		-58.593750
4817		-54.687500
4818		-58.593750
4819		-54.687500
4820		-60.546875
4821		-56.640625
4822		-60.546875
4823		-58.593750
4824		-62.500000
4825		-58.593750
4826		-62.500000
4827		-60.546875
4828		-64.453125
4829		-60.546875
4830		-66.406250
4831		-62.500000
4832		-66.406250
4833		-62.500000
4834		-68.359375
4835		-62.500000
4836		-66.406250
4837		-64.453125
4838		-68.359375
4839		-64.453125
4840		-70.312500
4841		-66.406250
4842		-70.312500
4843		-66.406250
4844		-70.312500
4845		-68.359375
4846		-72.265625
4847		-68.359375
4848		-70.312500
4849		-68.359375
4850		-72.265625
4851		-68.359375
4852		-72.265625
4853		-70.312500
4854		-72.265625
4855		-70.312500
4856		-74.218750
4857		-70.312500
4858		-74.218750
4859		-70.312500
4860		-72.265625
4861		-70.312500
4862		-74.218750
4863		-70.312500
4864		-74.218750
4865		-70.312500
4866		-74.218750
4867		-70.312500
4868		-72.265625
4869		-70.312500
4870		-72.265625
4871		-70.312500
4872		-72.265625
4873		-70.312500
4874		-72.265625
4875		-70.312500
4876		-74.218750
4877		-70.312500
4878		-72.265625
4879		-70.312500
4880		-72.265625
4881		-68.359375
4882		-72.265625
4883		-68.359375
4884		-70.312500
4885		-68.359375
4886		-70.312500
4887		-68.359375
4888		-70.312500
4889		-66.406250
4890		-70.312500
4891		-66.406250
4892		-68.359375
4893		-66.406250
4894		-68.359375
4895		-64.453125
4896		-66.406250
4897		-64.453125
4898		-66.406250
4899		-64.453125
4900		-66.406250
4901		-62.500000
4902		-64.453125
4903		-62.500000
4904		-64.453125
4905		-60.546875
4906		-64.453125
4907		-58.593750
4908		-62.500000
4909		-58.593750
4910		-60.546875
4911		-56.640625
4912		-60.546875
4913		-56.640625
4914		-58.593750
4915		-54.687500
4916		-56.640625
4917		-52.734375
4918		-56.640625
4919		-52.734375
4920		-54.687500
4921		-50.781250
4922		-52.734375
4923		-48.828125
4924		-52.734375
4925		-48.828125
4926		-50.781250
4927		-46.875000
4928		-48.828125
4929		-44.921875
4930		-46.875000
4931		-42.968750
4932		-46.875000
4933		-42.968750
4934		-44.921875
4935		-41.015625
4936		-42.968750
4937		-39.062500
4938		-41.015625
4939		-37.109375
4940		-39.062500
4941		-37.109375
4942		-39.062500
4943		-35.156250
4944		-37.109375
4945		-33.203125
4946		-35.156250
4947		-31.250000
4948		-33.203125
4949		-29.296875
4950		-31.250000
4951		-27.343750
4952		-29.296875
4953		-25.390625
4954		-27.343750
4955		-23.437500
4956		-25.390625
4957		-21.484375
4958		-23.437500
4959		-19.531250
4960		-23.437500
4961		-17.578125
4962		-19.531250
4963		-17.578125
4964		-19.531250
4965		-13.671875
4966		-15.625000
4967		-13.671875
4968		-15.625000
4969		-11.718750
4970		-13.671875
4971		-7.812500
4972		-11.718750
4973		-7.812500
4974		-9.765625
4975		-3.906250
4976		-7.812500
4977		-3.906250
4978		-5.859375
4979		-1.953125
4980		-3.906250
4981		0.000000
4982		-3.906250
4983		1.953125
4984		0.000000
4985		3.906250
4986		1.953125
4987		5.859375
4988		3.906250
4989		7.812500
4990		5.859375
4991		9.765625
4992		7.812500
4993		11.718750
4994		9.765625
4995		11.718750
4996		9.765625
4997		13.671875
4998		11.718750
4999		15.625000
5000		13.671875
5001		17.578125
5002		15.625000
5003		19.531250
5004		17.578125
5005		21.484375
5006		19.531250
5007		23.437500
5008		21.484375
5009		25.390625
5010		23.437500
5011		27.343750
5012		25.390625
5013		27.343750
5014		27.343750
5015		29.296875
5016		27.343750
5017		31.250000
5018		29.296875
5019		33.203125
5020		31.250000
5021		35.156250
5022		33.203125
5023		37.109375
5024		33.203125
5025		37.109375
5026		35.156250
5027		41.015625
5028		37.109375
5029		41.015625
5030		39.062500
5031		42.968750
5032		39.062500
5033		42.968750
5034		41.015625
5035		44.921875
5036		42.968750
5037		46.875000
5038		42.968750
5039		48.828125
5040		44.921875
5041		48.828125
5042		46.875000
5043		48.828125
5044		46.875000
5045		50.781250
5046		48.828125
5047		52.734375
5048		50.781250
5049		52.734375
5050		50.781250
5051		54.687500
5052		50.781250
5053		54.687500
5054		52.734375
5055		56.640625
5056		52.734375
5057		58.593750
5058		54.687500
5059		58.593750
5060		54.687500
5061		60.546875
5062		56.640625
5063		60.546875
5064		58.593750
5065		60.546875
5066		58.593750
5067		60.546875
5068		58.593750
5069		62.500000
5070		60.546875
5071		62.500000
5072		60.546875
5073		64.453125
5074		60.546875
5075		64.453125
5076		60.546875
5077		66.406250
5078		62.500000
5079		64.453125
5080		62.500000
5081		64.453125
5082		62.500000
5083		66.406250
5084		64.453125
5085		66.406250
5086		64.453125
5087		66.406250
5088		64.453125
5089		66.406250
5090		64.453125
5091		68.359375
5092		64.453125
5093		68.359375
5094		64.453125
5095		68.359375
5096		64.453125
5097		68.359375
5098		64.453125
5099		68.359375
5100		64.453125
5101		68.359375
5102		64.453125
5103		68.359375
5104		64.453125
5105		68.359375
5106		64.453125
5107		68.359375
5108		64.453125
5109		68.359375
5110		64.453125
5111		68.359375
5112		64.453125
5113		68.359375
5114		64.453125
5115		66.406250
5116		64.453125
5117		66.406250
5118		64.453125
5119		66.406250
5120		64.453125
5121		66.406250
5122		62.500000
5123		66.406250
5124		62.500000
5125		66.406250
5126		60.546875
5127		64.453125
5128		60.546875
5129		66.406250
5130		60.546875
5131		64.453125
5132		60.546875
5133		64.453125
5134		58.593750
5135		62.500000
5136		58.593750
5137		62.500000
5138		58.593750
5139		60.546875
5140		56.640625
5141		60.546875
5142		56.640625
5143		60.546875
5144		54.687500
5145		58.593750
5146		54.687500
5147		56.640625
5148		54.687500
5149		56.640625
5150		52.734375
5151		56.640625
5152		50.781250
5153		54.687500
5154		50.781250
5155		54.687500
5156		48.828125
5157		52.734375
5158		46.875000
5159		50.781250
5160		46.875000
5161		50.781250
5162		44.921875
5163		50.781250
5164		44.921875
5165		46.875000
5166		42.968750
5167		46.875000
5168		41.015625
5169		44.921875
5170		41.015625
5171		44.921875
5172		39.062500
5173		42.968750
5174		37.109375
5175		41.015625
5176		35.156250
5177		39.062500
5178		35.156250
5179		39.062500
5180		33.203125
5181		37.109375
5182		31.250000
5183		35.156250
5184		29.296875
5185		33.203125
5186		27.343750
5187		31.250000
5188		27.343750
5189		31.250000
5190		25.390625
5191		29.296875
5192		23.437500
5193		27.343750
5194		19.531250
5195		25.390625
5196		19.531250
5197		23.437500
5198		17.578125
5199		21.484375
5200		15.625000
5201		21.484375
5202		13.671875
5203		17.578125
5204		13.671875
5205		17.578125
5206		11.718750
5207		15.625000
5208		9.765625
5209		13.671875
5210		7.812500
5211		11.718750
5212		5.859375
5213		9.765625
5214		3.906250
5215		7.812500
5216		1.953125
5217		5.859375
5218		0.000000
5219		3.906250
5220		-1.953125
5221		1.953125
5222		-3.906250
5223		0.000000
5224		-5.859375
5225		-1.953125
5226		-7.812500
5227		-3.906250
5228		-9.765625
5229		-5.859375
5230		-11.718750
5231		-7.812500
5232		-13.671875
5233		-9.765625
5234		-15.625000
5235		-11.718750
5236		-17.578125
5237		-13.671875
5238		-19.531250
5239		-15.625000
5240		-21.484375
5241		-17.578125
5242		-21.484375
5243		-19.531250
5244		-25.390625
5245		-19.531250
5246		-25.390625
5247		-21.484375
5248		-27.343750
5249		-23.437500
5250		-29.296875
5251		-25.390625
5252		-31.250000
5253		-27.343750
5254		-33.203125
5255		-29.296875
5256		-35.156250
5257		-31.250000
5258		-37.109375
5259		-33.203125
5260		-39.062500
5261		-35.156250
5262		-39.062500
5263		-37.109375
5264		-41.015625
5265		-39.062500
5266		-44.921875
5267		-39.062500
5268		-44.921875
5269		-41.015625
5270		-46.875000
5271		-42.968750
5272		-46.875000
5273		-44.921875
5274		-48.828125
5275		-44.921875
5276		-50.781250
5277		-46.875000
5278		-52.734375
5279		-48.828125
5280		-54.687500
5281		-50.781250
5282		-54.687500
5283		-50.781250
5284		-56.640625
5285		-52.734375
5286		-56.640625
5287		-54.687500
5288		-58.593750
5289		-54.687500
5290		-60.546875
5291		-56.640625
5292		-60.546875
5293		-58.593750
5294		-62.500000
5295		-58.593750
5296		-64.453125
5297		-58.593750
5298		-64.453125
5299		-60.546875
5300		-66.406250
5301		-62.500000
5302		-66.406250
5303		-62.500000
5304		-66.406250
5305		-64.453125
5306		-68.359375
5307		-64.453125
5308		-68.359375
5309		-64.453125
5310		-68.359375
5311		-66.406250
5312		-70.312500
5313		-66.406250
5314		-70.312500
5315		-68.359375
5316		-72.265625
5317		-68.359375
5318		-72.265625
5319		-68.359375
5320		-72.265625
5321		-68.359375
5322		-72.265625
5323		-70.312500
5324		-72.265625
5325		-70.312500
5326		-72.265625
5327		-70.312500
5328		-74.218750
5329		-70.312500
5330		-74.218750
5331		-70.312500
5332		-74.218750
5333		-72.265625
5334		-74.218750
5335		-70.312500
5336		-74.218750
5337		-70.312500
5338		-74.218750
5339		-70.312500
5340		-74.218750
5341		-70.312500
5342		-74.218750
5343		-70.312500
5344		-74.218750
5345		-70.312500
5346		-74.218750
5347		-70.312500
5348		-72.265625
5349		-70.312500
5350		-72.265625
5351		-68.359375
5352		-74.218750
5353		-68.359375
5354		-72.265625
5355		-68.359375
5356		-72.265625
5357		-68.359375
5358		-70.312500
5359		-68.359375
5360		-70.312500
5361		-68.359375
5362		-70.312500
5363		-66.406250
5364		-68.359375
5365		-66.406250
5366		-68.359375
5367		-66.406250
5368		-68.359375
5369		-64.453125
5370		-66.406250
5371		-64.453125
5372		-66.406250
5373		-62.500000
5374		-64.453125
5375		-62.500000
5376		-64.453125
5377		-60.546875
5378		-62.500000
5379		-60.546875
5380		-62.500000
5381		-58.593750
5382		-60.546875
5383		-58.593750
5384		-60.546875
5385		-56.640625
5386		-58.593750
5387		-54.687500
5388		-56.640625
5389		-52.734375
5390		-56.640625
5391		-52.734375
5392		-54.687500
5393		-50.781250
5394		-52.734375
5395		-50.781250
5396		-52.734375
5397		-48.828125
5398		-50.781250
5399		-46.875000
5400		-48.828125
5401		-44.921875
5402		-46.875000
5403		-42.968750
5404		-44.921875
5405		-42.968750
5406		-44.921875
5407		-41.015625
5408		-42.968750
5409		-39.062500
5410		-41.015625
5411		-37.109375
5412		-39.062500
5413		-35.156250
5414		-39.062500
5415		-35.156250
5416		-35.156250
5417		-33.203125
5418		-35.156250
5419		-31.250000
5420		-33.203125
5421		-29.296875
5422		-31.250000
5423		-27.343750
5424		-29.296875
5425		-25.390625
5426		-27.343750
5427		-23.437500
5428		-25.390625
5429		-21.484375
5430		-23.437500
5431		-19.531250
5432		-21.484375
5433		-17.578125
5434		-19.531250
5435		-15.625000
5436		-17.578125
5437		-13.671875
5438		-15.625000
5439		-11.718750
5440		-15.625000
5441		-11.718750
5442		-11.718750
5443		-9.765625
5444		-11.718750
5445		-5.859375
5446		-9.765625
5447		-3.906250
5448		-7.812500
5449		-3.906250
5450		-5.859375
5451		-1.953125
5452		-3.906250
5453		0.000000
5454		-1.953125
5455		1.953125
5456		0.000000
5457		3.906250
5458		1.953125
5459		5.859375
5460		3.906250
5461		7.812500
5462		5.859375
5463		9.765625
5464		7.812500
5465		11.718750
5466		9.765625
5467		13.671875
5468		11.718750
5469		15.625000
5470		13.671875
5471		15.625000
5472		15.625000
5473		19.531250
5474		15.625000
5475		19.531250
5476		17.578125
5477		21.484375
5478		19.531250
5479		23.437500
5480		21.484375
5481		25.390625
5482		23.437500
5483		27.343750
5484		25.390625
5485		29.296875
5486		27.343750
5487		31.250000
5488		27.343750
5489		33.203125
5490		29.296875
5491		33.203125
5492		31.250000
5493		35.156250
5494		33.203125
5495		37.109375
5496		33.203125
5497		39.062500
5498		35.156250
5499		39.062500
5500		37.109375
5501		41.015625
5502		39.062500
5503		42.968750
5504		39.062500
5505		42.968750
5506		41.015625
5507		44.921875
5508		41.015625
5509		46.875000
5510		44.921875
5511		46.875000
5512		44.921875
5513		48.828125
5514		46.875000
5515		50.781250
5516		46.875000
5517		50.781250
5518		48.828125
5519		52.734375
5520		48.828125
5521		52.734375
5522		50.781250
5523		54.687500
5524		52.734375
5525		56.640625
5526		52.734375
5527		56.640625
5528		52.734375
5529		56.640625
5530		54.687500
5531		58.593750
5532		56.640625
5533		58.593750
5534		56.640625
5535		60.546875
5536		56.640625
5537		62.500000
5538		58.593750
5539		60.546875
5540		58.593750
5541		62.500000
5542		60.546875
5543		62.500000
5544		60.546875
5545		64.453125
5546		60.546875
5547		64.453125
5548		62.500000
5549		64.453125
5550		62.500000
5551		64.453125
5552		62.500000
5553		66.406250
5554		62.500000
5555		66.406250
5556		64.453125
5557		66.406250
5558		64.453125
5559		66.406250
5560		64.453125
5561		66.406250
5562		64.453125
5563		68.359375
5564		64.453125
5565		68.359375
5566		64.453125
5567		68.359375
5568		66.406250
5569		68.359375
5570		64.453125
5571		68.359375
5572		64.453125
5573		68.359375
5574		64.453125
5575		68.359375
5576		64.453125
5577		68.359375
5578		64.453125
5579		68.359375
5580		64.453125
5581		68.359375
5582		64.453125
5583		68.359375
5584		64.453125
5585		68.359375
5586		64.453125
5587		68.359375
5588		64.453125
5589		66.406250
5590		64.453125
5591		66.406250
5592		62.500000
5593		66.406250
5594		62.500000
5595		66.406250
5596		62.500000
5597		66.406250
5598		62.500000
5599		64.453125
5600		62.500000
5601		64.453125
5602		60.546875
5603		64.453125
5604		60.546875
5605		64.453125
5606		58.593750
5607		62.500000
5608		58.593750
5609		62.500000
5610		58.593750
5611		62.500000
5612		56.640625
5613		60.546875
5614		54.687500
5615		60.546875
5616		54.687500
5617		58.593750
5618		54.687500
5619		56.640625
5620		52.734375
5621		56.640625
5622		52.734375
5623		56.640625
5624		50.781250
5625		54.687500
5626		50.781250
5627		54.687500
5628		48.828125
5629		52.734375
5630		48.828125
5631		50.781250
5632		46.875000
5633		50.781250
5634		44.921875
5635		48.828125
5636		44.921875
5637		46.875000
5638		42.968750
5639		46.875000
5640		41.015625
5641		44.921875
5642		41.015625
5643		42.968750
5644		39.062500
5645		42.968750
5646		37.109375
5647		41.015625
5648		35.156250
5649		39.062500
5650		35.156250
5651		37.109375
5652		33.203125
5653		37.109375
5654		31.250000
5655		35.156250
5656		29.296875
5657		33.203125
5658		27.343750
5659		31.250000
5660		25.390625
5661		29.296875
5662		25.390625
5663		27.343750
5664		21.484375
5665		27.343750
5666		21.484375
5667		25.390625
5668		19.531250
5669		23.437500
5670		17.578125
5671		21.484375
5672		15.625000
5673		19.531250
5674		13.671875
5675		19.531250
5676		11.718750
5677		17.578125
5678		9.765625
5679		13.671875
5680		7.812500
5681		11.718750
5682		7.812500
5683		11.718750
5684		5.859375
5685		7.812500
5686		3.906250
5687		7.812500
5688		0.000000
5689		5.859375
5690		-1.953125
5691		3.906250
5692		-1.953125
5693		1.953125
5694		-3.906250
5695		0.000000
5696		-5.859375
5697		-1.953125
5698		-9.765625
5699		-3.906250
5700		-9.765625
5701		-5.859375
5702		-11.718750
5703		-7.812500
5704		-13.671875
5705		-9.765625
5706		-15.625000
5707		-11.718750
5708		-17.578125
5709		-13.671875
5710		-19.531250
5711		-15.625000
5712		-21.484375
5713		-17.578125
5714		-23.437500
5715		-19.531250
5716		-25.390625
5717		-19.531250
5718		-27.343750
5719		-23.437500
5720		-29.296875
5721		-25.390625
5722		-31.250000
5723		-25.390625
5724		-33.203125
5725		-27.343750
5726		-35.156250
5727		-29.296875
5728		-37.109375
5729		-31.250000
5730		-39.062500
5731		-33.203125
5732		-39.062500
5733		-33.203125
5734		-41.015625
5735		-37.109375
5736		-41.015625
5737		-39.062500
5738		-44.921875
5739		-39.062500
5740		-46.875000
5741		-41.015625
5742		-46.875000
5743		-42.968750
5744		-48.828125
5745		-42.968750
5746		-50.781250
5747		-44.921875
5748		-52.734375
5749		-46.875000
5750		-52.734375
5751		-48.828125
5752		-54.687500
5753		-50.781250
5754		-56.640625
5755		-52.734375
5756		-56.640625
5757		-52.734375
5758		-58.593750
5759		-52.734375
5760		-60.546875
5761		-54.687500
5762		-60.546875
5763		-56.640625
5764		-62.500000
5765		-56.640625
5766		-64.453125
5767		-58.593750
5768		-64.453125
5769		-60.546875
5770		-64.453125
5771		-62.500000
5772		-66.406250
5773		-62.500000
5774		-68.359375
5775		-62.500000
5776		-68.359375
5777		-62.500000
5778		-68.359375
5779		-64.453125
5780		-70.312500
5781		-64.453125
5782		-70.312500
5783		-66.406250
5784		-70.312500
5785		-66.406250
5786		-70.312500
5787		-68.359375
5788		-72.265625
5789		-68.359375
5790		-72.265625
5791		-70.312500
5792		-72.265625
5793		-70.312500
5794		-72.265625
5795		-70.312500
5796		-74.218750
5797		-70.312500
5798		-74.218750
5799		-70.312500
5800		-74.218750
5801		-72.265625
5802		-74.218750
5803		-72.265625
5804		-74.218750
5805		-70.312500
5806		-74.218750
5807		-72.265625
5808		-74.218750
5809		-72.265625
5810		-74.218750
5811		-72.265625
5812		-74.218750
5813		-72.265625
5814		-74.218750
5815		-72.265625
5816		-74.218750
5817		-70.312500
5818		-74.218750
5819		-70.312500
5820		-74.218750
5821		-70.312500
5822		-72.265625
5823		-70.312500
5824		-72.265625
5825		-70.312500
5826		-72.265625
5827		-70.312500
5828		-72.265625
5829		-68.359375
5830		-70.312500
5831		-68.359375
5832		-70.312500
5833		-68.359375
5834		-70.312500
5835		-66.406250
5836		-68.359375
5837		-66.406250
5838		-68.359375
5839		-64.453125
5840		-68.359375
5841		-64.453125
5842		-66.406250
5843		-64.453125
5844		-66.406250
5845		-62.500000
5846		-64.453125
5847		-62.500000
5848		-64.453125
5849		-60.546875
5850		-62.500000
5851		-60.546875
5852		-62.500000
5853		-58.593750
5854		-60.546875
5855		-58.593750
5856		-58.593750
5857		-56.640625
5858		-58.593750
5859		-54.687500
5860		-56.640625
5861		-54.687500
5862		-56.640625
5863		-52.734375
5864		-54.687500
5865		-50.781250
5866		-52.734375
5867		-50.781250
5868		-50.781250
5869		-48.828125
5870		-50.781250
5871		-46.875000
5872		-48.828125
5873		-44.921875
5874		-46.875000
5875		-42.968750
5876		-44.921875
5877		-42.968750
5878		-44.921875
5879		-41.015625
5880		-42.968750
5881		-39.062500
5882		-41.015625
5883		-37.109375
5884		-39.062500
5885		-35.156250
5886		-37.109375
5887		-33.203125
5888		-37.109375
5889		-29.296875
5890		-37.109375
5891		-27.343750
5892		-35.156250
5893		-27.343750
5894		-33.203125
5895		-25.390625
5896		-29.296875
5897		-25.390625
5898		-27.343750
5899		-23.437500
5900		-25.390625
5901		-21.484375
5902		-23.437500
5903		-19.531250
5904		-21.484375
5905		-17.578125
5906		-21.484375
5907		-13.671875
5908		-21.484375
5909		-11.718750
5910		-19.531250
5911		-9.765625
5912		-13.671875
5913		-9.765625
5914		-11.718750
5915		-9.765625
5916		-9.765625
5917		-5.859375
5918		-9.765625
5919		-5.859375
5920		-5.859375
5921		-1.953125
5922		-5.859375
5923		1.953125
5924		-5.859375
5925		3.906250
5926		-3.906250
5927		5.859375
5928		-1.953125
5929		5.859375
5930		1.953125
5931		5.859375
5932		3.906250
5933		7.812500
5934		5.859375
5935		9.765625
5936		7.812500
5937		11.718750
5938		9.765625
5939		13.671875
5940		7.812500
5941		17.578125
5942		9.765625
5943		19.531250
5944		11.718750
5945		21.484375
5946		17.578125
5947		19.531250
5948		17.578125
5949		21.484375
5950		19.531250
5951		23.437500
5952		21.484375
5953		25.390625
5954		23.437500
5955		27.343750
5956		23.437500
5957		31.250000
5958		23.437500
5959		33.203125
5960		25.390625
5961		35.156250
5962		29.296875
5963		33.203125
5964		31.250000
5965		35.156250
5966		33.203125
5967		37.109375
5968		35.156250
5969		37.109375
5970		35.156250
5971		39.062500
5972		35.156250
5973		44.921875
5974		35.156250
5975		44.921875
5976		37.109375
5977		46.875000
5978		39.062500
5979		46.875000
5980		42.968750
5981		46.875000
5982		44.921875
5983		46.875000
5984		44.921875
5985		48.828125
5986		46.875000
5987		50.781250
5988		48.828125
5989		50.781250
5990		46.875000
5991		54.687500
5992		46.875000
5993		54.687500
5994		48.828125
5995		56.640625
5996		52.734375
5997		54.687500
5998		52.734375
5999		56.640625
6000		54.687500
6001		56.640625
6002		54.687500
6003		58.593750
6004		56.640625
6005		58.593750
6006		54.687500
6007		62.500000
6008		54.687500
6009		64.453125
6010		54.687500
6011		64.453125
6012		56.640625
6013		64.453125
6014		60.546875
6015		62.500000
6016		60.546875
6017		64.453125
6018		60.546875
6019		64.453125
6020		62.500000
6021		64.453125
6022		62.500000
6023		64.453125
6024		60.546875
6025		68.359375
6026		60.546875
6027		70.312500
6028		60.546875
6029		70.312500
6030		64.453125
6031		66.406250
6032		64.453125
6033		66.406250
6034		64.453125
6035		66.406250
6036		64.453125
6037		66.406250
6038		64.453125
6039		68.359375
6040		62.500000
6041		70.312500
6042		62.500000
6043		70.312500
6044		62.500000
6045		70.312500
6046		64.453125
6047		68.359375
6048		66.406250
6049		68.359375
6050		64.453125
6051		68.359375
6052		64.453125
6053		68.359375
6054		64.453125
6055		68.359375
6056		64.453125
6057		68.359375
6058		60.546875
6059		70.312500
6060		60.546875
6061		70.312500
6062		60.546875
6063		68.359375
6064		62.500000
6065		66.406250
6066		62.500000
6067		66.406250
6068		62.500000
6069		64.453125
6070		62.500000
6071		64.453125
6072		60.546875
6073		64.453125
6074		60.546875
6075		62.500000
6076		56.640625
6077		64.453125
6078		58.593750
6079		64.453125
6080		58.593750
6081		60.546875
6082		56.640625
6083		60.546875
6084		56.640625
6085		60.546875
6086		56.640625
6087		58.593750
6088		54.687500
6089		58.593750
6090		54.687500
6091		56.640625
6092		52.734375
6093		58.593750
6094		48.828125
6095		56.640625
6096		50.781250
6097		54.687500
6098		48.828125
6099		52.734375
6100		48.828125
6101		50.781250
6102		46.875000
6103		50.781250
6104		46.875000
6105		48.828125
6106		44.921875
6107		46.875000
6108		42.968750
6109		46.875000
6110		41.015625
6111		46.875000
6112		39.062500
6113		44.921875
6114		39.062500
6115		42.968750
6116		37.109375
6117		41.015625
6118		37.109375
6119		41.015625
6120		35.156250
6121		39.062500
6122		33.203125
6123		37.109375
6124		31.250000
6125		35.156250
6126		29.296875
6127		33.203125
6128		29.296875
6129		31.250000
6130		27.343750
6131		31.250000
6132		25.390625
6133		29.296875
6134		23.437500
6135		27.343750
6136		21.484375
6137		25.390625
6138		19.531250
6139		23.437500
6140		17.578125
6141		21.484375
6142		17.578125
6143		19.531250
6144		15.625000
6145		19.531250
6146		13.671875
6147		17.578125
6148		11.718750
6149		15.625000
6150		9.765625
6151		13.671875
6152		7.812500
6153		11.718750
6154		5.859375
6155		9.765625
6156		3.906250
6157		7.812500
6158		1.953125
6159		5.859375
6160		0.000000
6161		3.906250
6162		-1.953125
6163		1.953125
6164		-3.906250
6165		1.953125
6166		-5.859375
6167		-1.953125
6168		-7.812500
6169		-3.906250
6170		-9.765625
6171		-5.859375
6172		-11.718750
6173		-7.812500
6174		-13.671875
6175		-9.765625
6176		-15.625000
6177		-11.718750
6178		-15.625000
6179		-13.671875
6180		-19.531250
6181		-15.625000
6182		-19.531250
6183		-15.625000
6184		-21.484375
6185		-17.578125
6186		-23.437500
6187		-19.531250
6188		-25.390625
6189		-23.437500
6190		-27.343750
6191		-23.437500
6192		-29.296875
6193		-25.390625
6194		-31.250000
6195		-27.343750
6196		-33.203125
6197		-29.296875
6198		-35.156250
6199		-31.250000
6200		-37.109375
6201		-33.203125
6202		-39.062500
6203		-35.156250
6204		-39.062500
6205		-37.109375
6206		-41.015625
6207		-39.062500
6208		-42.968750
6209		-39.062500
6210		-44.921875
6211		-41.015625
6212		-46.875000
6213		-42.968750
6214		-48.828125
6215		-44.921875
6216		-48.828125
6217		-44.921875
6218		-52.734375
6219		-46.875000
6220		-52.734375
6221		-48.828125
6222		-52.734375
6223		-50.781250
6224		-54.687500
6225		-50.781250
6226		-56.640625
6227		-52.734375
6228		-58.593750
6229		-52.734375
6230		-58.593750
6231		-54.687500
6232		-60.546875
6233		-56.640625
6234		-60.546875
6235		-56.640625
6236		-62.500000
6237		-58.593750
6238		-62.500000
6239		-60.546875
6240		-64.453125
6241		-60.546875
6242		-66.406250
6243		-60.546875
6244		-66.406250
6245		-62.500000
6246		-66.406250
6247		-64.453125
6248		-68.359375
6249		-64.453125
6250		-68.359375
6251		-66.406250
6252		-70.312500
6253		-66.406250
6254		-70.312500
6255		-66.406250
6256		-70.312500
6257		-68.359375
6258		-72.265625
6259		-68.359375
6260		-72.265625
6261		-68.359375
6262		-72.265625
6263		-70.312500
6264		-72.265625
6265		-70.312500
6266		-74.218750
6267		-70.312500
6268		-74.218750
6269		-70.312500
6270		-74.218750
6271		-70.312500
6272		-74.218750
6273		-72.265625
6274		-74.218750
6275		-70.312500
6276		-74.218750
6277		-70.312500
6278		-74.218750
6279		-70.312500
6280		-74.218750
6281		-72.265625
6282		-74.218750
6283		-70.312500
6284		-74.218750
6285		-70.312500
6286		-74.218750
6287		-72.265625
6288		-74.218750
6289		-72.265625
6290		-74.218750
6291		-70.312500
6292		-74.218750
6293		-68.359375
6294		-72.265625
6295		-70.312500
6296		-72.265625
6297		-68.359375
6298		-72.265625
6299		-68.359375
6300		-72.265625
6301		-68.359375
6302		-70.312500
6303		-68.359375
6304		-70.312500
6305		-68.359375
6306		-68.359375
6307		-66.406250
6308		-70.312500
6309		-64.453125
6310		-68.359375
6311		-64.453125
6312		-68.359375
6313		-64.453125
6314		-66.406250
6315		-64.453125
6316		-66.406250
6317		-62.500000
6318		-64.453125
6319		-60.546875
6320		-62.500000
6321		-60.546875
6322		-62.500000
6323		-58.593750
6324		-60.546875
6325		-58.593750
6326		-60.546875
6327		-56.640625
6328		-58.593750
6329		-54.687500
6330		-58.593750
6331		-54.687500
6332		-56.640625
6333		-52.734375
6334		-54.687500
6335		-52.734375
6336		-54.687500
6337		-50.781250
6338		-52.734375
6339		-48.828125
6340		-50.781250
6341		-46.875000
6342		-48.828125
6343		-44.921875
6344		-48.828125
6345		-44.921875
6346		-46.875000
6347		-42.968750
6348		-44.921875
6349		-41.015625
6350		-44.921875
6351		-39.062500
6352		-42.968750
6353		-37.109375
6354		-41.015625
6355		-37.109375
6356		-39.062500
6357		-35.156250
6358		-37.109375
6359		-33.203125
6360		-35.156250
6361		-31.250000
6362		-33.203125
6363		-29.296875
6364		-31.250000
6365		-27.343750
6366		-29.296875
6367		-25.390625
6368		-27.343750
6369		-25.390625
6370		-27.343750
6371		-23.437500
6372		-23.437500
6373		-21.484375
6374		-23.437500
6375		-19.531250
6376		-21.484375
6377		-17.578125
6378		-19.531250
6379		-15.625000
6380		-17.578125
6381		-13.671875
6382		-15.625000
6383		-11.718750
6384		-13.671875
6385		-9.765625
6386		-11.718750
6387		-7.812500
6388		-9.765625
6389		-5.859375
6390		-7.812500
6391		-3.906250
6392		-5.859375
6393		-1.953125
6394		-3.906250
6395		0.000000
6396		-1.953125
6397		1.953125
6398		0.000000
6399		3.906250
6400		1.953125
6401		3.906250
6402		3.906250
6403		5.859375
6404		3.906250
6405		7.812500
6406		5.859375
6407		9.765625
6408		7.812500
6409		11.718750
6410		9.765625
6411		13.671875
6412		11.718750
6413		15.625000
6414		13.671875
6415		17.578125
6416		15.625000
6417		19.531250
6418		17.578125
6419		21.484375
6420		19.531250
6421		23.437500
6422		21.484375
6423		23.437500
6424		23.437500
6425		25.390625
6426		23.437500
6427		27.343750
6428		25.390625
6429		29.296875
6430		27.343750
6431		31.250000
6432		29.296875
6433		33.203125
6434		31.250000
6435		35.156250
6436		33.203125
6437		35.156250
6438		33.203125
6439		37.109375
6440		35.156250
6441		39.062500
6442		37.109375
6443		39.062500
6444		39.062500
6445		41.015625
6446		39.062500
6447		42.968750
6448		41.015625
6449		44.921875
6450		42.968750
6451		44.921875
6452		42.968750
6453		46.875000
6454		44.921875
6455		46.875000
6456		46.875000
6457		48.828125
6458		46.875000
6459		50.781250
6460		46.875000
6461		50.781250
6462		48.828125
6463		52.734375
6464		50.781250
6465		52.734375
6466		52.734375
6467		54.687500
6468		52.734375
6469		56.640625
6470		54.687500
6471		56.640625
6472		54.687500
6473		58.593750
6474		54.687500
6475		58.593750
6476		56.640625
6477		60.546875
6478		56.640625
6479		60.546875
6480		58.593750
6481		60.546875
6482		58.593750
6483		62.500000
6484		60.546875
6485		62.500000
6486		60.546875
6487		62.500000
6488		60.546875
6489		64.453125
6490		60.546875
6491		64.453125
6492		62.500000
6493		64.453125
6494		62.500000
6495		66.406250
6496		62.500000
6497		66.406250
6498		64.453125
6499		66.406250
6500		64.453125
6501		66.406250
6502		64.453125
6503		66.406250
6504		64.453125
6505		66.406250
6506		64.453125
6507		66.406250
6508		64.453125
6509		66.406250
6510		64.453125
6511		68.359375
6512		64.453125
6513		68.359375
6514		64.453125
6515		68.359375
6516		64.453125
6517		68.359375
6518		64.453125
6519		68.359375
6520		64.453125
6521		68.359375
6522		64.453125
6523		68.359375
6524		64.453125
6525		68.359375
6526		64.453125
6527		66.406250
6528		62.500000
6529		68.359375
6530		62.500000
6531		68.359375
6532		64.453125
6533		66.406250
6534		62.500000
6535		66.406250
6536		62.500000
6537		66.406250
6538		62.500000
6539		64.453125
6540		62.500000
6541		64.453125
6542		60.546875
6543		64.453125
6544		58.593750
6545		64.453125
6546		58.593750
6547		64.453125
6548		58.593750
6549		62.500000
6550		58.593750
6551		62.500000
6552		58.593750
6553		60.546875
6554		56.640625
6555		60.546875
6556		56.640625
6557		58.593750
6558		54.687500
6559		58.593750
6560		52.734375
6561		58.593750
6562		50.781250
6563		58.593750
6564		50.781250
6565		56.640625
6566		50.781250
6567		54.687500
6568		50.781250
6569		52.734375
6570		48.828125
6571		52.734375
6572		48.828125
6573		50.781250
6574		46.875000
6575		48.828125
6576		44.921875
6577		48.828125
6578		42.968750
6579		48.828125
6580		42.968750
6581		46.875000
6582		41.015625
6583		44.921875
6584		41.015625
6585		42.968750
6586		39.062500
6587		42.968750
6588		37.109375
6589		41.015625
6590		35.156250
6591		39.062500
6592		35.156250
6593		37.109375
6594		31.250000
6595		37.109375
6596		29.296875
6597		35.156250
6598		29.296875
6599		33.203125
6600		27.343750
6601		31.250000
6602		27.343750
6603		29.296875
6604		25.390625
6605		29.296875
6606		23.437500
6607		27.343750
6608		21.484375
6609		25.390625
6610		19.531250
6611		23.437500
6612		17.578125
6613		21.484375
6614		15.625000
6615		21.484375
6616		13.671875
6617		17.578125
6618		11.718750
6619		15.625000
6620		9.765625
6621		13.671875
6622		9.765625
6623		11.718750
6624		5.859375
6625		9.765625
6626		5.859375
6627		9.765625
6628		1.953125
6629		7.812500
6630		0.000000
6631		5.859375
6632		0.000000
6633		3.906250
6634		-1.953125
6635		1.953125
6636		-3.906250
6637		0.000000
6638		-5.859375
6639		-1.953125
6640		-7.812500
6641		-3.906250
6642		-9.765625
6643		-5.859375
6644		-11.718750
6645		-7.812500
6646		-15.625000
6647		-7.812500
6648		-15.625000
6649		-11.718750
6650		-17.578125
6651		-13.671875
6652		-19.531250
6653		-15.625000
6654		-21.484375
6655		-17.578125
6656		-23.437500
6657		-19.531250
6658		-25.390625
6659		-21.484375
6660		-27.343750
6661		-23.437500
6662		-29.296875
6663		-23.437500
6664		-31.250000
6665		-25.390625
6666		-31.250000
6667		-29.296875
6668		-33.203125
6669		-29.296875
6670		-35.156250
6671		-31.250000
6672		-37.109375
6673		-33.203125
6674		-39.062500
6675		-35.156250
6676		-41.015625
6677		-37.109375
6678		-42.968750
6679		-39.062500
6680		-44.921875
6681		-39.062500
6682		-44.921875
6683		-41.015625
6684		-46.875000
6685		-42.968750
6686		-48.828125
6687		-44.921875
6688		-48.828125
6689		-46.875000
6690		-50.781250
6691		-46.875000
6692		-52.734375
6693		-48.828125
6694		-54.687500
6695		-50.781250
6696		-54.687500
6697		-50.781250
6698		-56.640625
6699		-52.734375
6700		-58.593750
6701		-54.687500
6702		-58.593750
6703		-56.640625
6704		-60.546875
6705		-56.640625
6706		-60.546875
6707		-58.593750
6708		-62.500000
6709		-60.546875
6710		-64.453125
6711		-60.546875
6712		-64.453125
6713		-60.546875
6714		-66.406250
6715		-62.500000
6716		-66.406250
6717		-64.453125
6718		-68.359375
6719		-64.453125
6720		-68.359375
6721		-66.406250
6722		-68.359375
6723		-66.406250
6724		-70.312500
6725		-66.406250
6726		-70.312500
6727		-68.359375
6728		-70.312500
6729		-68.359375
6730		-72.265625
6731		-68.359375
6732		-72.265625
6733		-70.312500
6734		-72.265625
6735		-70.312500
6736		-72.265625
6737		-70.312500
6738		-74.218750
6739		-70.312500
6740		-74.218750
6741		-72.265625
6742		-74.218750
6743		-72.265625
6744		-74.218750
6745		-72.265625
6746		-74.218750
6747		-72.265625
6748		-74.218750
6749		-72.265625
6750		-74.218750
6751		-72.265625
6752		-74.218750
6753		-72.265625
6754		-74.218750
6755		-72.265625
6756		-74.218750
6757		-72.265625
6758		-74.218750
6759		-72.265625
6760		-74.218750
6761		-72.265625
6762		-74.218750
6763		-70.312500
6764		-74.218750
6765		-70.312500
6766		-72.265625
6767		-70.312500
6768		-72.265625
6769		-70.312500
6770		-72.265625
6771		-68.359375
6772		-72.265625
6773		-68.359375
6774		-70.312500
6775		-68.359375
6776		-70.312500
6777		-68.359375
6778		-70.312500
6779		-66.406250
6780		-68.359375
6781		-66.406250
6782		-68.359375
6783		-66.406250
6784		-66.406250
6785		-64.453125
6786		-66.406250
6787		-64.453125
6788		-66.406250
6789		-62.500000
6790		-64.453125
6791		-60.546875
6792		-62.500000
6793		-60.546875
6794		-62.500000
6795		-58.593750
6796		-60.546875
6797		-58.593750
6798		-60.546875
6799		-56.640625
6800		-58.593750
6801		-56.640625
6802		-58.593750
6803		-54.687500
6804		-56.640625
6805		-52.734375
6806		-54.687500
6807		-52.734375
6808		-54.687500
6809		-50.781250
6810		-52.734375
6811		-48.828125
6812		-50.781250
6813		-46.875000
6814		-48.828125
6815		-46.875000
6816		-48.828125
6817		-44.921875
6818		-46.875000
6819		-42.968750
6820		-44.921875
6821		-41.015625
6822		-42.968750
6823		-39.062500
6824		-41.015625
6825		-39.062500
6826		-39.062500
6827		-37.109375
6828		-39.062500
6829		-35.156250
6830		-37.109375
6831		-33.203125
6832		-35.156250
6833		-31.250000
6834		-33.203125
6835		-29.296875
6836		-31.250000
6837		-27.343750
6838		-29.296875
6839		-25.390625
6840		-27.343750
6841		-23.437500
6842		-25.390625
6843		-23.437500
6844		-25.390625
6845		-21.484375
6846		-21.484375
6847		-19.531250
6848		-21.484375
6849		-17.578125
6850		-19.531250
6851		-15.625000
6852		-17.578125
6853		-13.671875
6854		-15.625000
6855		-11.718750
6856		-13.671875
6857		-9.765625
6858		-11.718750
6859		-7.812500
6860		-9.765625
6861		-5.859375
6862		-7.812500
6863		-3.906250
6864		-5.859375
6865		-1.953125
6866		-3.906250
6867		0.000000
6868		-1.953125
6869		1.953125
6870		0.000000
6871		3.906250
6872		1.953125
6873		5.859375
6874		3.906250
6875		5.859375
6876		3.906250
6877		7.812500
6878		7.812500
6879		9.765625
6880		7.812500
6881		11.718750
6882		9.765625
6883		13.671875
6884		11.718750
6885		15.625000
6886		13.671875
6887		17.578125
6888		15.625000
6889		19.531250
6890		17.578125
6891		21.484375
6892		19.531250
6893		23.437500
6894		21.484375
6895		23.437500
6896		23.437500
6897		27.343750
6898		23.437500
6899		27.343750
6900		25.390625
6901		29.296875
6902		27.343750
6903		31.250000
6904		29.296875
6905		33.203125
6906		31.250000
6907		33.203125
6908		33.203125
6909		35.156250
6910		33.203125
6911		37.109375
6912		35.156250
6913		39.062500
6914		37.109375
6915		39.062500
6916		39.062500
6917		41.015625
6918		39.062500
6919		42.968750
6920		41.015625
6921		44.921875
6922		42.968750
6923		44.921875
6924		42.968750
6925		46.875000
6926		44.921875
6927		48.828125
6928		46.875000
6929		48.828125
6930		46.875000
6931		50.781250
6932		48.828125
6933		50.781250
6934		48.828125
6935		52.734375
6936		50.781250
6937		52.734375
6938		52.734375
6939		54.687500
6940		52.734375
6941		56.640625
6942		54.687500
6943		56.640625
6944		54.687500
6945		56.640625
6946		54.687500
6947		58.593750
6948		56.640625
6949		58.593750
6950		56.640625
6951		60.546875
6952		58.593750
6953		60.546875
6954		58.593750
6955		62.500000
6956		60.546875
6957		62.500000
6958		60.546875
6959		62.500000
6960		60.546875
6961		64.453125
6962		60.546875
6963		64.453125
6964		62.500000
6965		64.453125
6966		62.500000
6967		64.453125
6968		62.500000
6969		66.406250
6970		64.453125
6971		66.406250
6972		64.453125
6973		66.406250
6974		64.453125
6975		66.406250
6976		64.453125
6977		66.406250
6978		64.453125
6979		66.406250
6980		64.453125
6981		66.406250
6982		64.453125
6983		66.406250
6984		64.453125
6985		68.359375
6986		64.453125
6987		66.406250
6988		64.453125
6989		68.359375
6990		64.453125
6991		68.359375
6992		64.453125
6993		68.359375
6994		64.453125
6995		68.359375
6996		64.453125
6997		66.406250
6998		64.453125
6999		66.406250
7000		64.453125
7001		66.406250
7002		64.453125
7003		66.406250
7004		62.500000
7005		66.406250
7006		62.500000
7007		66.406250
7008		62.500000
7009		64.453125
7010		62.500000
7011		64.453125
7012		60.546875
7013		64.453125
7014		60.546875
7015		62.500000
7016		60.546875
7017		64.453125
7018		60.546875
7019		62.500000
7020		58.593750
7021		60.546875
7022		58.593750
7023		60.546875
7024		56.640625
7025		60.546875
7026		56.640625
7027		60.546875
7028		54.687500
7029		58.593750
7030		54.687500
7031		56.640625
7032		52.734375
7033		56.640625
7034		52.734375
7035		56.640625
7036		50.781250
7037		54.687500
7038		50.781250
7039		54.687500
7040		48.828125
7041		52.734375
7042		48.828125
7043		50.781250
7044		46.875000
7045		50.781250
7046		44.921875
7047		48.828125
7048		44.921875
7049		48.828125
7050		42.968750
7051		46.875000
7052		42.968750
7053		44.921875
7054		41.015625
7055		42.968750
7056		39.062500
7057		42.968750
7058		37.109375
7059		41.015625
7060		37.109375
7061		39.062500
7062		35.156250
7063		39.062500
7064		33.203125
7065		37.109375
7066		31.250000
7067		35.156250
7068		31.250000
7069		33.203125
7070		29.296875
7071		33.203125
7072		27.343750
7073		31.250000
7074		25.390625
7075		29.296875
7076		23.437500
7077		27.343750
7078		21.484375
7079		25.390625
7080		19.531250
7081		23.437500
7082		19.531250
7083		21.484375
7084		17.578125
7085		19.531250
7086		15.625000
7087		17.578125
7088		13.671875
7089		17.578125
7090		11.718750
7091		15.625000
7092		9.765625
7093		13.671875
7094		7.812500
7095		11.718750
7096		5.859375
7097		9.765625
7098		3.906250
7099		7.812500
7100		1.953125
7101		5.859375
7102		0.000000
7103		3.906250
7104		-1.953125
7105		1.953125
7106		-3.906250
7107		0.000000
7108		-5.859375
7109		-1.953125
7110		-7.812500
7111		-3.906250
7112		-9.765625
7113		-5.859375
7114		-11.718750
7115		-7.812500
7116		-13.671875
7117		-9.765625
7118		-15.625000
7119		-11.718750
7120		-17.578125
7121		-13.671875
7122		-17.578125
7123		-15.625000
7124		-19.531250
7125		-17.578125
7126		-21.484375
7127		-17.578125
7128		-23.437500
7129		-19.531250
7130		-25.390625
7131		-21.484375
7132		-27.343750
7133		-23.437500
7134		-29.296875
7135		-25.390625
7136		-31.250000
7137		-27.343750
7138		-33.203125
7139		-29.296875
7140		-35.156250
7141		-31.250000
7142		-37.109375
7143		-33.203125
7144		-37.109375
7145		-35.156250
7146		-41.015625
7147		-37.109375
7148		-41.015625
7149		-37.109375
7150		-42.968750
7151		-39.062500
7152		-44.921875
7153		-41.015625
7154		-46.875000
7155		-42.968750
7156		-48.828125
7157		-44.921875
7158		-48.828125
7159		-46.875000
7160		-50.781250
7161		-46.875000
7162		-52.734375
7163		-48.828125
7164		-54.687500
7165		-50.781250
7166		-54.687500
7167		-50.781250
7168		-56.640625
7169		-52.734375
7170		-58.593750
7171		-54.687500
7172		-58.593750
7173		-56.640625
7174		-60.546875
7175		-56.640625
7176		-60.546875
7177		-58.593750
7178		-62.500000
7179		-58.593750
7180		-62.500000
7181		-60.546875
7182		-64.453125
7183		-62.500000
7184		-66.406250
7185		-62.500000
7186		-66.406250
7187		-64.453125
7188		-68.359375
7189		-64.453125
7190		-68.359375
7191		-64.453125
7192		-70.312500
7193		-66.406250
7194		-70.312500
7195		-66.406250
7196		-70.312500
7197		-68.359375
7198		-72.265625
7199		-68.359375
7200		-72.265625
7201		-68.359375
7202		-72.265625
7203		-70.312500
7204		-72.265625
7205		-70.312500
7206		-72.265625
7207		-70.312500
7208		-74.218750
7209		-70.312500
7210		-74.218750
7211		-70.312500
7212		-74.218750
7213		-72.265625
7214		-74.218750
7215		-72.265625
7216		-74.218750
7217		-72.265625
7218		-74.218750
7219		-72.265625
7220		-74.218750
7221		-72.265625
7222		-74.218750
7223		-72.265625
7224		-74.218750
7225		-72.265625
7226		-74.218750
7227		-72.265625
7228		-74.218750
7229		-72.265625
7230		-74.218750
7231		-72.265625
7232		-74.218750
7233		-72.265625
7234		-74.218750
7235		-72.265625
7236		-74.218750
7237		-70.312500
7238		-74.218750
7239		-70.312500
7240		-72.265625
7241		-70.312500
7242		-72.265625
7243		-70.312500
7244		-72.265625
7245		-68.359375
7246		-70.312500
7247		-68.359375
7248		-70.312500
7249		-68.359375
7250		-70.312500
7251		-66.406250
7252		-68.359375
7253		-66.406250
7254		-68.359375
7255		-66.406250
7256		-68.359375
7257		-64.453125
7258		-66.406250
7259		-64.453125
7260		-66.406250
7261		-62.500000
7262		-64.453125
7263		-62.500000
7264		-64.453125
7265		-60.546875
7266		-62.500000
7267		-60.546875
7268		-62.500000
7269		-58.593750
7270		-60.546875
7271		-56.640625
7272		-58.593750
7273		-56.640625
7274		-58.593750
7275		-54.687500
7276		-56.640625
7277		-52.734375
7278		-54.687500
7279		-52.734375
7280		-54.687500
7281		-50.781250
7282		-52.734375
7283		-48.828125
7284		-50.781250
7285		-46.875000
7286		-48.828125
7287		-46.875000
7288		-48.828125
7289		-44.921875
7290		-46.875000
7291		-42.968750
7292		-44.921875
7293		-41.015625
7294		-42.968750
7295		-39.062500
7296		-41.015625
7297		-39.062500
7298		-39.062500
7299		-37.109375
7300		-39.062500
7301		-35.156250
7302		-37.109375
7303		-33.203125
7304		-35.156250
7305		-31.250000
7306		-33.203125
7307		-29.296875
7308		-31.250000
7309		-27.343750
7310		-29.296875
7311		-25.390625
7312		-27.343750
7313		-23.437500
7314		-25.390625
7315		-23.437500
7316		-25.390625
7317		-21.484375
7318		-21.484375
7319		-19.531250
7320		-19.531250
7321		-17.578125
7322		-19.531250
7323		-15.625000
7324		-17.578125
7325		-13.671875
7326		-15.625000
7327		-11.718750
7328		-13.671875
7329		-9.765625
7330		-11.718750
7331		-7.812500
7332		-9.765625
7333		-5.859375
7334		-7.812500
7335		-3.906250
7336		-5.859375
7337		-1.953125
7338		-3.906250
7339		0.000000
7340		-1.953125
7341		1.953125
7342		0.000000
7343		3.906250
7344		1.953125
7345		5.859375
7346		3.906250
7347		7.812500
7348		5.859375
7349		9.765625
7350		7.812500
7351		11.718750
7352		7.812500
7353		11.718750
7354		9.765625
7355		13.671875
7356		11.718750
7357		15.625000
7358		13.671875
7359		17.578125
7360		15.625000
7361		19.531250
7362		17.578125
7363		21.484375
7364		19.531250
7365		23.437500
7366		21.484375
7367		25.390625
7368		23.437500
7369		27.343750
7370		23.437500
7371		27.343750
7372		25.390625
7373		29.296875
7374		27.343750
7375		31.250000
7376		29.296875
7377		33.203125
7378		31.250000
7379		33.203125
7380		33.203125
7381		35.156250
7382		33.203125
7383		37.109375
7384		35.156250
7385		39.062500
7386		37.109375
7387		41.015625
7388		39.062500
7389		41.015625
7390		39.062500
7391		42.968750
7392		41.015625
7393		44.921875
7394		42.968750
7395		44.921875
7396		42.968750
7397		46.875000
7398		44.921875
7399		46.875000
7400		44.921875
7401		48.828125
7402		46.875000
7403		50.781250
7404		48.828125
7405		50.781250
7406		48.828125
7407		52.734375
7408		50.781250
7409		54.687500
7410		50.781250
7411		54.687500
7412		52.734375
7413		56.640625
7414		52.734375
7415		56.640625
7416		54.687500
7417		56.640625
7418		54.687500
7419		58.593750
7420		56.640625
7421		58.593750
7422		56.640625
7423		60.546875
7424		58.593750
7425		60.546875
7426		58.593750
7427		60.546875
7428		60.546875
7429		62.500000
7430		60.546875
7431		62.500000
7432		60.546875
7433		62.500000
7434		60.546875
7435		64.453125
7436		62.500000
7437		64.453125
7438		62.500000
7439		64.453125
7440		62.500000
7441		64.453125
7442		62.500000
7443		66.406250
7444		62.500000
7445		66.406250
7446		64.453125
7447		66.406250
7448		64.453125
7449		66.406250
7450		64.453125
7451		66.406250
7452		64.453125
7453		66.406250
7454		64.453125
7455		66.406250
7456		64.453125
7457		66.406250
7458		64.453125
7459		66.406250
7460		64.453125
7461		66.406250
7462		64.453125
7463		66.406250
7464		64.453125
7465		68.359375
7466		64.453125
7467		66.406250
7468		64.453125
7469		66.406250
7470		64.453125
7471		66.406250
7472		64.453125
7473		66.406250
7474		62.500000
7475		66.406250
7476		62.500000
7477		64.453125
7478		62.500000
7479		64.453125
7480		62.500000
7481		64.453125
7482		60.546875
7483		64.453125
7484		60.546875
7485		64.453125
7486		60.546875
7487		62.500000
7488		60.546875
7489		62.500000
7490		58.593750
7491		62.500000
7492		58.593750
7493		60.546875
7494		56.640625
7495		60.546875
7496		56.640625
7497		58.593750
7498		54.687500
7499		58.593750
7500		54.687500
7501		58.593750
7502		54.687500
7503		56.640625
7504		52.734375
7505		56.640625
7506		52.734375
7507		54.687500
7508		50.781250
7509		54.687500
7510		48.828125
7511		52.734375
7512		48.828125
7513		50.781250
7514		46.875000
7515		50.781250
7516		46.875000
7517		48.828125
7518		44.921875
7519		48.828125
7520		42.968750
7521		46.875000
7522		42.968750
7523		44.921875
7524		41.015625
7525		44.921875
7526		39.062500
7527		42.968750
7528		39.062500
7529		41.015625
7530		37.109375
7531		41.015625
7532		35.156250
7533		39.062500
7534		33.203125
7535		37.109375
7536		31.250000
7537		37.109375
7538		31.250000
7539		35.156250
7540		27.343750
7541		33.203125
7542		27.343750
7543		31.250000
7544		23.437500
7545		29.296875
7546		23.437500
7547		27.343750
7548		23.437500
7549		25.390625
7550		21.484375
7551		25.390625
7552		19.531250
7553		23.437500
7554		17.578125
7555		21.484375
7556		13.671875
7557		19.531250
7558		13.671875
7559		17.578125
7560		11.718750
7561		15.625000
7562		9.765625
7563		15.625000
7564		5.859375
7565		13.671875
7566		5.859375
7567		9.765625
7568		3.906250
7569		7.812500
7570		1.953125
7571		5.859375
7572		1.953125
7573		3.906250
7574		-1.953125
7575		3.906250
7576		-3.906250
7577		1.953125
7578		-5.859375
7579		0.000000
7580		-5.859375
7581		-1.953125
7582		-9.765625
7583		-1.953125
7584		-9.765625
7585		-5.859375
7586		-13.671875
7587		-7.812500
7588		-15.625000
7589		-9.765625
7590		-17.578125
7591		-11.718750
7592		-17.578125
7593		-13.671875
7594		-19.531250
7595		-15.625000
7596		-21.484375
7597		-17.578125
7598		-25.390625
7599		-17.578125
7600		-25.390625
7601		-21.484375
7602		-27.343750
7603		-23.437500
7604		-29.296875
7605		-23.437500
7606		-33.203125
7607		-23.437500
7608		-31.250000
7609		-27.343750
7610		-33.203125
7611		-29.296875
7612		-35.156250
7613		-31.250000
7614		-37.109375
7615		-33.203125
7616		-39.062500
7617		-35.156250
7618		-41.015625
7619		-37.109375
7620		-42.968750
7621		-39.062500
7622		-46.875000
7623		-39.062500
7624		-46.875000
7625		-41.015625
7626		-48.828125
7627		-42.968750
7628		-52.734375
7629		-44.921875
7630		-52.734375
7631		-42.968750
7632		-54.687500
7633		-44.921875
7634		-52.734375
7635		-50.781250
7636		-54.687500
7637		-50.781250
7638		-56.640625
7639		-52.734375
7640		-58.593750
7641		-50.781250
7642		-58.593750
7643		-54.687500
7644		-60.546875
7645		-56.640625
7646		-64.453125
7647		-54.687500
7648		-64.453125
7649		-56.640625
7650		-62.500000
7651		-60.546875
7652		-64.453125
7653		-60.546875
7654		-66.406250
7655		-62.500000
7656		-68.359375
7657		-60.546875
7658		-68.359375
7659		-62.500000
7660		-68.359375
7661		-64.453125
7662		-72.265625
7663		-62.500000
7664		-72.265625
7665		-64.453125
7666		-72.265625
7667		-64.453125
7668		-70.312500
7669		-68.359375
7670		-74.218750
7671		-68.359375
7672		-76.171875
7673		-68.359375
7674		-74.218750
7675		-66.406250
7676		-74.218750
7677		-70.312500
7678		-74.218750
7679		-70.312500
7680		-76.171875
7681		-68.359375
7682		-76.171875
7683		-68.359375
7684		-74.218750
7685		-72.265625
7686		-74.218750
7687		-72.265625
7688		-76.171875
7689		-70.312500
7690		-78.125000
7691		-70.312500
7692		-76.171875
7693		-72.265625
7694		-74.218750
7695		-72.265625
7696		-78.125000
7697		-70.312500
7698		-78.125000
7699		-68.359375
7700		-78.125000
7701		-70.312500
7702		-74.218750
7703		-72.265625
7704		-76.171875
7705		-70.312500
7706		-76.171875
7707		-68.359375
7708		-76.171875
7709		-70.312500
7710		-74.218750
7711		-70.312500
7712		-74.218750
7713		-68.359375
7714		-76.171875
7715		-66.406250
7716		-74.218750
7717		-66.406250
7718		-70.312500
7719		-68.359375
7720		-70.312500
7721		-68.359375
7722		-72.265625
7723		-64.453125
7724		-70.312500
7725		-64.453125
7726		-68.359375
7727		-64.453125
7728		-66.406250
7729		-64.453125
7730		-68.359375
7731		-60.546875
7732		-68.359375
7733		-58.593750
7734		-64.453125
7735		-60.546875
7736		-62.500000
7737		-60.546875
7738		-62.500000
7739		-58.593750
7740		-62.500000
7741		-54.687500
7742		-60.546875
7743		-56.640625
7744		-58.593750
7745		-54.687500
7746		-58.593750
7747		-50.781250
7748		-58.593750
7749		-50.781250
7750		-56.640625
7751		-48.828125
7752		-52.734375
7753		-50.781250
7754		-52.734375
7755		-46.875000
7756		-52.734375
7757		-44.921875
7758		-52.734375
7759		-44.921875
7760		-46.875000
7761		-44.921875
7762		-46.875000
7763		-42.968750
7764		-46.875000
7765		-37.109375
7766		-44.921875
7767		-37.109375
7768		-41.015625
7769		-37.109375
7770		-39.062500
7771		-35.156250
7772		-37.109375
7773		-33.203125
7774		-39.062500
7775		-29.296875
7776		-37.109375
7777		-29.296875
7778		-33.203125
7779		-29.296875
7780		-33.203125
7781		-23.437500
7782		-31.250000
7783		-23.437500
7784		-29.296875
7785		-21.484375
7786		-25.390625
7787		-21.484375
7788		-23.437500
7789		-19.531250
7790		-23.437500
7791		-15.625000
7792		-21.484375
7793		-15.625000
7794		-17.578125
7795		-13.671875
7796		-15.625000
7797		-9.765625
7798		-17.578125
7799		-7.812500
7800		-15.625000
7801		-5.859375
7802		-9.765625
7803		-5.859375
7804		-7.812500
7805		-5.859375
7806		-7.812500
7807		-1.953125
7808		-7.812500
7809		0.000000
7810		-3.906250
7811		0.000000
7812		-1.953125
7813		3.906250
7814		0.000000
7815		3.906250
7816		1.953125
7817		9.765625
7818		3.906250
7819		7.812500
7820		5.859375
7821		9.765625
7822		7.812500
7823		11.718750
7824		7.812500
7825		15.625000
7826		9.765625
7827		15.625000
7828		13.671875
7829		17.578125
7830		13.671875
7831		19.531250
7832		17.578125
7833		19.531250
7834		19.531250
7835		21.484375
7836		19.531250
7837		23.437500
7838		21.484375
7839		25.390625
7840		23.437500
7841		27.343750
7842		23.437500
7843		29.296875
7844		25.390625
7845		29.296875
7846		29.296875
7847		33.203125
7848		27.343750
7849		35.156250
7850		31.250000
7851		35.156250
7852		33.203125
7853		37.109375
7854		35.156250
7855		39.062500
7856		35.156250
7857		39.062500
7858		37.109375
7859		41.015625
7860		39.062500
7861		42.968750
7862		41.015625
7863		42.968750
7864		41.015625
7865		44.921875
7866		42.968750
7867		46.875000
7868		42.968750
7869		46.875000
7870		44.921875
7871		48.828125
7872		46.875000
7873		50.781250
7874		48.828125
7875		50.781250
7876		48.828125
7877		52.734375
7878		50.781250
7879		52.734375
7880		50.781250
7881		54.687500
7882		52.734375
7883		54.687500
7884		52.734375
7885		56.640625
7886		54.687500
7887		56.640625
7888		54.687500
7889		58.593750
7890		54.687500
7891		58.593750
7892		56.640625
7893		60.546875
7894		56.640625
7895		62.500000
7896		56.640625
7897		62.500000
7898		58.593750
7899		62.500000
7900		58.593750
7901		62.500000
7902		60.546875
7903		62.500000
7904		60.546875
7905		62.500000
7906		60.546875
7907		64.453125
7908		60.546875
7909		66.406250
7910		60.546875
7911		66.406250
7912		62.500000
7913		66.406250
7914		62.500000
7915		66.406250
7916		62.500000
7917		68.359375
7918		62.500000
7919		68.359375
7920		64.453125
7921		66.406250
7922		62.500000
7923		66.406250
7924		62.500000
7925		68.359375
7926		64.453125
7927		68.359375
7928		62.500000
7929		68.359375
7930		62.500000
7931		68.359375
7932		62.500000
7933		68.359375
7934		62.500000
7935		68.359375
7936		64.453125
7937		66.406250
7938		64.453125
7939		66.406250
7940		62.500000
7941		66.406250
7942		62.500000
7943		66.406250
7944		62.500000
7945		66.406250
7946		60.546875
7947		66.406250
7948		60.546875
7949		66.406250
7950		60.546875
7951		66.406250
7952		60.546875
7953		64.453125
7954		60.546875
7955		64.453125
7956		58.593750
7957		62.500000
7958		58.593750
7959		64.453125
7960		58.593750
7961		62.500000
7962		56.640625
7963		62.500000
7964		56.640625
7965		60.546875
7966		56.640625
7967		60.546875
7968		54.687500
7969		60.546875
7970		54.687500
7971		58.593750
7972		54.687500
7973		56.640625
7974		52.734375
7975		56.640625
7976		52.734375
7977		54.687500
7978		50.781250
7979		54.687500
7980		48.828125
7981		54.687500
7982		48.828125
7983		52.734375
7984		46.875000
7985		50.781250
7986		46.875000
7987		50.781250
7988		44.921875
7989		48.828125
7990		44.921875
7991		48.828125
7992		42.968750
7993		46.875000
7994		41.015625
7995		44.921875
7996		39.062500
7997		44.921875
7998		39.062500
7999		42.968750
8000		37.109375
8001		42.968750
8002		35.156250
8003		41.015625
8004		35.156250
8005		37.109375
8006		33.203125
8007		37.109375
8008		31.250000
8009		35.156250
8010		29.296875
8011		33.203125
8012		25.390625
8013		31.250000
8014		25.390625
8015		31.250000
8016		23.437500
8017		29.296875
8018		21.484375
8019		27.343750
8020		21.484375
8021		25.390625
8022		19.531250
8023		23.437500
8024		17.578125
8025		21.484375
8026		15.625000
8027		19.531250
8028		13.671875
8029		19.531250
8030		11.718750
8031		17.578125
8032		11.718750
8033		15.625000
8034		9.765625
8035		13.671875
8036		7.812500
8037		11.718750
8038		5.859375
8039		9.765625
8040		1.953125
8041		7.812500
8042		1.953125
8043		5.859375
8044		0.000000
8045		3.906250
8046		-3.906250
8047		1.953125
8048		-3.906250
8049		0.000000
8050		-5.859375
8051		-1.953125
8052		-7.812500
8053		-1.953125
8054		-9.765625
8055		-5.859375
8056		-11.718750
8057		-7.812500
8058		-13.671875
8059		-9.765625
8060		-15.625000
8061		-11.718750
8062		-17.578125
8063		-13.671875
8064		-19.531250
8065		-13.671875
8066		-21.484375
8067		-17.578125
8068		-23.437500
8069		-19.531250
8070		-23.437500
8071		-21.484375
8072		-25.390625
8073		-21.484375
8074		-27.343750
8075		-23.437500
8076		-29.296875
8077		-25.390625
8078		-31.250000
8079		-27.343750
8080		-33.203125
8081		-29.296875
8082		-35.156250
8083		-31.250000
8084		-37.109375
8085		-33.203125
8086		-39.062500
8087		-35.156250
8088		-39.062500
8089		-37.109375
8090		-41.015625
8091		-39.062500
8092		-42.968750
8093		-39.062500
8094		-44.921875
8095		-41.015625
8096		-46.875000
8097		-42.968750
8098		-48.828125
8099		-42.968750
8100		-50.781250
8101		-46.875000
8102		-50.781250
8103		-48.828125
8104		-52.734375
8105		-48.828125
8106		-54.687500
8107		-50.781250
8108		-56.640625
8109		-52.734375
8110		-56.640625
8111		-52.734375
8112		-58.593750
8113		-54.687500
8114		-60.546875
8115		-54.687500
8116		-60.546875
8117		-56.640625
8118		-62.500000
8119		-58.593750
8120		-62.500000
8121		-60.546875
8122		-64.453125
8123		-60.546875
8124		-66.406250
8125		-62.500000
8126		-66.406250
8127		-62.500000
8128		-66.406250
8129		-64.453125
8130		-68.359375
8131		-64.453125
8132		-68.359375
8133		-66.406250
8134		-70.312500
8135		-66.406250
8136		-70.312500
8137		-66.406250
8138		-70.312500
8139		-68.359375
8140		-72.265625
8141		-68.359375
8142		-72.265625
8143		-70.312500
8144		-72.265625
8145		-70.312500
8146		-74.218750
8147		-70.312500
8148		-74.218750
8149		-70.312500
8150		-74.218750
8151		-70.312500
8152		-76.171875
8153		-72.265625
8154		-74.218750
8155		-72.265625
8156		-74.218750
8157		-72.265625
8158		-76.171875
8159		-72.265625
8160		-76.171875
8161		-72.265625
8162		-76.171875
8163		-72.265625
8164		-76.171875
8165		-72.265625
8166		-76.171875
8167		-72.265625
8168		-76.171875
8169		-72.265625
8170		-76.171875
8171		-72.265625
8172		-76.171875
8173		-72.265625
8174		-74.218750
8175		-72.265625
8176		-76.171875
8177		-72.265625
8178		-74.218750
8179		-70.312500
8180		-74.218750
8181		-70.312500
8182		-74.218750
8183		-70.312500
8184		-72.265625
8185		-70.312500
8186		-72.265625
8187		-68.359375
8188		-72.265625
8189		-68.359375
8190		-70.312500
8191		-68.359375
8192		-72.265625
8193		-68.359375
8194		-70.312500
8195		-66.406250
8196		-68.359375
8197		-66.406250
8198		-68.359375
8199		-64.453125
8200		-66.406250
8201		-64.453125
8202		-66.406250
8203		-62.500000
8204		-64.453125
8205		-62.500000
8206		-64.453125
8207		-60.546875
8208		-62.500000
8209		-58.593750
8210		-62.500000
8211		-58.593750
8212		-60.546875
8213		-56.640625
8214		-60.546875
8215		-56.640625
8216		-58.593750
8217		-54.687500
8218		-56.640625
8219		-54.687500
8220		-56.640625
8221		-50.781250
8222		-54.687500
8223		-50.781250
8224		-52.734375
8225		-48.828125
8226		-52.734375
8227		-46.875000
8228		-50.781250
8229		-46.875000
8230		-48.828125
8231		-44.921875
8232		-46.875000
8233		-42.968750
8234		-46.875000
8235		-41.015625
8236		-44.921875
8237		-41.015625
8238		-42.968750
8239		-39.062500
8240		-41.015625
8241		-37.109375
8242		-39.062500
8243		-35.156250
8244		-37.109375
8245		-33.203125
8246		-37.109375
8247		-31.250000
8248		-33.203125
8249		-29.296875
8250		-31.250000
8251		-27.343750
8252		-31.250000
8253		-25.390625
8254		-29.296875
8255		-25.390625
8256		-27.343750
8257		-23.437500
8258		-25.390625
8259		-21.484375
8260		-23.437500
8261		-19.531250
8262		-21.484375
8263		-17.578125
8264		-19.531250
8265		-15.625000
8266		-17.578125
8267		-13.671875
8268		-15.625000
8269		-11.718750
8270		-13.671875
8271		-9.765625
8272		-11.718750
8273		-7.812500
8274		-9.765625
8275		-5.859375
8276		-7.812500
8277		-3.906250
8278		-5.859375
8279		-1.953125
8280		-3.906250
8281		0.000000
8282		-1.953125
8283		1.953125
8284		-1.953125
8285		1.953125
8286		1.953125
8287		5.859375
8288		1.953125
8289		7.812500
8290		5.859375
8291		7.812500
8292		5.859375
8293		9.765625
8294		7.812500
8295		11.718750
8296		9.765625
8297		13.671875
8298		11.718750
8299		15.625000
8300		13.671875
8301		17.578125
8302		15.625000
8303		19.531250
8304		17.578125
8305		21.484375
8306		19.531250
8307		23.437500
8308		21.484375
8309		23.437500
8310		21.484375
8311		25.390625
8312		23.437500
8313		27.343750
8314		25.390625
8315		29.296875
8316		27.343750
8317		31.250000
8318		27.343750
8319		33.203125
8320		31.250000
8321		35.156250
8322		31.250000
8323		35.156250
8324		33.203125
8325		37.109375
8326		35.156250
8327		39.062500
8328		37.109375
8329		41.015625
8330		37.109375
8331		41.015625
8332		39.062500
8333		42.968750
8334		41.015625
8335		44.921875
8336		42.968750
8337		44.921875
8338		42.968750
8339		46.875000
8340		44.921875
8341		46.875000
8342		44.921875
8343		48.828125
8344		46.875000
8345		50.781250
8346		46.875000
8347		50.781250
8348		48.828125
8349		52.734375
8350		50.781250
8351		52.734375
8352		50.781250
8353		54.687500
8354		52.734375
8355		56.640625
8356		52.734375
8357		56.640625
8358		54.687500
8359		56.640625
8360		54.687500
8361		58.593750
8362		54.687500
8363		58.593750
8364		56.640625
8365		60.546875
8366		56.640625
8367		60.546875
8368		58.593750
8369		60.546875
8370		58.593750
8371		62.500000
8372		58.593750
8373		62.500000
8374		60.546875
8375		62.500000
8376		60.546875
8377		64.453125
8378		60.546875
8379		64.453125
8380		60.546875
8381		64.453125
8382		62.500000
8383		64.453125
8384		62.500000
8385		64.453125
8386		62.500000
8387		66.406250
8388		62.500000
8389		66.406250
8390		62.500000
8391		66.406250
8392		62.500000
8393		66.406250
8394		62.500000
8395		66.406250
8396		64.453125
8397		66.406250
8398		64.453125
8399		66.406250
8400		62.500000
8401		68.359375
8402		64.453125
8403		66.406250
8404		64.453125
8405		66.406250
8406		62.500000
8407		68.359375
8408		64.453125
8409		66.406250
8410		62.500000
8411		66.406250
8412		62.500000
8413		66.406250
8414		62.500000
8415		66.406250
8416		62.500000
8417		64.453125
8418		62.500000
8419		64.453125
8420		62.500000
8421		64.453125
8422		60.546875
8423		64.453125
8424		60.546875
8425		62.500000
8426		60.546875
8427		62.500000
8428		58.593750
8429		62.500000
8430		58.593750
8431		62.500000
8432		58.593750
8433		60.546875
8434		56.640625
8435		60.546875
8436		56.640625
8437		60.546875
8438		56.640625
8439		58.593750
8440		54.687500
8441		58.593750
8442		54.687500
8443		56.640625
8444		52.734375
8445		56.640625
8446		50.781250
8447		54.687500
8448		50.781250
8449		54.687500
8450		48.828125
8451		54.687500
8452		48.828125
8453		52.734375
8454		46.875000
8455		50.781250
8456		46.875000
8457		50.781250
8458		44.921875
8459		48.828125
8460		42.968750
8461		46.875000
8462		42.968750
8463		46.875000
8464		41.015625
8465		44.921875
8466		41.015625
8467		42.968750
8468		39.062500
8469		42.968750
8470		37.109375
8471		41.015625
8472		35.156250
8473		39.062500
8474		35.156250
8475		39.062500
8476		33.203125
8477		37.109375
8478		31.250000
8479		37.109375
8480		31.250000
8481		33.203125
8482		29.296875
8483		33.203125
8484		25.390625
8485		31.250000
8486		25.390625
8487		29.296875
8488		23.437500
8489		27.343750
8490		21.484375
8491		25.390625
8492		19.531250
8493		23.437500
8494		19.531250
8495		23.437500
8496		17.578125
8497		21.484375
8498		15.625000
8499		19.531250
8500		13.671875
8501		17.578125
8502		11.718750
8503		15.625000
8504		9.765625
8505		13.671875
8506		7.812500
8507		11.718750
8508		5.859375
8509		9.765625
8510		3.906250
8511		7.812500
8512		1.953125
8513		5.859375
8514		0.000000
8515		3.906250
8516		-1.953125
8517		3.906250
8518		-3.906250
8519		0.000000
8520		-3.906250
8521		-1.953125
8522		-7.812500
8523		-1.953125
8524		-7.812500
8525		-3.906250
8526		-11.718750
8527		-7.812500
8528		-13.671875
8529		-7.812500
8530		-15.625000
8531		-9.765625
8532		-15.625000
8533		-11.718750
8534		-17.578125
8535		-13.671875
8536		-19.531250
8537		-15.625000
8538		-21.484375
8539		-17.578125
8540		-23.437500
8541		-19.531250
8542		-25.390625
8543		-21.484375
8544		-27.343750
8545		-23.437500
8546		-29.296875
8547		-25.390625
8548		-31.250000
8549		-27.343750
8550		-33.203125
8551		-29.296875
8552		-35.156250
8553		-31.250000
8554		-37.109375
8555		-33.203125
8556		-39.062500
8557		-35.156250
8558		-39.062500
8559		-35.156250
8560		-41.015625
8561		-37.109375
8562		-42.968750
8563		-39.062500
8564		-44.921875
8565		-41.015625
8566		-46.875000
8567		-42.968750
8568		-48.828125
8569		-44.921875
8570		-50.781250
8571		-44.921875
8572		-50.781250
8573		-46.875000
8574		-52.734375
8575		-48.828125
8576		-54.687500
8577		-48.828125
8578		-54.687500
8579		-50.781250
8580		-56.640625
8581		-52.734375
8582		-58.593750
8583		-54.687500
8584		-58.593750
8585		-54.687500
8586		-60.546875
8587		-56.640625
8588		-60.546875
8589		-58.593750
8590		-62.500000
8591		-58.593750
8592		-64.453125
8593		-60.546875
8594		-64.453125
8595		-62.500000
8596		-66.406250
8597		-62.500000
8598		-66.406250
8599		-62.500000
8600		-68.359375
8601		-64.453125
8602		-68.359375
8603		-66.406250
8604		-70.312500
8605		-66.406250
8606		-70.312500
8607		-66.406250
8608		-70.312500
8609		-68.359375
8610		-72.265625
8611		-68.359375
8612		-74.218750
8613		-68.359375
8614		-72.265625
8615		-70.312500
8616		-74.218750
8617		-70.312500
8618		-74.218750
8619		-70.312500
8620		-74.218750
8621		-72.265625
8622		-74.218750
8623		-72.265625
8624		-76.171875
8625		-72.265625
8626		-74.218750
8627		-72.265625
8628		-76.171875
8629		-72.265625
8630		-76.171875
8631		-72.265625
8632		-76.171875
8633		-72.265625
8634		-76.171875
8635		-72.265625
8636		-76.171875
8637		-72.265625
8638		-76.171875
8639		-72.265625
8640		-76.171875
8641		-72.265625
8642		-76.171875
8643		-72.265625
8644		-74.218750
8645		-72.265625
8646		-76.171875
8647		-72.265625
8648		-74.218750
8649		-72.265625
8650		-74.218750
8651		-70.312500
8652		-74.218750
8653		-70.312500
8654		-74.218750
8655		-70.312500
8656		-72.265625
8657		-70.312500
8658		-72.265625
8659		-70.312500
8660		-72.265625
8661		-68.359375
8662		-72.265625
8663		-68.359375
8664		-70.312500
8665		-66.406250
8666		-70.312500
8667		-66.406250
8668		-68.359375
8669		-66.406250
8670		-68.359375
8671		-64.453125
8672		-66.406250
8673		-64.453125
8674		-66.406250
8675		-62.500000
8676		-64.453125
8677		-62.500000
8678		-64.453125
8679		-60.546875
8680		-64.453125
8681		-58.593750
8682		-62.500000
8683		-58.593750
8684		-60.546875
8685		-56.640625
8686		-58.593750
8687		-54.687500
8688		-58.593750
8689		-54.687500
8690		-56.640625
8691		-52.734375
8692		-56.640625
8693		-50.781250
8694		-54.687500
8695		-50.781250
8696		-52.734375
8697		-48.828125
8698		-50.781250
8699		-46.875000
8700		-48.828125
8701		-44.921875
8702		-48.828125
8703		-44.921875
8704		-46.875000
8705		-42.968750
8706		-44.921875
8707		-41.015625
8708		-42.968750
8709		-39.062500
8710		-41.015625
8711		-37.109375
8712		-41.015625
8713		-37.109375
8714		-39.062500
8715		-35.156250
8716		-37.109375
8717		-33.203125
8718		-35.156250
8719		-31.250000
8720		-33.203125
8721		-29.296875
8722		-31.250000
8723		-27.343750
8724		-29.296875
8725		-25.390625
8726		-27.343750
8727		-23.437500
8728		-25.390625
8729		-21.484375
8730		-25.390625
8731		-19.531250
8732		-21.484375
8733		-17.578125
8734		-19.531250
8735		-17.578125
8736		-17.578125
8737		-15.625000
8738		-17.578125
8739		-13.671875
8740		-15.625000
8741		-11.718750
8742		-13.671875
8743		-9.765625
8744		-11.718750
8745		-7.812500
8746		-9.765625
8747		-3.906250
8748		-7.812500
8749		-3.906250
8750		-5.859375
8751		-1.953125
8752		-3.906250
8753		0.000000
8754		-1.953125
8755		1.953125
8756		0.000000
8757		3.906250
8758		1.953125
8759		5.859375
8760		3.906250
8761		7.812500
8762		5.859375
8763		9.765625
8764		7.812500
8765		11.718750
8766		7.812500
8767		11.718750
8768		9.765625
8769		15.625000
8770		11.718750
8771		15.625000
8772		13.671875
8773		17.578125
8774		15.625000
8775		19.531250
8776		17.578125
8777		21.484375
8778		19.531250
8779		23.437500
8780		21.484375
8781		25.390625
8782		23.437500
8783		27.343750
8784		23.437500
8785		29.296875
8786		25.390625
8787		29.296875
8788		27.343750
8789		31.250000
8790		29.296875
8791		33.203125
8792		31.250000
8793		35.156250
8794		33.203125
8795		35.156250
8796		33.203125
8797		37.109375
8798		35.156250
8799		39.062500
8800		37.109375
8801		41.015625
8802		39.062500
8803		41.015625
8804		39.062500
8805		42.968750
8806		41.015625
8807		44.921875
8808		42.968750
8809		44.921875
8810		42.968750
8811		46.875000
8812		44.921875
8813		48.828125
8814		44.921875
8815		50.781250
8816		46.875000
8817		50.781250
8818		48.828125
8819		52.734375
8820		48.828125
8821		52.734375
8822		50.781250
8823		54.687500
8824		50.781250
8825		54.687500
8826		52.734375
8827		56.640625
8828		54.687500
8829		56.640625
8830		54.687500
8831		58.593750
8832		54.687500
8833		58.593750
8834		56.640625
8835		60.546875
8836		56.640625
8837		60.546875
8838		58.593750
8839		60.546875
8840		58.593750
8841		62.500000
8842		58.593750
8843		62.500000
8844		60.546875
8845		62.500000
8846		60.546875
8847		62.500000
8848		60.546875
8849		64.453125
8850		62.500000
8851		64.453125
8852		62.500000
8853		64.453125
8854		62.500000
8855		66.406250
8856		62.500000
8857		66.406250
8858		62.500000
8859		66.406250
8860		62.500000
8861		66.406250
8862		64.453125
8863		66.406250
8864		62.500000
8865		66.406250
8866		64.453125
8867		66.406250
8868		64.453125
8869		68.359375
8870		64.453125
8871		68.359375
8872		64.453125
8873		66.406250
8874		64.453125
8875		68.359375
8876		64.453125
8877		68.359375
8878		64.453125
8879		66.406250
8880		64.453125
8881		66.406250
8882		62.500000
8883		66.406250
8884		62.500000
8885		66.406250
8886		62.500000
8887		66.406250
8888		62.500000
8889		66.406250
8890		62.500000
8891		66.406250
8892		62.500000
8893		64.453125
8894		60.546875
8895		64.453125
8896		60.546875
8897		64.453125
8898		60.546875
8899		64.453125
8900		60.546875
8901		62.500000
8902		58.593750
8903		62.500000
8904		58.593750
8905		62.500000
8906		58.593750
8907		60.546875
8908		56.640625
8909		60.546875
8910		54.687500
8911		58.593750
8912		54.687500
8913		58.593750
8914		54.687500
8915		56.640625
8916		52.734375
8917		56.640625
8918		52.734375
8919		56.640625
8920		50.781250
8921		54.687500
8922		50.781250
8923		54.687500
8924		48.828125
8925		52.734375
8926		48.828125
8927		50.781250
8928		46.875000
8929		50.781250
8930		46.875000
8931		48.828125
8932		44.921875
8933		48.828125
8934		42.968750
8935		46.875000
8936		41.015625
8937		44.921875
8938		41.015625
8939		44.921875
8940		39.062500
8941		42.968750
8942		37.109375
8943		41.015625
8944		37.109375
8945		39.062500
8946		35.156250
8947		39.062500
8948		33.203125
8949		37.109375
8950		31.250000
8951		35.156250
8952		29.296875
8953		35.156250
8954		29.296875
8955		31.250000
8956		27.343750
8957		31.250000
8958		25.390625
8959		29.296875
8960		23.437500
8961		27.343750
8962		21.484375
8963		25.390625
8964		19.531250
8965		23.437500
8966		19.531250
8967		23.437500
8968		17.578125
8969		21.484375
8970		15.625000
8971		19.531250
8972		13.671875
8973		17.578125
8974		11.718750
8975		15.625000
8976		9.765625
8977		13.671875
8978		7.812500
8979		13.671875
8980		5.859375
8981		9.765625
8982		3.906250
8983		7.812500
8984		1.953125
8985		5.859375
8986		0.000000
8987		3.906250
8988		-1.953125
8989		1.953125
8990		-3.906250
8991		0.000000
8992		-5.859375
8993		0.000000
8994		-7.812500
8995		-3.906250
8996		-7.812500
8997		-3.906250
8998		-11.718750
8999		-7.812500
9000		-11.718750
9001		-7.812500
9002		-13.671875
9003		-9.765625
9004		-15.625000
9005		-11.718750
9006		-17.578125
9007		-13.671875
9008		-19.531250
9009		-15.625000
9010		-23.437500
9011		-17.578125
9012		-23.437500
9013		-19.531250
9014		-25.390625
9015		-21.484375
9016		-27.343750
9017		-23.437500
9018		-29.296875
9019		-25.390625
9020		-31.250000
9021		-27.343750
9022		-33.203125
9023		-29.296875
9024		-35.156250
9025		-31.250000
9026		-37.109375
9027		-33.203125
9028		-37.109375
9029		-33.203125
9030		-39.062500
9031		-35.156250
9032		-41.015625
9033		-37.109375
9034		-42.968750
9035		-39.062500
9036		-44.921875
9037		-41.015625
9038		-46.875000
9039		-42.968750
9040		-48.828125
9041		-42.968750
9042		-48.828125
9043		-44.921875
9044		-50.781250
9045		-46.875000
9046		-52.734375
9047		-48.828125
9048		-52.734375
9049		-50.781250
9050		-54.687500
9051		-50.781250
9052		-56.640625
9053		-52.734375
9054		-56.640625
9055		-52.734375
9056		-58.593750
9057		-54.687500
9058		-60.546875
9059		-56.640625
9060		-60.546875
9061		-56.640625
9062		-62.500000
9063		-58.593750
9064		-62.500000
9065		-60.546875
9066		-66.406250
9067		-60.546875
9068		-66.406250
9069		-62.500000
9070		-66.406250
9071		-62.500000
9072		-68.359375
9073		-64.453125
9074		-68.359375
9075		-64.453125
9076		-70.312500
9077		-66.406250
9078		-70.312500
9079		-66.406250
9080		-70.312500
9081		-66.406250
9082		-72.265625
9083		-68.359375
9084		-72.265625
9085		-68.359375
9086		-72.265625
9087		-70.312500
9088		-72.265625
9089		-70.312500
9090		-74.218750
9091		-70.312500
9092		-74.218750
9093		-70.312500
9094		-74.218750
9095		-70.312500
9096		-74.218750
9097		-70.312500
9098		-74.218750
9099		-72.265625
9100		-74.218750
9101		-72.265625
9102		-74.218750
9103		-72.265625
9104		-74.218750
9105		-72.265625
9106		-76.171875
9107		-72.265625
9108		-74.218750
9109		-72.265625
9110		-74.218750
9111		-72.265625
9112		-76.171875
9113		-72.265625
9114		-74.218750
9115		-72.265625
9116		-74.218750
9117		-72.265625
9118		-74.218750
9119		-72.265625
9120		-74.218750
9121		-70.312500
9122		-74.218750
9123		-70.312500
9124		-72.265625
9125		-70.312500
9126		-72.265625
9127		-70.312500
9128		-72.265625
9129		-68.359375
9130		-72.265625
9131		-68.359375
9132		-70.312500
9133		-68.359375
9134		-70.312500
9135		-66.406250
9136		-70.312500
9137		-66.406250
9138		-68.359375
9139		-64.453125
9140		-68.359375
9141		-64.453125
9142		-68.359375
9143		-64.453125
9144		-66.406250
9145		-62.500000
9146		-64.453125
9147		-62.500000
9148		-64.453125
9149		-60.546875
9150		-62.500000
9151		-58.593750
9152		-62.500000
9153		-58.593750
9154		-60.546875
9155		-56.640625
9156		-60.546875
9157		-56.640625
9158		-58.593750
9159		-54.687500
9160		-56.640625
9161		-52.734375
9162		-54.687500
9163		-52.734375
9164		-54.687500
9165		-50.781250
9166		-52.734375
9167		-48.828125
9168		-50.781250
9169		-46.875000
9170		-50.781250
9171		-46.875000
9172		-48.828125
9173		-44.921875
9174		-46.875000
9175		-42.968750
9176		-44.921875
9177		-41.015625
9178		-42.968750
9179		-39.062500
9180		-41.015625
9181		-39.062500
9182		-41.015625
9183		-37.109375
9184		-39.062500
9185		-35.156250
9186		-37.109375
9187		-33.203125
9188		-35.156250
9189		-31.250000
9190		-33.203125
9191		-29.296875
9192		-31.250000
9193		-27.343750
9194		-29.296875
9195		-25.390625
9196		-27.343750
9197		-23.437500
9198		-25.390625
9199		-23.437500
9200		-23.437500
9201		-21.484375
9202		-23.437500
9203		-19.531250
9204		-21.484375
9205		-15.625000
9206		-19.531250
9207		-15.625000
9208		-17.578125
9209		-13.671875
9210		-15.625000
9211		-11.718750
9212		-13.671875
9213		-9.765625
9214		-11.718750
9215		-7.812500
9216		-9.765625
9217		-5.859375
9218		-7.812500
9219		-3.906250
9220		-5.859375
9221		-1.953125
9222		-3.906250
9223		0.000000
9224		-1.953125
9225		1.953125
9226		0.000000
9227		3.906250
9228		1.953125
9229		5.859375
9230		1.953125
9231		7.812500
9232		5.859375
9233		7.812500
9234		7.812500
9235		11.718750
9236		9.765625
9237		11.718750
9238		9.765625
9239		13.671875
9240		11.718750
9241		17.578125
9242		13.671875
9243		17.578125
9244		15.625000
9245		19.531250
9246		17.578125
9247		21.484375
9248		19.531250
9249		23.437500
9250		21.484375
9251		25.390625
9252		21.484375
9253		25.390625
9254		23.437500
9255		27.343750
9256		25.390625
9257		29.296875
9258		27.343750
9259		31.250000
9260		29.296875
9261		33.203125
9262		31.250000
9263		35.156250
9264		33.203125
9265		37.109375
9266		33.203125
9267		37.109375
9268		35.156250
9269		39.062500
9270		37.109375
9271		41.015625
9272		39.062500
9273		41.015625
9274		39.062500
9275		42.968750
9276		41.015625
9277		44.921875
9278		42.968750
9279		44.921875
9280		42.968750
9281		46.875000
9282		44.921875
9283		48.828125
9284		44.921875
9285		50.781250
9286		46.875000
9287		50.781250
9288		48.828125
9289		50.781250
9290		48.828125
9291		52.734375
9292		50.781250
9293		54.687500
9294		52.734375
9295		54.687500
9296		50.781250
9297		56.640625
9298		54.687500
9299		56.640625
9300		54.687500
9301		58.593750
9302		54.687500
9303		58.593750
9304		56.640625
9305		60.546875
9306		56.640625
9307		60.546875
9308		58.593750
9309		60.546875
9310		58.593750
9311		62.500000
9312		58.593750
9313		62.500000
9314		58.593750
9315		62.500000
9316		60.546875
9317		64.453125
9318		60.546875
9319		64.453125
9320		60.546875
9321		64.453125
9322		62.500000
9323		64.453125
9324		62.500000
9325		64.453125
9326		62.500000
9327		66.406250
9328		62.500000
9329		66.406250
9330		62.500000
9331		68.359375
9332		64.453125
9333		66.406250
9334		64.453125
9335		66.406250
9336		64.453125
9337		68.359375
9338		64.453125
9339		66.406250
9340		64.453125
9341		68.359375
9342		64.453125
9343		68.359375
9344		64.453125
9345		68.359375
9346		64.453125
9347		68.359375
9348		64.453125
9349		66.406250
9350		64.453125
9351		66.406250
9352		62.500000
9353		68.359375
9354		64.453125
9355		66.406250
9356		64.453125
9357		66.406250
9358		62.500000
9359		66.406250
9360		62.500000
9361		66.406250
9362		62.500000
9363		66.406250
9364		62.500000
9365		64.453125
9366		62.500000
9367		64.453125
9368		60.546875
9369		64.453125
9370		60.546875
9371		64.453125
9372		60.546875
9373		62.500000
9374		58.593750
9375		62.500000
9376		58.593750
9377		62.500000
9378		56.640625
9379		60.546875
9380		56.640625
9381		60.546875
9382		56.640625
9383		58.593750
9384		54.687500
9385		58.593750
9386		54.687500
9387		58.593750
9388		52.734375
9389		56.640625
9390		52.734375
9391		54.687500
9392		50.781250
9393		54.687500
9394		50.781250
9395		54.687500
9396		48.828125
9397		52.734375
9398		46.875000
9399		50.781250
9400		46.875000
9401		50.781250
9402		44.921875
9403		48.828125
9404		44.921875
9405		48.828125
9406		42.968750
9407		46.875000
9408		41.015625
9409		44.921875
9410		41.015625
9411		44.921875
9412		37.109375
9413		42.968750
9414		37.109375
9415		41.015625
9416		37.109375
9417		39.062500
9418		35.156250
9419		39.062500
9420		33.203125
9421		37.109375
9422		31.250000
9423		35.156250
9424		29.296875
9425		33.203125
9426		27.343750
9427		33.203125
9428		25.390625
9429		31.250000
9430		25.390625
9431		29.296875
9432		23.437500
9433		27.343750
9434		21.484375
9435		25.390625
9436		19.531250
9437		23.437500
9438		17.578125
9439		21.484375
9440		17.578125
9441		19.531250
9442		13.671875
9443		19.531250
9444		13.671875
9445		17.578125
9446		11.718750
9447		15.625000
9448		9.765625
9449		13.671875
9450		7.812500
9451		11.718750
9452		5.859375
9453		9.765625
9454		3.906250
9455		7.812500
9456		1.953125
9457		5.859375
9458		0.000000
9459		3.906250
9460		-1.953125
9461		1.953125
9462		-3.906250
9463		0.000000
9464		-5.859375
9465		-1.953125
9466		-7.812500
9467		-3.906250
9468		-9.765625
9469		-5.859375
9470		-11.718750
9471		-7.812500
9472		-13.671875
9473		-9.765625
9474		-15.625000
9475		-9.765625
9476		-17.578125
9477		-11.718750
9478		-17.578125
9479		-13.671875
9480		-19.531250
9481		-15.625000
9482		-21.484375
9483		-17.578125
9484		-23.437500
9485		-19.531250
9486		-27.343750
9487		-21.484375
9488		-27.343750
9489		-23.437500
9490		-29.296875
9491		-25.390625
9492		-31.250000
9493		-27.343750
9494		-33.203125
9495		-29.296875
9496		-35.156250
9497		-31.250000
9498		-37.109375
9499		-33.203125
9500		-39.062500
9501		-33.203125
9502		-41.015625
9503		-37.109375
9504		-42.968750
9505		-37.109375
9506		-42.968750
9507		-39.062500
9508		-44.921875
9509		-41.015625
9510		-46.875000
9511		-42.968750
9512		-48.828125
9513		-44.921875
9514		-48.828125
9515		-44.921875
9516		-50.781250
9517		-46.875000
9518		-52.734375
9519		-48.828125
9520		-54.687500
9521		-48.828125
9522		-54.687500
9523		-50.781250
9524		-56.640625
9525		-52.734375
9526		-58.593750
9527		-52.734375
9528		-58.593750
9529		-56.640625
9530		-60.546875
9531		-56.640625
9532		-62.500000
9533		-56.640625
9534		-62.500000
9535		-58.593750
9536		-64.453125
9537		-60.546875
9538		-66.406250
9539		-60.546875
9540		-66.406250
9541		-62.500000
9542		-66.406250
9543		-62.500000
9544		-68.359375
9545		-64.453125
9546		-68.359375
9547		-64.453125
9548		-70.312500
9549		-64.453125
9550		-70.312500
9551		-66.406250
9552		-70.312500
9553		-68.359375
9554		-72.265625
9555		-68.359375
9556		-72.265625
9557		-68.359375
9558		-72.265625
9559		-68.359375
9560		-72.265625
9561		-68.359375
9562		-72.265625
9563		-70.312500
9564		-74.218750
9565		-70.312500
9566		-74.218750
9567		-70.312500
9568		-74.218750
9569		-72.265625
9570		-74.218750
9571		-72.265625
9572		-74.218750
9573		-72.265625
9574		-74.218750
9575		-72.265625
9576		-74.218750
9577		-72.265625
9578		-74.218750
9579		-72.265625
9580		-74.218750
9581		-72.265625
9582		-76.171875
9583		-70.312500
9584		-74.218750
9585		-72.265625
9586		-74.218750
9587		-72.265625
9588		-74.218750
9589		-70.312500
9590		-74.218750
9591		-70.312500
9592		-74.218750
9593		-70.312500
9594		-74.218750
9595		-70.312500
9596		-72.265625
9597		-70.312500
9598		-72.265625
9599		-68.359375
9600		-72.265625
9601		-68.359375
9602		-70.312500
9603		-68.359375
9604		-70.312500
9605		-66.406250
9606		-70.312500
9607		-66.406250
9608		-68.359375
9609		-66.406250
9610		-68.359375
9611		-64.453125
9612		-68.359375
9613		-62.500000
9614		-66.406250
9615		-62.500000
9616		-66.406250
9617		-62.500000
9618		-64.453125
9619		-60.546875
9620		-62.500000
9621		-60.546875
9622		-62.500000
9623		-58.593750
9624		-60.546875
9625		-58.593750
9626		-60.546875
9627		-56.640625
9628		-58.593750
9629		-54.687500
9630		-58.593750
9631		-52.734375
9632		-56.640625
9633		-52.734375
9634		-54.687500
9635		-50.781250
9636		-52.734375
9637		-48.828125
9638		-52.734375
9639		-48.828125
9640		-50.781250
9641		-46.875000
9642		-50.781250
9643		-44.921875
9644		-46.875000
9645		-44.921875
9646		-44.921875
9647		-42.968750
9648		-44.921875
9649		-41.015625
9650		-42.968750
9651		-39.062500
9652		-41.015625
9653		-37.109375
9654		-39.062500
9655		-35.156250
9656		-37.109375
9657		-33.203125
9658		-37.109375
9659		-31.250000
9660		-35.156250
9661		-31.250000
9662		-33.203125
9663		-29.296875
9664		-31.250000
9665		-27.343750
9666		-29.296875
9667		-25.390625
9668		-27.343750
9669		-23.437500
9670		-25.390625
9671		-21.484375
9672		-25.390625
9673		-19.531250
9674		-23.437500
9675		-17.578125
9676		-21.484375
9677		-15.625000
9678		-17.578125
9679		-13.671875
9680		-17.578125
9681		-11.718750
9682		-13.671875
9683		-9.765625
9684		-13.671875
9685		-7.812500
9686		-9.765625
9687		-5.859375
9688		-9.765625
9689		-5.859375
9690		-7.812500
9691		-1.953125
9692		-5.859375
9693		-1.953125
9694		-3.906250
9695		0.000000
9696		-1.953125
9697		1.953125
9698		0.000000
9699		3.906250
9700		1.953125
9701		5.859375
9702		3.906250
9703		7.812500
9704		5.859375
9705		11.718750
9706		7.812500
9707		11.718750
9708		9.765625
9709		13.671875
9710		11.718750
9711		15.625000
9712		13.671875
9713		17.578125
9714		15.625000
9715		19.531250
9716		15.625000
9717		19.531250
9718		17.578125
9719		21.484375
9720		19.531250
9721		23.437500
9722		21.484375
9723		25.390625
9724		23.437500
9725		27.343750
9726		25.390625
9727		29.296875
9728		27.343750
9729		31.250000
9730		29.296875
9731		33.203125
9732		29.296875
9733		33.203125
9734		31.250000
9735		35.156250
9736		33.203125
9737		37.109375
9738		35.156250
9739		39.062500
9740		35.156250
9741		39.062500
9742		37.109375
9743		41.015625
9744		39.062500
9745		42.968750
9746		39.062500
9747		42.968750
9748		41.015625
9749		44.921875
9750		42.968750
9751		46.875000
9752		44.921875
9753		46.875000
9754		44.921875
9755		48.828125
9756		46.875000
9757		48.828125
9758		46.875000
9759		50.781250
9760		48.828125
9761		52.734375
9762		50.781250
9763		52.734375
9764		50.781250
9765		54.687500
9766		52.734375
9767		54.687500
9768		52.734375
9769		56.640625
9770		54.687500
9771		56.640625
9772		54.687500
9773		58.593750
9774		56.640625
9775		58.593750
9776		56.640625
9777		60.546875
9778		56.640625
9779		60.546875
9780		58.593750
9781		62.500000
9782		58.593750
9783		62.500000
9784		60.546875
9785		62.500000
9786		60.546875
9787		62.500000
9788		60.546875
9789		64.453125
9790		60.546875
9791		64.453125
9792		62.500000
9793		64.453125
9794		62.500000
9795		66.406250
9796		62.500000
9797		66.406250
9798		62.500000
9799		66.406250
9800		62.500000
9801		66.406250
9802		64.453125
9803		66.406250
9804		64.453125
9805		66.406250
9806		64.453125
9807		68.359375
9808		64.453125
9809		68.359375
9810		64.453125
9811		68.359375
9812		64.453125
9813		68.359375
9814		64.453125
9815		68.359375
9816		64.453125
9817		68.359375
9818		64.453125
9819		68.359375
9820		64.453125
9821		68.359375
9822		64.453125
9823		66.406250
9824		64.453125
9825		66.406250
9826		64.453125
9827		66.406250
9828		62.500000
9829		66.406250
9830		62.500000
9831		66.406250
9832		62.500000
9833		66.406250
9834		62.500000
9835		66.406250
9836		62.500000
9837		64.453125
9838		60.546875
9839		64.453125
9840		60.546875
9841		64.453125
9842		60.546875
9843		64.453125
9844		60.546875
9845		64.453125
9846		58.593750
9847		62.500000
9848		58.593750
9849		60.546875
9850		56.640625
9851		60.546875
9852		56.640625
9853		60.546875
9854		56.640625
9855		58.593750
9856		54.687500
9857		58.593750
9858		54.687500
9859		58.593750
9860		52.734375
9861		56.640625
9862		50.781250
9863		56.640625
9864		50.781250
9865		54.687500
9866		50.781250
9867		54.687500
9868		48.828125
9869		52.734375
9870		46.875000
9871		50.781250
9872		46.875000
9873		50.781250
9874		44.921875
9875		48.828125
9876		44.921875
9877		46.875000
9878		42.968750
9879		46.875000
9880		41.015625
9881		44.921875
9882		39.062500
9883		44.921875
9884		37.109375
9885		42.968750
9886		37.109375
9887		41.015625
9888		35.156250
9889		39.062500
9890		35.156250
9891		37.109375
9892		33.203125
9893		37.109375
9894		31.250000
9895		35.156250
9896		29.296875
9897		33.203125
9898		27.343750
9899		31.250000
9900		25.390625
9901		29.296875
9902		25.390625
9903		29.296875
9904		23.437500
9905		27.343750
9906		19.531250
9907		25.390625
9908		19.531250
9909		23.437500
9910		17.578125
9911		21.484375
9912		15.625000
9913		19.531250
9914		13.671875
9915		19.531250
9916		11.718750
9917		15.625000
9918		9.765625
9919		15.625000
9920		9.765625
9921		11.718750
9922		7.812500
9923		11.718750
9924		5.859375
9925		9.765625
9926		3.906250
9927		7.812500
9928		1.953125
9929		5.859375
9930		0.000000
9931		3.906250
9932		-1.953125
9933		1.953125
9934		-3.906250
9935		0.000000
9936		-5.859375
9937		-1.953125
9938		-7.812500
9939		-3.906250
9940		-9.765625
9941		-5.859375
9942		-11.718750
9943		-7.812500
9944		-13.671875
9945		-9.765625
9946		-15.625000
9947		-11.718750
9948		-17.578125
9949		-11.718750
9950		-19.531250
9951		-15.625000
9952		-21.484375
9953		-17.578125
9954		-23.437500
9955		-17.578125
9956		-25.390625
9957		-21.484375
9958		-25.390625
9959		-23.437500
9960		-27.343750
9961		-23.437500
9962		-31.250000
9963		-25.390625
9964		-31.250000
9965		-27.343750
9966		-33.203125
9967		-29.296875
9968		-35.156250
9969		-31.250000
9970		-37.109375
9971		-33.203125
9972		-39.062500
9973		-35.156250
9974		-41.015625
9975		-37.109375
9976		-42.968750
9977		-39.062500
9978		-42.968750
9979		-39.062500
9980		-44.921875
9981		-41.015625
9982		-46.875000
9983		-42.968750
9984		-48.828125
9985		-44.921875
9986		-48.828125
9987		-44.921875
9988		-50.781250
9989		-46.875000
9990		-52.734375
9991		-48.828125
9992		-52.734375
9993		-50.781250
9994		-54.687500
9995		-50.781250
9996		-56.640625
9997		-52.734375
9998		-58.593750
9999		-54.687500
10000		-58.593750
