Channel              :		CH1
Frequency            :		1.061kHz
Period               :		0.942ms
PK-PK                :		339.8mV
Probe attenuation    :		1X
Voltage per ADC value:		0.122070mV
Time interval        :		2.00000us

index		CH1_Voltage(mV)
1		97.656250
2		97.656250
3		105.468750
4		93.750000
5		101.562500
6		91.796875
7		99.609375
8		87.890625
9		95.703125
10		83.984375
11		91.796875
12		82.031250
13		89.843750
14		80.078125
15		85.937500
16		76.171875
17		82.031250
18		70.312500
19		80.078125
20		66.406250
21		76.171875
22		62.500000
23		70.312500
24		60.546875
25		68.359375
26		54.687500
27		62.500000
28		52.734375
29		60.546875
30		48.828125
31		54.687500
32		44.921875
33		50.781250
34		39.062500
35		46.875000
36		35.156250
37		44.921875
38		31.250000
39		39.062500
40		25.390625
41		35.156250
42		21.484375
43		31.250000
44		19.531250
45		27.343750
46		15.625000
47		23.437500
48		9.765625
49		17.578125
50		3.906250
51		11.718750
52		0.000000
53		9.765625
54		-3.906250
55		5.859375
56		-9.765625
57		0.000000
58		-11.718750
59		-3.906250
60		-17.578125
61		-5.859375
62		-21.484375
63		-11.718750
64		-25.390625
65		-17.578125
66		-29.296875
67		-23.437500
68		-35.156250
69		-27.343750
70		-39.062500
71		-29.296875
72		-44.921875
73		-35.156250
74		-48.828125
75		-41.015625
76		-52.734375
77		-42.968750
78		-58.593750
79		-46.875000
80		-60.546875
81		-54.687500
82		-64.453125
83		-58.593750
84		-70.312500
85		-62.500000
86		-76.171875
87		-64.453125
88		-80.078125
89		-70.312500
90		-82.031250
91		-74.218750
92		-87.890625
93		-78.125000
94		-91.796875
95		-82.031250
96		-93.750000
97		-85.937500
98		-99.609375
99		-91.796875
100		-101.562500
101		-95.703125
102		-107.421875
103		-97.656250
104		-111.328125
105		-101.562500
106		-113.281250
107		-105.468750
108		-117.187500
109		-109.375000
110		-123.046875
111		-113.281250
112		-125.000000
113		-117.187500
114		-126.953125
115		-121.093750
116		-130.859375
117		-125.000000
118		-136.718750
119		-128.906250
120		-138.671875
121		-130.859375
122		-140.625000
123		-132.812500
124		-144.531250
125		-134.765625
126		-148.437500
127		-140.625000
128		-148.437500
129		-140.625000
130		-150.390625
131		-144.531250
132		-154.296875
133		-148.437500
134		-158.203125
135		-152.343750
136		-160.156250
137		-152.343750
138		-162.109375
139		-154.296875
140		-164.062500
141		-156.250000
142		-166.015625
143		-158.203125
144		-167.968750
145		-160.156250
146		-169.921875
147		-162.109375
148		-169.921875
149		-166.015625
150		-171.875000
151		-167.968750
152		-173.828125
153		-167.968750
154		-175.781250
155		-167.968750
156		-177.734375
157		-169.921875
158		-177.734375
159		-169.921875
160		-177.734375
161		-171.875000
162		-179.687500
163		-171.875000
164		-177.734375
165		-173.828125
166		-177.734375
167		-175.781250
168		-179.687500
169		-173.828125
170		-181.640625
171		-173.828125
172		-181.640625
173		-173.828125
174		-179.687500
175		-173.828125
176		-179.687500
177		-173.828125
178		-179.687500
179		-173.828125
180		-179.687500
181		-173.828125
182		-175.781250
183		-173.828125
184		-175.781250
185		-171.875000
186		-177.734375
187		-169.921875
188		-175.781250
189		-167.968750
190		-173.828125
191		-167.968750
192		-173.828125
193		-166.015625
194		-171.875000
195		-164.062500
196		-169.921875
197		-164.062500
198		-167.968750
199		-162.109375
200		-164.062500
201		-160.156250
202		-164.062500
203		-156.250000
204		-164.062500
205		-154.296875
206		-160.156250
207		-152.343750
208		-156.250000
209		-150.390625
210		-154.296875
211		-146.484375
212		-152.343750
213		-144.531250
214		-150.390625
215		-142.578125
216		-144.531250
217		-140.625000
218		-142.578125
219		-134.765625
220		-140.625000
221		-132.812500
222		-136.718750
223		-128.906250
224		-134.765625
225		-125.000000
226		-130.859375
227		-123.046875
228		-126.953125
229		-119.140625
230		-123.046875
231		-115.234375
232		-119.140625
233		-113.281250
234		-115.234375
235		-109.375000
236		-111.328125
237		-103.515625
238		-109.375000
239		-99.609375
240		-103.515625
241		-95.703125
242		-101.562500
243		-91.796875
244		-95.703125
245		-87.890625
246		-91.796875
247		-83.984375
248		-85.937500
249		-80.078125
250		-82.031250
251		-76.171875
252		-78.125000
253		-70.312500
254		-74.218750
255		-64.453125
256		-70.312500
257		-60.546875
258		-66.406250
259		-56.640625
260		-60.546875
261		-52.734375
262		-56.640625
263		-46.875000
264		-52.734375
265		-44.921875
266		-46.875000
267		-39.062500
268		-41.015625
269		-35.156250
270		-37.109375
271		-29.296875
272		-33.203125
273		-25.390625
274		-29.296875
275		-19.531250
276		-25.390625
277		-15.625000
278		-19.531250
279		-11.718750
280		-15.625000
281		-7.812500
282		-9.765625
283		-3.906250
284		-5.859375
285		1.953125
286		0.000000
287		7.812500
288		1.953125
289		11.718750
290		7.812500
291		15.625000
292		11.718750
293		19.531250
294		15.625000
295		23.437500
296		17.578125
297		29.296875
298		25.390625
299		31.250000
300		29.296875
301		35.156250
302		35.156250
303		42.968750
304		37.109375
305		44.921875
306		41.015625
307		50.781250
308		44.921875
309		52.734375
310		48.828125
311		56.640625
312		52.734375
313		60.546875
314		56.640625
315		64.453125
316		62.500000
317		68.359375
318		66.406250
319		72.265625
320		68.359375
321		76.171875
322		72.265625
323		80.078125
324		76.171875
325		83.984375
326		78.125000
327		85.937500
328		82.031250
329		89.843750
330		85.937500
331		93.750000
332		89.843750
333		95.703125
334		93.750000
335		97.656250
336		95.703125
337		103.515625
338		97.656250
339		105.468750
340		101.562500
341		107.421875
342		103.515625
343		111.328125
344		105.468750
345		115.234375
346		109.375000
347		115.234375
348		111.328125
349		117.187500
350		115.234375
351		119.140625
352		117.187500
353		123.046875
354		117.187500
355		126.953125
356		121.093750
357		128.906250
358		121.093750
359		130.859375
360		125.000000
361		132.812500
362		126.953125
363		134.765625
364		128.906250
365		136.718750
366		132.812500
367		136.718750
368		132.812500
369		138.671875
370		134.765625
371		140.625000
372		136.718750
373		142.578125
374		136.718750
375		142.578125
376		136.718750
377		144.531250
378		138.671875
379		146.484375
380		140.625000
381		146.484375
382		142.578125
383		146.484375
384		144.531250
385		148.437500
386		144.531250
387		148.437500
388		144.531250
389		152.343750
390		144.531250
391		152.343750
392		144.531250
393		152.343750
394		146.484375
395		152.343750
396		146.484375
397		152.343750
398		148.437500
399		154.296875
400		148.437500
401		152.343750
402		150.390625
403		152.343750
404		148.437500
405		154.296875
406		148.437500
407		154.296875
408		148.437500
409		154.296875
410		146.484375
411		154.296875
412		146.484375
413		154.296875
414		146.484375
415		154.296875
416		146.484375
417		152.343750
418		148.437500
419		150.390625
420		144.531250
421		150.390625
422		144.531250
423		152.343750
424		142.578125
425		150.390625
426		142.578125
427		150.390625
428		142.578125
429		148.437500
430		140.625000
431		148.437500
432		140.625000
433		146.484375
434		140.625000
435		144.531250
436		138.671875
437		142.578125
438		134.765625
439		142.578125
440		132.812500
441		142.578125
442		132.812500
443		140.625000
444		130.859375
445		138.671875
446		128.906250
447		136.718750
448		128.906250
449		134.765625
450		126.953125
451		130.859375
452		125.000000
453		128.906250
454		123.046875
455		128.906250
456		121.093750
457		126.953125
458		117.187500
459		125.000000
460		115.234375
461		123.046875
462		113.281250
463		119.140625
464		109.375000
465		119.140625
466		107.421875
467		115.234375
468		105.468750
469		109.375000
470		103.515625
471		107.421875
472		99.609375
473		105.468750
474		95.703125
475		103.515625
476		91.796875
477		99.609375
478		87.890625
479		97.656250
480		85.937500
481		93.750000
482		82.031250
483		89.843750
484		80.078125
485		85.937500
486		76.171875
487		82.031250
488		70.312500
489		78.125000
490		68.359375
491		76.171875
492		64.453125
493		74.218750
494		60.546875
495		68.359375
496		56.640625
497		66.406250
498		50.781250
499		62.500000
500		50.781250
501		56.640625
502		46.875000
503		52.734375
504		41.015625
505		48.828125
506		37.109375
507		44.921875
508		33.203125
509		41.015625
510		29.296875
511		37.109375
512		21.484375
513		31.250000
514		19.531250
515		29.296875
516		15.625000
517		25.390625
518		11.718750
519		17.578125
520		7.812500
521		13.671875
522		1.953125
523		9.765625
524		-3.906250
525		5.859375
526		-5.859375
527		1.953125
528		-11.718750
529		-3.906250
530		-15.625000
531		-7.812500
532		-21.484375
533		-11.718750
534		-23.437500
535		-15.625000
536		-29.296875
537		-21.484375
538		-33.203125
539		-25.390625
540		-39.062500
541		-29.296875
542		-42.968750
543		-33.203125
544		-46.875000
545		-39.062500
546		-50.781250
547		-42.968750
548		-56.640625
549		-46.875000
550		-58.593750
551		-50.781250
552		-64.453125
553		-56.640625
554		-68.359375
555		-60.546875
556		-72.265625
557		-64.453125
558		-78.125000
559		-68.359375
560		-82.031250
561		-72.265625
562		-87.890625
563		-76.171875
564		-89.843750
565		-82.031250
566		-93.750000
567		-85.937500
568		-97.656250
569		-89.843750
570		-99.609375
571		-93.750000
572		-105.468750
573		-97.656250
574		-109.375000
575		-99.609375
576		-113.281250
577		-105.468750
578		-117.187500
579		-107.421875
580		-123.046875
581		-113.281250
582		-125.000000
583		-117.187500
584		-126.953125
585		-121.093750
586		-128.906250
587		-125.000000
588		-134.765625
589		-126.953125
590		-138.671875
591		-130.859375
592		-140.625000
593		-132.812500
594		-144.531250
595		-136.718750
596		-146.484375
597		-138.671875
598		-150.390625
599		-140.625000
600		-152.343750
601		-144.531250
602		-154.296875
603		-148.437500
604		-156.250000
605		-150.390625
606		-160.156250
607		-152.343750
608		-162.109375
609		-154.296875
610		-164.062500
611		-156.250000
612		-166.015625
613		-158.203125
614		-169.921875
615		-160.156250
616		-171.875000
617		-162.109375
618		-169.921875
619		-166.015625
620		-171.875000
621		-167.968750
622		-175.781250
623		-167.968750
624		-175.781250
625		-169.921875
626		-177.734375
627		-169.921875
628		-177.734375
629		-171.875000
630		-179.687500
631		-171.875000
632		-179.687500
633		-173.828125
634		-179.687500
635		-173.828125
636		-179.687500
637		-175.781250
638		-179.687500
639		-175.781250
640		-181.640625
641		-175.781250
642		-181.640625
643		-175.781250
644		-181.640625
645		-173.828125
646		-179.687500
647		-175.781250
648		-181.640625
649		-173.828125
650		-179.687500
651		-173.828125
652		-177.734375
653		-173.828125
654		-177.734375
655		-173.828125
656		-177.734375
657		-171.875000
658		-177.734375
659		-169.921875
660		-177.734375
661		-169.921875
662		-175.781250
663		-167.968750
664		-173.828125
665		-166.015625
666		-171.875000
667		-164.062500
668		-169.921875
669		-164.062500
670		-166.015625
671		-162.109375
672		-166.015625
673		-160.156250
674		-164.062500
675		-158.203125
676		-162.109375
677		-154.296875
678		-160.156250
679		-152.343750
680		-158.203125
681		-148.437500
682		-154.296875
683		-146.484375
684		-152.343750
685		-144.531250
686		-148.437500
687		-142.578125
688		-144.531250
689		-140.625000
690		-142.578125
691		-136.718750
692		-140.625000
693		-130.859375
694		-136.718750
695		-128.906250
696		-132.812500
697		-125.000000
698		-130.859375
699		-123.046875
700		-126.953125
701		-119.140625
702		-121.093750
703		-115.234375
704		-117.187500
705		-111.328125
706		-113.281250
707		-107.421875
708		-111.328125
709		-103.515625
710		-107.421875
711		-99.609375
712		-103.515625
713		-95.703125
714		-99.609375
715		-91.796875
716		-95.703125
717		-85.937500
718		-89.843750
719		-83.984375
720		-85.937500
721		-80.078125
722		-82.031250
723		-76.171875
724		-78.125000
725		-68.359375
726		-72.265625
727		-64.453125
728		-68.359375
729		-60.546875
730		-64.453125
731		-56.640625
732		-60.546875
733		-50.781250
734		-56.640625
735		-46.875000
736		-52.734375
737		-42.968750
738		-46.875000
739		-39.062500
740		-41.015625
741		-33.203125
742		-37.109375
743		-27.343750
744		-33.203125
745		-23.437500
746		-29.296875
747		-19.531250
748		-23.437500
749		-15.625000
750		-19.531250
751		-9.765625
752		-15.625000
753		-5.859375
754		-7.812500
755		-1.953125
756		-3.906250
757		3.906250
758		0.000000
759		7.812500
760		1.953125
761		11.718750
762		7.812500
763		17.578125
764		13.671875
765		21.484375
766		17.578125
767		25.390625
768		21.484375
769		29.296875
770		27.343750
771		33.203125
772		31.250000
773		37.109375
774		33.203125
775		42.968750
776		37.109375
777		46.875000
778		41.015625
779		50.781250
780		44.921875
781		52.734375
782		48.828125
783		58.593750
784		52.734375
785		62.500000
786		58.593750
787		64.453125
788		62.500000
789		68.359375
790		66.406250
791		72.265625
792		70.312500
793		76.171875
794		74.218750
795		80.078125
796		76.171875
797		82.031250
798		80.078125
799		85.937500
800		82.031250
801		91.796875
802		87.890625
803		91.796875
804		89.843750
805		95.703125
806		93.750000
807		97.656250
808		95.703125
809		103.515625
810		97.656250
811		107.421875
812		101.562500
813		107.421875
814		103.515625
815		111.328125
816		105.468750
817		113.281250
818		109.375000
819		115.234375
820		111.328125
821		117.187500
822		115.234375
823		121.093750
824		117.187500
825		123.046875
826		119.140625
827		125.000000
828		121.093750
829		128.906250
830		123.046875
831		130.859375
832		125.000000
833		132.812500
834		126.953125
835		134.765625
836		128.906250
837		134.765625
838		132.812500
839		136.718750
840		132.812500
841		140.625000
842		132.812500
843		140.625000
844		134.765625
845		142.578125
846		136.718750
847		142.578125
848		138.671875
849		144.531250
850		138.671875
851		146.484375
852		140.625000
853		146.484375
854		142.578125
855		146.484375
856		144.531250
857		148.437500
858		142.578125
859		150.390625
860		144.531250
861		152.343750
862		144.531250
863		150.390625
864		146.484375
865		152.343750
866		146.484375
867		152.343750
868		146.484375
869		154.296875
870		148.437500
871		152.343750
872		148.437500
873		152.343750
874		148.437500
875		152.343750
876		146.484375
877		154.296875
878		148.437500
879		154.296875
880		146.484375
881		154.296875
882		146.484375
883		154.296875
884		146.484375
885		154.296875
886		146.484375
887		152.343750
888		148.437500
889		150.390625
890		146.484375
891		150.390625
892		144.531250
893		152.343750
894		144.531250
895		150.390625
896		144.531250
897		150.390625
898		142.578125
899		150.390625
900		142.578125
901		148.437500
902		140.625000
903		148.437500
904		140.625000
905		146.484375
906		140.625000
907		144.531250
908		136.718750
909		144.531250
910		134.765625
911		142.578125
912		134.765625
913		140.625000
914		132.812500
915		138.671875
916		130.859375
917		138.671875
918		128.906250
919		136.718750
920		128.906250
921		134.765625
922		126.953125
923		130.859375
924		123.046875
925		128.906250
926		121.093750
927		128.906250
928		119.140625
929		126.953125
930		117.187500
931		125.000000
932		115.234375
933		121.093750
934		111.328125
935		119.140625
936		109.375000
937		117.187500
938		107.421875
939		111.328125
940		105.468750
941		109.375000
942		99.609375
943		107.421875
944		97.656250
945		105.468750
946		93.750000
947		101.562500
948		91.796875
949		97.656250
950		87.890625
951		97.656250
952		85.937500
953		91.796875
954		82.031250
955		89.843750
956		80.078125
957		83.984375
958		74.218750
959		82.031250
960		72.265625
961		78.125000
962		66.406250
963		76.171875
964		64.453125
965		72.265625
966		58.593750
967		68.359375
968		54.687500
969		64.453125
970		52.734375
971		60.546875
972		48.828125
973		54.687500
974		44.921875
975		50.781250
976		39.062500
977		46.875000
978		35.156250
979		44.921875
980		29.296875
981		41.015625
982		27.343750
983		35.156250
984		21.484375
985		31.250000
986		17.578125
987		27.343750
988		15.625000
989		21.484375
990		9.765625
991		17.578125
992		3.906250
993		13.671875
994		1.953125
995		7.812500
996		-3.906250
997		5.859375
998		-7.812500
999		0.000000
1000		-13.671875
1001		-3.906250
1002		-17.578125
1003		-7.812500
1004		-19.531250
1005		-13.671875
1006		-25.390625
1007		-17.578125
1008		-29.296875
1009		-23.437500
1010		-35.156250
1011		-25.390625
1012		-41.015625
1013		-31.250000
1014		-44.921875
1015		-35.156250
1016		-48.828125
1017		-39.062500
1018		-54.687500
1019		-44.921875
1020		-56.640625
1021		-48.828125
1022		-60.546875
1023		-54.687500
1024		-64.453125
1025		-58.593750
1026		-70.312500
1027		-62.500000
1028		-76.171875
1029		-66.406250
1030		-80.078125
1031		-70.312500
1032		-82.031250
1033		-76.171875
1034		-87.890625
1035		-78.125000
1036		-91.796875
1037		-83.984375
1038		-93.750000
1039		-85.937500
1040		-97.656250
1041		-91.796875
1042		-103.515625
1043		-95.703125
1044		-107.421875
1045		-99.609375
1046		-111.328125
1047		-101.562500
1048		-115.234375
1049		-105.468750
1050		-119.140625
1051		-111.328125
1052		-123.046875
1053		-113.281250
1054		-125.000000
1055		-117.187500
1056		-128.906250
1057		-123.046875
1058		-130.859375
1059		-125.000000
1060		-134.765625
1061		-126.953125
1062		-138.671875
1063		-130.859375
1064		-142.578125
1065		-134.765625
1066		-146.484375
1067		-136.718750
1068		-148.437500
1069		-140.625000
1070		-150.390625
1071		-142.578125
1072		-152.343750
1073		-146.484375
1074		-154.296875
1075		-150.390625
1076		-158.203125
1077		-150.390625
1078		-162.109375
1079		-152.343750
1080		-164.062500
1081		-156.250000
1082		-166.015625
1083		-156.250000
1084		-167.968750
1085		-160.156250
1086		-169.921875
1087		-162.109375
1088		-169.921875
1089		-164.062500
1090		-171.875000
1091		-166.015625
1092		-171.875000
1093		-167.968750
1094		-175.781250
1095		-167.968750
1096		-175.781250
1097		-167.968750
1098		-177.734375
1099		-169.921875
1100		-177.734375
1101		-171.875000
1102		-179.687500
1103		-171.875000
1104		-179.687500
1105		-173.828125
1106		-179.687500
1107		-175.781250
1108		-179.687500
1109		-175.781250
1110		-181.640625
1111		-175.781250
1112		-181.640625
1113		-175.781250
1114		-181.640625
1115		-175.781250
1116		-181.640625
1117		-175.781250
1118		-181.640625
1119		-173.828125
1120		-181.640625
1121		-173.828125
1122		-179.687500
1123		-175.781250
1124		-177.734375
1125		-175.781250
1126		-179.687500
1127		-171.875000
1128		-177.734375
1129		-171.875000
1130		-177.734375
1131		-169.921875
1132		-177.734375
1133		-169.921875
1134		-173.828125
1135		-167.968750
1136		-173.828125
1137		-166.015625
1138		-171.875000
1139		-166.015625
1140		-167.968750
1141		-164.062500
1142		-166.015625
1143		-162.109375
1144		-166.015625
1145		-158.203125
1146		-164.062500
1147		-156.250000
1148		-162.109375
1149		-154.296875
1150		-160.156250
1151		-152.343750
1152		-156.250000
1153		-150.390625
1154		-154.296875
1155		-146.484375
1156		-150.390625
1157		-144.531250
1158		-148.437500
1159		-142.578125
1160		-144.531250
1161		-138.671875
1162		-142.578125
1163		-134.765625
1164		-138.671875
1165		-130.859375
1166		-136.718750
1167		-126.953125
1168		-132.812500
1169		-125.000000
1170		-128.906250
1171		-121.093750
1172		-125.000000
1173		-119.140625
1174		-121.093750
1175		-115.234375
1176		-117.187500
1177		-111.328125
1178		-115.234375
1179		-105.468750
1180		-111.328125
1181		-101.562500
1182		-107.421875
1183		-97.656250
1184		-103.515625
1185		-93.750000
1186		-99.609375
1187		-89.843750
1188		-93.750000
1189		-85.937500
1190		-87.890625
1191		-82.031250
1192		-83.984375
1193		-78.125000
1194		-80.078125
1195		-72.265625
1196		-76.171875
1197		-68.359375
1198		-74.218750
1199		-64.453125
1200		-68.359375
1201		-58.593750
1202		-64.453125
1203		-54.687500
1204		-58.593750
1205		-50.781250
1206		-54.687500
1207		-46.875000
1208		-48.828125
1209		-42.968750
1210		-44.921875
1211		-35.156250
1212		-41.015625
1213		-31.250000
1214		-35.156250
1215		-27.343750
1216		-31.250000
1217		-23.437500
1218		-27.343750
1219		-17.578125
1220		-23.437500
1221		-13.671875
1222		-19.531250
1223		-9.765625
1224		-11.718750
1225		-5.859375
1226		-7.812500
1227		-1.953125
1228		-3.906250
1229		3.906250
1230		-1.953125
1231		7.812500
1232		3.906250
1233		13.671875
1234		9.765625
1235		17.578125
1236		13.671875
1237		21.484375
1238		17.578125
1239		27.343750
1240		21.484375
1241		29.296875
1242		27.343750
1243		33.203125
1244		31.250000
1245		39.062500
1246		33.203125
1247		42.968750
1248		39.062500
1249		46.875000
1250		42.968750
1251		50.781250
1252		46.875000
1253		54.687500
1254		50.781250
1255		60.546875
1256		54.687500
1257		62.500000
1258		60.546875
1259		66.406250
1260		64.453125
1261		68.359375
1262		66.406250
1263		74.218750
1264		70.312500
1265		78.125000
1266		72.265625
1267		82.031250
1268		76.171875
1269		83.984375
1270		80.078125
1271		87.890625
1272		83.984375
1273		91.796875
1274		87.890625
1275		93.750000
1276		91.796875
1277		95.703125
1278		93.750000
1279		101.562500
1280		95.703125
1281		105.468750
1282		97.656250
1283		105.468750
1284		101.562500
1285		109.375000
1286		103.515625
1287		111.328125
1288		107.421875
1289		113.281250
1290		109.375000
1291		115.234375
1292		113.281250
1293		119.140625
1294		115.234375
1295		121.093750
1296		117.187500
1297		125.000000
1298		119.140625
1299		126.953125
1300		121.093750
1301		128.906250
1302		123.046875
1303		130.859375
1304		125.000000
1305		132.812500
1306		126.953125
1307		132.812500
1308		130.859375
1309		134.765625
1310		132.812500
1311		136.718750
1312		132.812500
1313		138.671875
1314		134.765625
1315		140.625000
1316		136.718750
1317		142.578125
1318		136.718750
1319		142.578125
1320		138.671875
1321		146.484375
1322		138.671875
1323		146.484375
1324		140.625000
1325		146.484375
1326		142.578125
1327		146.484375
1328		144.531250
1329		148.437500
1330		142.578125
1331		150.390625
1332		144.531250
1333		150.390625
1334		144.531250
1335		152.343750
1336		144.531250
1337		152.343750
1338		146.484375
1339		152.343750
1340		146.484375
1341		152.343750
1342		148.437500
1343		152.343750
1344		148.437500
1345		152.343750
1346		146.484375
1347		154.296875
1348		146.484375
1349		154.296875
1350		146.484375
1351		154.296875
1352		146.484375
1353		154.296875
1354		146.484375
1355		152.343750
1356		146.484375
1357		152.343750
1358		146.484375
1359		152.343750
1360		146.484375
1361		150.390625
1362		144.531250
1363		150.390625
1364		144.531250
1365		150.390625
1366		144.531250
1367		150.390625
1368		142.578125
1369		150.390625
1370		140.625000
1371		148.437500
1372		140.625000
1373		146.484375
1374		140.625000
1375		146.484375
1376		140.625000
1377		144.531250
1378		136.718750
1379		142.578125
1380		136.718750
1381		142.578125
1382		134.765625
1383		140.625000
1384		132.812500
1385		138.671875
1386		130.859375
1387		138.671875
1388		128.906250
1389		136.718750
1390		126.953125
1391		134.765625
1392		126.953125
1393		130.859375
1394		125.000000
1395		128.906250
1396		121.093750
1397		128.906250
1398		119.140625
1399		126.953125
1400		117.187500
1401		125.000000
1402		115.234375
1403		123.046875
1404		111.328125
1405		119.140625
1406		109.375000
1407		117.187500
1408		109.375000
1409		115.234375
1410		105.468750
1411		111.328125
1412		101.562500
1413		107.421875
1414		97.656250
1415		107.421875
1416		95.703125
1417		103.515625
1418		91.796875
1419		99.609375
1420		87.890625
1421		97.656250
1422		85.937500
1423		93.750000
1424		83.984375
1425		91.796875
1426		80.078125
1427		85.937500
1428		78.125000
1429		82.031250
1430		72.265625
1431		80.078125
1432		66.406250
1433		78.125000
1434		64.453125
1435		72.265625
1436		60.546875
1437		70.312500
1438		56.640625
1439		64.453125
1440		52.734375
1441		62.500000
1442		50.781250
1443		58.593750
1444		46.875000
1445		52.734375
1446		41.015625
1447		48.828125
1448		37.109375
1449		46.875000
1450		33.203125
1451		41.015625
1452		27.343750
1453		37.109375
1454		25.390625
1455		33.203125
1456		19.531250
1457		29.296875
1458		15.625000
1459		25.390625
1460		13.671875
1461		19.531250
1462		5.859375
1463		15.625000
1464		1.953125
1465		11.718750
1466		-1.953125
1467		5.859375
1468		-5.859375
1469		1.953125
1470		-11.718750
1471		-1.953125
1472		-15.625000
1473		-7.812500
1474		-19.531250
1475		-11.718750
1476		-23.437500
1477		-15.625000
1478		-27.343750
1479		-21.484375
1480		-33.203125
1481		-25.390625
1482		-39.062500
1483		-29.296875
1484		-42.968750
1485		-35.156250
1486		-46.875000
1487		-37.109375
1488		-50.781250
1489		-41.015625
1490		-56.640625
1491		-46.875000
1492		-58.593750
1493		-50.781250
1494		-62.500000
1495		-56.640625
1496		-68.359375
1497		-60.546875
1498		-74.218750
1499		-64.453125
1500		-76.171875
1501		-68.359375
1502		-82.031250
1503		-74.218750
1504		-85.937500
1505		-78.125000
1506		-89.843750
1507		-80.078125
1508		-93.750000
1509		-85.937500
1510		-95.703125
1511		-89.843750
1512		-99.609375
1513		-95.703125
1514		-107.421875
1515		-97.656250
1516		-109.375000
1517		-101.562500
1518		-113.281250
1519		-105.468750
1520		-117.187500
1521		-109.375000
1522		-121.093750
1523		-113.281250
1524		-123.046875
1525		-117.187500
1526		-126.953125
1527		-119.140625
1528		-130.859375
1529		-125.000000
1530		-134.765625
1531		-126.953125
1532		-136.718750
1533		-130.859375
1534		-140.625000
1535		-132.812500
1536		-144.531250
1537		-136.718750
1538		-148.437500
1539		-138.671875
1540		-150.390625
1541		-142.578125
1542		-152.343750
1543		-144.531250
1544		-154.296875
1545		-148.437500
1546		-156.250000
1547		-152.343750
1548		-160.156250
1549		-152.343750
1550		-164.062500
1551		-154.296875
1552		-166.015625
1553		-156.250000
1554		-166.015625
1555		-158.203125
1556		-169.921875
1557		-162.109375
1558		-171.875000
1559		-164.062500
1560		-169.921875
1561		-166.015625
1562		-171.875000
1563		-167.968750
1564		-175.781250
1565		-167.968750
1566		-175.781250
1567		-169.921875
1568		-177.734375
1569		-171.875000
1570		-179.687500
1571		-171.875000
1572		-179.687500
1573		-171.875000
1574		-179.687500
1575		-173.828125
1576		-179.687500
1577		-173.828125
1578		-179.687500
1579		-175.781250
1580		-181.640625
1581		-175.781250
1582		-181.640625
1583		-175.781250
1584		-183.593750
1585		-175.781250
1586		-183.593750
1587		-175.781250
1588		-183.593750
1589		-175.781250
1590		-181.640625
1591		-175.781250
1592		-181.640625
1593		-175.781250
1594		-179.687500
1595		-175.781250
1596		-177.734375
1597		-175.781250
1598		-179.687500
1599		-171.875000
1600		-179.687500
1601		-171.875000
1602		-177.734375
1603		-171.875000
1604		-175.781250
1605		-169.921875
1606		-175.781250
1607		-167.968750
1608		-173.828125
1609		-166.015625
1610		-171.875000
1611		-166.015625
1612		-167.968750
1613		-164.062500
1614		-167.968750
1615		-162.109375
1616		-166.015625
1617		-158.203125
1618		-164.062500
1619		-156.250000
1620		-162.109375
1621		-154.296875
1622		-160.156250
1623		-152.343750
1624		-156.250000
1625		-150.390625
1626		-154.296875
1627		-148.437500
1628		-150.390625
1629		-144.531250
1630		-146.484375
1631		-140.625000
1632		-146.484375
1633		-138.671875
1634		-142.578125
1635		-134.765625
1636		-138.671875
1637		-132.812500
1638		-136.718750
1639		-128.906250
1640		-130.859375
1641		-125.000000
1642		-128.906250
1643		-121.093750
1644		-125.000000
1645		-119.140625
1646		-121.093750
1647		-115.234375
1648		-119.140625
1649		-109.375000
1650		-113.281250
1651		-105.468750
1652		-111.328125
1653		-101.562500
1654		-107.421875
1655		-97.656250
1656		-101.562500
1657		-93.750000
1658		-97.656250
1659		-89.843750
1660		-93.750000
1661		-85.937500
1662		-87.890625
1663		-82.031250
1664		-83.984375
1665		-76.171875
1666		-80.078125
1667		-72.265625
1668		-76.171875
1669		-68.359375
1670		-72.265625
1671		-64.453125
1672		-68.359375
1673		-58.593750
1674		-62.500000
1675		-52.734375
1676		-58.593750
1677		-50.781250
1678		-52.734375
1679		-46.875000
1680		-46.875000
1681		-41.015625
1682		-44.921875
1683		-35.156250
1684		-41.015625
1685		-31.250000
1686		-35.156250
1687		-27.343750
1688		-31.250000
1689		-21.484375
1690		-25.390625
1691		-15.625000
1692		-23.437500
1693		-13.671875
1694		-17.578125
1695		-9.765625
1696		-11.718750
1697		-5.859375
1698		-7.812500
1699		1.953125
1700		-3.906250
1701		3.906250
1702		0.000000
1703		9.765625
1704		5.859375
1705		13.671875
1706		9.765625
1707		19.531250
1708		13.671875
1709		23.437500
1710		17.578125
1711		25.390625
1712		23.437500
1713		29.296875
1714		27.343750
1715		35.156250
1716		31.250000
1717		39.062500
1718		35.156250
1719		44.921875
1720		39.062500
1721		46.875000
1722		42.968750
1723		50.781250
1724		46.875000
1725		56.640625
1726		50.781250
1727		58.593750
1728		56.640625
1729		62.500000
1730		60.546875
1731		66.406250
1732		64.453125
1733		70.312500
1734		66.406250
1735		74.218750
1736		70.312500
1737		80.078125
1738		74.218750
1739		82.031250
1740		78.125000
1741		85.937500
1742		80.078125
1743		87.890625
1744		83.984375
1745		89.843750
1746		87.890625
1747		93.750000
1748		91.796875
1749		97.656250
1750		93.750000
1751		101.562500
1752		95.703125
1753		103.515625
1754		97.656250
1755		105.468750
1756		101.562500
1757		109.375000
1758		103.515625
1759		113.281250
1760		107.421875
1761		115.234375
1762		111.328125
1763		117.187500
1764		113.281250
1765		119.140625
1766		115.234375
1767		123.046875
1768		117.187500
1769		125.000000
1770		119.140625
1771		126.953125
1772		123.046875
1773		128.906250
1774		123.046875
1775		130.859375
1776		125.000000
1777		132.812500
1778		126.953125
1779		132.812500
1780		130.859375
1781		134.765625
1782		130.859375
1783		138.671875
1784		132.812500
1785		138.671875
1786		134.765625
1787		140.625000
1788		134.765625
1789		142.578125
1790		136.718750
1791		144.531250
1792		138.671875
1793		144.531250
1794		140.625000
1795		144.531250
1796		142.578125
1797		144.531250
1798		142.578125
1799		146.484375
1800		140.625000
1801		148.437500
1802		142.578125
1803		150.390625
1804		144.531250
1805		150.390625
1806		144.531250
1807		152.343750
1808		144.531250
1809		152.343750
1810		146.484375
1811		152.343750
1812		146.484375
1813		150.390625
1814		148.437500
1815		150.390625
1816		146.484375
1817		154.296875
1818		146.484375
1819		152.343750
1820		144.531250
1821		152.343750
1822		146.484375
1823		152.343750
1824		146.484375
1825		152.343750
1826		146.484375
1827		152.343750
1828		146.484375
1829		152.343750
1830		146.484375
1831		150.390625
1832		146.484375
1833		150.390625
1834		144.531250
1835		150.390625
1836		144.531250
1837		150.390625
1838		142.578125
1839		148.437500
1840		142.578125
1841		148.437500
1842		140.625000
1843		148.437500
1844		140.625000
1845		146.484375
1846		140.625000
1847		144.531250
1848		138.671875
1849		142.578125
1850		136.718750
1851		142.578125
1852		134.765625
1853		142.578125
1854		132.812500
1855		140.625000
1856		130.859375
1857		138.671875
1858		128.906250
1859		136.718750
1860		128.906250
1861		134.765625
1862		128.906250
1863		132.812500
1864		126.953125
1865		130.859375
1866		123.046875
1867		128.906250
1868		121.093750
1869		126.953125
1870		117.187500
1871		125.000000
1872		115.234375
1873		123.046875
1874		113.281250
1875		121.093750
1876		109.375000
1877		117.187500
1878		109.375000
1879		115.234375
1880		107.421875
1881		111.328125
1882		103.515625
1883		109.375000
1884		99.609375
1885		109.375000
1886		97.656250
1887		105.468750
1888		93.750000
1889		101.562500
1890		91.796875
1891		99.609375
1892		87.890625
1893		95.703125
1894		83.984375
1895		91.796875
1896		82.031250
1897		87.890625
1898		78.125000
1899		83.984375
1900		74.218750
1901		80.078125
1902		70.312500
1903		78.125000
1904		66.406250
1905		74.218750
1906		62.500000
1907		72.265625
1908		58.593750
1909		66.406250
1910		54.687500
1911		62.500000
1912		52.734375
1913		60.546875
1914		48.828125
1915		54.687500
1916		42.968750
1917		50.781250
1918		37.109375
1919		46.875000
1920		35.156250
1921		44.921875
1922		29.296875
1923		41.015625
1924		27.343750
1925		35.156250
1926		23.437500
1927		31.250000
1928		17.578125
1929		27.343750
1930		15.625000
1931		21.484375
1932		9.765625
1933		17.578125
1934		5.859375
1935		13.671875
1936		0.000000
1937		9.765625
1938		-3.906250
1939		3.906250
1940		-7.812500
1941		1.953125
1942		-13.671875
1943		-3.906250
1944		-17.578125
1945		-7.812500
1946		-21.484375
1947		-13.671875
1948		-25.390625
1949		-19.531250
1950		-31.250000
1951		-23.437500
1952		-35.156250
1953		-27.343750
1954		-39.062500
1955		-31.250000
1956		-42.968750
1957		-35.156250
1958		-48.828125
1959		-39.062500
1960		-54.687500
1961		-44.921875
1962		-56.640625
1963		-46.875000
1964		-60.546875
1965		-54.687500
1966		-66.406250
1967		-58.593750
1968		-70.312500
1969		-62.500000
1970		-74.218750
1971		-66.406250
1972		-78.125000
1973		-70.312500
1974		-83.984375
1975		-74.218750
1976		-87.890625
1977		-80.078125
1978		-91.796875
1979		-82.031250
1980		-93.750000
1981		-87.890625
1982		-97.656250
1983		-91.796875
1984		-103.515625
1985		-95.703125
1986		-109.375000
1987		-99.609375
1988		-111.328125
1989		-103.515625
1990		-115.234375
1991		-107.421875
1992		-119.140625
1993		-109.375000
1994		-121.093750
1995		-113.281250
1996		-125.000000
1997		-117.187500
1998		-126.953125
1999		-123.046875
2000		-134.765625
2001		-126.953125
2002		-134.765625
2003		-128.906250
2004		-138.671875
2005		-130.859375
2006		-140.625000
2007		-134.765625
2008		-144.531250
2009		-136.718750
2010		-148.437500
2011		-140.625000
2012		-150.390625
2013		-142.578125
2014		-152.343750
2015		-146.484375
2016		-154.296875
2017		-150.390625
2018		-158.203125
2019		-152.343750
2020		-160.156250
2021		-154.296875
2022		-164.062500
2023		-156.250000
2024		-166.015625
2025		-158.203125
2026		-167.968750
2027		-160.156250
2028		-169.921875
2029		-162.109375
2030		-169.921875
2031		-164.062500
2032		-171.875000
2033		-167.968750
2034		-173.828125
2035		-167.968750
2036		-175.781250
2037		-169.921875
2038		-175.781250
2039		-169.921875
2040		-177.734375
2041		-171.875000
2042		-179.687500
2043		-171.875000
2044		-179.687500
2045		-173.828125
2046		-181.640625
2047		-173.828125
2048		-179.687500
2049		-175.781250
2050		-179.687500
2051		-175.781250
2052		-183.593750
2053		-175.781250
2054		-181.640625
2055		-175.781250
2056		-183.593750
2057		-175.781250
2058		-183.593750
2059		-175.781250
2060		-181.640625
2061		-175.781250
2062		-181.640625
2063		-175.781250
2064		-181.640625
2065		-175.781250
2066		-179.687500
2067		-175.781250
2068		-179.687500
2069		-173.828125
2070		-179.687500
2071		-171.875000
2072		-179.687500
2073		-171.875000
2074		-177.734375
2075		-169.921875
2076		-175.781250
2077		-167.968750
2078		-175.781250
2079		-167.968750
2080		-173.828125
2081		-166.015625
2082		-169.921875
2083		-166.015625
2084		-167.968750
2085		-162.109375
2086		-167.968750
2087		-160.156250
2088		-166.015625
2089		-158.203125
2090		-162.109375
2091		-156.250000
2092		-160.156250
2093		-154.296875
2094		-158.203125
2095		-150.390625
2096		-156.250000
2097		-148.437500
2098		-152.343750
2099		-146.484375
2100		-148.437500
2101		-142.578125
2102		-146.484375
2103		-140.625000
2104		-144.531250
2105		-134.765625
2106		-140.625000
2107		-132.812500
2108		-136.718750
2109		-130.859375
2110		-134.765625
2111		-126.953125
2112		-132.812500
2113		-123.046875
2114		-126.953125
2115		-121.093750
2116		-123.046875
2117		-117.187500
2118		-119.140625
2119		-111.328125
2120		-117.187500
2121		-107.421875
2122		-113.281250
2123		-103.515625
2124		-107.421875
2125		-99.609375
2126		-103.515625
2127		-95.703125
2128		-101.562500
2129		-91.796875
2130		-95.703125
2131		-87.890625
2132		-91.796875
2133		-83.984375
2134		-85.937500
2135		-80.078125
2136		-83.984375
2137		-74.218750
2138		-80.078125
2139		-70.312500
2140		-74.218750
2141		-66.406250
2142		-70.312500
2143		-60.546875
2144		-66.406250
2145		-56.640625
2146		-60.546875
2147		-52.734375
2148		-56.640625
2149		-48.828125
2150		-50.781250
2151		-44.921875
2152		-46.875000
2153		-39.062500
2154		-42.968750
2155		-35.156250
2156		-39.062500
2157		-29.296875
2158		-35.156250
2159		-25.390625
2160		-29.296875
2161		-19.531250
2162		-23.437500
2163		-15.625000
2164		-19.531250
2165		-11.718750
2166		-13.671875
2167		-7.812500
2168		-9.765625
2169		-1.953125
2170		-5.859375
2171		1.953125
2172		-1.953125
2173		5.859375
2174		1.953125
2175		9.765625
2176		5.859375
2177		17.578125
2178		9.765625
2179		21.484375
2180		15.625000
2181		25.390625
2182		21.484375
2183		27.343750
2184		25.390625
2185		31.250000
2186		29.296875
2187		37.109375
2188		33.203125
2189		41.015625
2190		37.109375
2191		44.921875
2192		41.015625
2193		48.828125
2194		44.921875
2195		52.734375
2196		48.828125
2197		56.640625
2198		52.734375
2199		60.546875
2200		58.593750
2201		64.453125
2202		62.500000
2203		68.359375
2204		64.453125
2205		72.265625
2206		68.359375
2207		76.171875
2208		72.265625
2209		80.078125
2210		74.218750
2211		82.031250
2212		78.125000
2213		85.937500
2214		80.078125
2215		87.890625
2216		85.937500
2217		91.796875
2218		89.843750
2219		93.750000
2220		89.843750
2221		99.609375
2222		93.750000
2223		101.562500
2224		95.703125
2225		105.468750
2226		99.609375
2227		107.421875
2228		103.515625
2229		109.375000
2230		105.468750
2231		113.281250
2232		107.421875
2233		115.234375
2234		113.281250
2235		117.187500
2236		115.234375
2237		121.093750
2238		115.234375
2239		123.046875
2240		117.187500
2241		126.953125
2242		121.093750
2243		126.953125
2244		123.046875
2245		130.859375
2246		125.000000
2247		130.859375
2248		125.000000
2249		132.812500
2250		128.906250
2251		134.765625
2252		130.859375
2253		136.718750
2254		130.859375
2255		138.671875
2256		132.812500
2257		138.671875
2258		134.765625
2259		140.625000
2260		134.765625
2261		142.578125
2262		138.671875
2263		144.531250
2264		138.671875
2265		146.484375
2266		140.625000
2267		144.531250
2268		142.578125
2269		146.484375
2270		140.625000
2271		148.437500
2272		142.578125
2273		148.437500
2274		142.578125
2275		150.390625
2276		144.531250
2277		150.390625
2278		144.531250
2279		152.343750
2280		146.484375
2281		152.343750
2282		146.484375
2283		150.390625
2284		148.437500
2285		150.390625
2286		146.484375
2287		152.343750
2288		146.484375
2289		154.296875
2290		146.484375
2291		152.343750
2292		146.484375
2293		154.296875
2294		146.484375
2295		154.296875
2296		146.484375
2297		152.343750
2298		144.531250
2299		152.343750
2300		148.437500
2301		150.390625
2302		146.484375
2303		150.390625
2304		144.531250
2305		152.343750
2306		144.531250
2307		150.390625
2308		142.578125
2309		150.390625
2310		142.578125
2311		150.390625
2312		140.625000
2313		148.437500
2314		140.625000
2315		148.437500
2316		140.625000
2317		146.484375
2318		140.625000
2319		144.531250
2320		136.718750
2321		142.578125
2322		136.718750
2323		142.578125
2324		132.812500
2325		142.578125
2326		132.812500
2327		140.625000
2328		130.859375
2329		138.671875
2330		130.859375
2331		136.718750
2332		128.906250
2333		134.765625
2334		126.953125
2335		132.812500
2336		125.000000
2337		130.859375
2338		121.093750
2339		128.906250
2340		119.140625
2341		126.953125
2342		117.187500
2343		125.000000
2344		115.234375
2345		123.046875
2346		113.281250
2347		121.093750
2348		109.375000
2349		119.140625
2350		109.375000
2351		113.281250
2352		107.421875
2353		111.328125
2354		103.515625
2355		109.375000
2356		99.609375
2357		107.421875
2358		95.703125
2359		103.515625
2360		93.750000
2361		101.562500
2362		89.843750
2363		97.656250
2364		85.937500
2365		95.703125
2366		83.984375
2367		91.796875
2368		82.031250
2369		87.890625
2370		76.171875
2371		83.984375
2372		74.218750
2373		80.078125
2374		70.312500
2375		78.125000
2376		66.406250
2377		74.218750
2378		62.500000
2379		70.312500
2380		56.640625
2381		66.406250
2382		54.687500
2383		62.500000
2384		50.781250
2385		56.640625
2386		46.875000
2387		52.734375
2388		41.015625
2389		50.781250
2390		37.109375
2391		46.875000
2392		33.203125
2393		42.968750
2394		29.296875
2395		37.109375
2396		25.390625
2397		35.156250
2398		21.484375
2399		29.296875
2400		17.578125
2401		25.390625
2402		13.671875
2403		19.531250
2404		7.812500
2405		15.625000
2406		1.953125
2407		13.671875
2408		-1.953125
2409		7.812500
2410		-5.859375
2411		3.906250
2412		-9.765625
2413		-1.953125
2414		-15.625000
2415		-3.906250
2416		-17.578125
2417		-9.765625
2418		-21.484375
2419		-15.625000
2420		-27.343750
2421		-19.531250
2422		-33.203125
2423		-23.437500
2424		-37.109375
2425		-27.343750
2426		-41.015625
2427		-31.250000
2428		-44.921875
2429		-37.109375
2430		-48.828125
2431		-41.015625
2432		-54.687500
2433		-46.875000
2434		-56.640625
2435		-50.781250
2436		-62.500000
2437		-54.687500
2438		-66.406250
2439		-60.546875
2440		-72.265625
2441		-64.453125
2442		-76.171875
2443		-66.406250
2444		-82.031250
2445		-72.265625
2446		-85.937500
2447		-76.171875
2448		-87.890625
2449		-80.078125
2450		-91.796875
2451		-83.984375
2452		-95.703125
2453		-89.843750
2454		-101.562500
2455		-93.750000
2456		-105.468750
2457		-95.703125
2458		-109.375000
2459		-99.609375
2460		-113.281250
2461		-103.515625
2462		-115.234375
2463		-107.421875
2464		-119.140625
2465		-111.328125
2466		-123.046875
2467		-115.234375
2468		-125.000000
2469		-119.140625
2470		-128.906250
2471		-123.046875
2472		-134.765625
2473		-126.953125
2474		-136.718750
2475		-128.906250
2476		-140.625000
2477		-130.859375
2478		-142.578125
2479		-134.765625
2480		-146.484375
2481		-138.671875
2482		-150.390625
2483		-140.625000
2484		-150.390625
2485		-144.531250
2486		-152.343750
2487		-148.437500
2488		-156.250000
2489		-150.390625
2490		-160.156250
2491		-152.343750
2492		-162.109375
2493		-154.296875
2494		-164.062500
2495		-156.250000
2496		-166.015625
2497		-158.203125
2498		-167.968750
2499		-160.156250
2500		-167.968750
2501		-162.109375
2502		-169.921875
2503		-166.015625
2504		-171.875000
2505		-167.968750
2506		-175.781250
2507		-167.968750
2508		-177.734375
2509		-169.921875
2510		-177.734375
2511		-169.921875
2512		-177.734375
2513		-171.875000
2514		-179.687500
2515		-171.875000
2516		-179.687500
2517		-173.828125
2518		-179.687500
2519		-175.781250
2520		-179.687500
2521		-175.781250
2522		-181.640625
2523		-175.781250
2524		-183.593750
2525		-175.781250
2526		-181.640625
2527		-175.781250
2528		-183.593750
2529		-175.781250
2530		-181.640625
2531		-175.781250
2532		-181.640625
2533		-175.781250
2534		-181.640625
2535		-175.781250
2536		-179.687500
2537		-175.781250
2538		-179.687500
2539		-173.828125
2540		-179.687500
2541		-173.828125
2542		-179.687500
2543		-171.875000
2544		-177.734375
2545		-169.921875
2546		-177.734375
2547		-167.968750
2548		-175.781250
2549		-169.921875
2550		-173.828125
2551		-166.015625
2552		-169.921875
2553		-166.015625
2554		-167.968750
2555		-164.062500
2556		-167.968750
2557		-162.109375
2558		-167.968750
2559		-160.156250
2560		-166.015625
2561		-156.250000
2562		-162.109375
2563		-154.296875
2564		-160.156250
2565		-152.343750
2566		-156.250000
2567		-150.390625
2568		-154.296875
2569		-148.437500
2570		-150.390625
2571		-146.484375
2572		-148.437500
2573		-140.625000
2574		-146.484375
2575		-138.671875
2576		-142.578125
2577		-136.718750
2578		-140.625000
2579		-132.812500
2580		-136.718750
2581		-128.906250
2582		-134.765625
2583		-125.000000
2584		-128.906250
2585		-123.046875
2586		-125.000000
2587		-119.140625
2588		-121.093750
2589		-115.234375
2590		-121.093750
2591		-111.328125
2592		-115.234375
2593		-107.421875
2594		-111.328125
2595		-103.515625
2596		-107.421875
2597		-99.609375
2598		-105.468750
2599		-93.750000
2600		-99.609375
2601		-89.843750
2602		-93.750000
2603		-87.890625
2604		-89.843750
2605		-83.984375
2606		-85.937500
2607		-78.125000
2608		-82.031250
2609		-72.265625
2610		-76.171875
2611		-68.359375
2612		-74.218750
2613		-64.453125
2614		-68.359375
2615		-60.546875
2616		-64.453125
2617		-56.640625
2618		-60.546875
2619		-52.734375
2620		-54.687500
2621		-46.875000
2622		-48.828125
2623		-41.015625
2624		-46.875000
2625		-37.109375
2626		-41.015625
2627		-33.203125
2628		-37.109375
2629		-27.343750
2630		-31.250000
2631		-23.437500
2632		-27.343750
2633		-19.531250
2634		-23.437500
2635		-13.671875
2636		-17.578125
2637		-9.765625
2638		-13.671875
2639		-5.859375
2640		-9.765625
2641		-1.953125
2642		-5.859375
2643		3.906250
2644		0.000000
2645		7.812500
2646		1.953125
2647		13.671875
2648		9.765625
2649		17.578125
2650		13.671875
2651		21.484375
2652		17.578125
2653		25.390625
2654		23.437500
2655		29.296875
2656		27.343750
2657		35.156250
2658		29.296875
2659		39.062500
2660		33.203125
2661		41.015625
2662		39.062500
2663		46.875000
2664		41.015625
2665		52.734375
2666		46.875000
2667		54.687500
2668		48.828125
2669		58.593750
2670		54.687500
2671		62.500000
2672		58.593750
2673		64.453125
2674		62.500000
2675		70.312500
2676		66.406250
2677		74.218750
2678		68.359375
2679		76.171875
2680		72.265625
2681		82.031250
2682		76.171875
2683		83.984375
2684		80.078125
2685		87.890625
2686		82.031250
2687		89.843750
2688		87.890625
2689		91.796875
2690		89.843750
2691		97.656250
2692		93.750000
2693		101.562500
2694		95.703125
2695		103.515625
2696		97.656250
2697		105.468750
2698		99.609375
2699		109.375000
2700		103.515625
2701		111.328125
2702		105.468750
2703		113.281250
2704		111.328125
2705		115.234375
2706		113.281250
2707		119.140625
2708		113.281250
2709		121.093750
2710		115.234375
2711		125.000000
2712		119.140625
2713		126.953125
2714		121.093750
2715		126.953125
2716		123.046875
2717		130.859375
2718		125.000000
2719		130.859375
2720		128.906250
2721		132.812500
2722		130.859375
2723		134.765625
2724		130.859375
2725		136.718750
2726		130.859375
2727		138.671875
2728		132.812500
2729		140.625000
2730		134.765625
2731		142.578125
2732		136.718750
2733		142.578125
2734		138.671875
2735		144.531250
2736		138.671875
2737		146.484375
2738		140.625000
2739		144.531250
2740		140.625000
2741		148.437500
2742		142.578125
2743		148.437500
2744		142.578125
2745		148.437500
2746		142.578125
2747		150.390625
2748		144.531250
2749		150.390625
2750		144.531250
2751		152.343750
2752		144.531250
2753		152.343750
2754		148.437500
2755		150.390625
2756		148.437500
2757		150.390625
2758		146.484375
2759		152.343750
2760		146.484375
2761		152.343750
2762		146.484375
2763		154.296875
2764		146.484375
2765		154.296875
2766		146.484375
2767		152.343750
2768		146.484375
2769		152.343750
2770		146.484375
2771		152.343750
2772		146.484375
2773		150.390625
2774		144.531250
2775		150.390625
2776		144.531250
2777		150.390625
2778		142.578125
2779		150.390625
2780		142.578125
2781		148.437500
2782		142.578125
2783		148.437500
2784		140.625000
2785		148.437500
2786		140.625000
2787		146.484375
2788		140.625000
2789		144.531250
2790		138.671875
2791		144.531250
2792		136.718750
2793		142.578125
2794		134.765625
2795		142.578125
2796		134.765625
2797		140.625000
2798		132.812500
2799		140.625000
2800		130.859375
2801		138.671875
2802		128.906250
2803		136.718750
2804		128.906250
2805		132.812500
2806		126.953125
2807		130.859375
2808		123.046875
2809		128.906250
2810		121.093750
2811		128.906250
2812		119.140625
2813		125.000000
2814		117.187500
2815		123.046875
2816		113.281250
2817		121.093750
2818		111.328125
2819		119.140625
2820		109.375000
2821		117.187500
2822		107.421875
2823		111.328125
2824		103.515625
2825		109.375000
2826		99.609375
2827		107.421875
2828		97.656250
2829		105.468750
2830		95.703125
2831		101.562500
2832		91.796875
2833		99.609375
2834		87.890625
2835		95.703125
2836		85.937500
2837		93.750000
2838		82.031250
2839		87.890625
2840		80.078125
2841		85.937500
2842		76.171875
2843		82.031250
2844		72.265625
2845		80.078125
2846		66.406250
2847		76.171875
2848		62.500000
2849		72.265625
2850		60.546875
2851		68.359375
2852		54.687500
2853		64.453125
2854		52.734375
2855		60.546875
2856		48.828125
2857		56.640625
2858		44.921875
2859		52.734375
2860		39.062500
2861		48.828125
2862		35.156250
2863		42.968750
2864		31.250000
2865		41.015625
2866		27.343750
2867		37.109375
2868		23.437500
2869		31.250000
2870		19.531250
2871		29.296875
2872		15.625000
2873		21.484375
2874		9.765625
2875		17.578125
2876		5.859375
2877		13.671875
2878		1.953125
2879		9.765625
2880		-1.953125
2881		5.859375
2882		-7.812500
2883		1.953125
2884		-11.718750
2885		-1.953125
2886		-17.578125
2887		-7.812500
2888		-19.531250
2889		-13.671875
2890		-23.437500
2891		-17.578125
2892		-29.296875
2893		-21.484375
2894		-35.156250
2895		-25.390625
2896		-39.062500
2897		-31.250000
2898		-42.968750
2899		-35.156250
2900		-46.875000
2901		-39.062500
2902		-52.734375
2903		-42.968750
2904		-54.687500
2905		-48.828125
2906		-58.593750
2907		-52.734375
2908		-66.406250
2909		-58.593750
2910		-70.312500
2911		-60.546875
2912		-74.218750
2913		-66.406250
2914		-78.125000
2915		-70.312500
2916		-82.031250
2917		-74.218750
2918		-87.890625
2919		-78.125000
2920		-89.843750
2921		-82.031250
2922		-93.750000
2923		-87.890625
2924		-97.656250
2925		-91.796875
2926		-103.515625
2927		-95.703125
2928		-107.421875
2929		-97.656250
2930		-111.328125
2931		-101.562500
2932		-115.234375
2933		-105.468750
2934		-117.187500
2935		-109.375000
2936		-123.046875
2937		-113.281250
2938		-123.046875
2939		-117.187500
2940		-126.953125
2941		-121.093750
2942		-130.859375
2943		-125.000000
2944		-136.718750
2945		-126.953125
2946		-138.671875
2947		-130.859375
2948		-142.578125
2949		-134.765625
2950		-144.531250
2951		-136.718750
2952		-148.437500
2953		-138.671875
2954		-150.390625
2955		-142.578125
2956		-152.343750
2957		-146.484375
2958		-156.250000
2959		-150.390625
2960		-158.203125
2961		-150.390625
2962		-160.156250
2963		-154.296875
2964		-164.062500
2965		-154.296875
2966		-164.062500
2967		-158.203125
2968		-167.968750
2969		-160.156250
2970		-167.968750
2971		-162.109375
2972		-169.921875
2973		-166.015625
2974		-169.921875
2975		-167.968750
2976		-173.828125
2977		-167.968750
2978		-175.781250
2979		-169.921875
2980		-175.781250
2981		-169.921875
2982		-179.687500
2983		-169.921875
2984		-179.687500
2985		-171.875000
2986		-179.687500
2987		-173.828125
2988		-179.687500
2989		-175.781250
2990		-179.687500
2991		-175.781250
2992		-181.640625
2993		-175.781250
2994		-183.593750
2995		-175.781250
2996		-183.593750
2997		-175.781250
2998		-183.593750
2999		-175.781250
3000		-183.593750
3001		-175.781250
3002		-183.593750
3003		-175.781250
3004		-181.640625
3005		-175.781250
3006		-179.687500
3007		-177.734375
3008		-179.687500
3009		-175.781250
3010		-181.640625
3011		-173.828125
3012		-179.687500
3013		-173.828125
3014		-179.687500
3015		-171.875000
3016		-177.734375
3017		-171.875000
3018		-177.734375
3019		-169.921875
3020		-175.781250
3021		-167.968750
3022		-173.828125
3023		-167.968750
3024		-169.921875
3025		-166.015625
3026		-167.968750
3027		-164.062500
3028		-167.968750
3029		-160.156250
3030		-166.015625
3031		-160.156250
3032		-164.062500
3033		-156.250000
3034		-162.109375
3035		-154.296875
3036		-160.156250
3037		-152.343750
3038		-156.250000
3039		-150.390625
3040		-152.343750
3041		-148.437500
3042		-150.390625
3043		-142.578125
3044		-148.437500
3045		-140.625000
3046		-144.531250
3047		-136.718750
3048		-142.578125
3049		-134.765625
3050		-138.671875
3051		-130.859375
3052		-134.765625
3053		-126.953125
3054		-132.812500
3055		-123.046875
3056		-126.953125
3057		-121.093750
3058		-123.046875
3059		-117.187500
3060		-121.093750
3061		-113.281250
3062		-119.140625
3063		-109.375000
3064		-113.281250
3065		-105.468750
3066		-111.328125
3067		-101.562500
3068		-105.468750
3069		-97.656250
3070		-101.562500
3071		-91.796875
3072		-97.656250
3073		-89.843750
3074		-91.796875
3075		-85.937500
3076		-87.890625
3077		-80.078125
3078		-83.984375
3079		-74.218750
3080		-80.078125
3081		-72.265625
3082		-76.171875
3083		-66.406250
3084		-72.265625
3085		-62.500000
3086		-66.406250
3087		-58.593750
3088		-60.546875
3089		-54.687500
3090		-56.640625
3091		-50.781250
3092		-52.734375
3093		-44.921875
3094		-48.828125
3095		-39.062500
3096		-42.968750
3097		-35.156250
3098		-39.062500
3099		-31.250000
3100		-35.156250
3101		-25.390625
3102		-29.296875
3103		-21.484375
3104		-27.343750
3105		-17.578125
3106		-21.484375
3107		-13.671875
3108		-15.625000
3109		-7.812500
3110		-9.765625
3111		-3.906250
3112		-7.812500
3113		1.953125
3114		-3.906250
3115		5.859375
3116		1.953125
3117		11.718750
3118		3.906250
3119		15.625000
3120		9.765625
3121		17.578125
3122		13.671875
3123		21.484375
3124		19.531250
3125		25.390625
3126		25.390625
3127		31.250000
3128		27.343750
3129		37.109375
3130		31.250000
3131		41.015625
3132		37.109375
3133		44.921875
3134		39.062500
3135		46.875000
3136		44.921875
3137		52.734375
3138		46.875000
3139		56.640625
3140		52.734375
3141		58.593750
3142		56.640625
3143		62.500000
3144		60.546875
3145		66.406250
3146		62.500000
3147		70.312500
3148		68.359375
3149		74.218750
3150		70.312500
3151		78.125000
3152		74.218750
3153		82.031250
3154		78.125000
3155		85.937500
3156		80.078125
3157		87.890625
3158		85.937500
3159		91.796875
3160		89.843750
3161		95.703125
3162		89.843750
3163		97.656250
3164		93.750000
3165		101.562500
3166		95.703125
3167		103.515625
3168		99.609375
3169		107.421875
3170		103.515625
3171		109.375000
3172		103.515625
3173		113.281250
3174		109.375000
3175		113.281250
3176		111.328125
3177		115.234375
3178		113.281250
3179		121.093750
3180		115.234375
3181		123.046875
3182		117.187500
3183		125.000000
3184		119.140625
3185		126.953125
3186		121.093750
3187		128.906250
3188		123.046875
3189		130.859375
3190		126.953125
3191		130.859375
3192		128.906250
3193		132.812500
3194		130.859375
3195		136.718750
3196		130.859375
3197		138.671875
3198		132.812500
3199		138.671875
3200		134.765625
3201		140.625000
3202		136.718750
3203		142.578125
3204		136.718750
3205		144.531250
3206		138.671875
3207		144.531250
3208		140.625000
3209		144.531250
3210		142.578125
3211		146.484375
3212		140.625000
3213		148.437500
3214		142.578125
3215		148.437500
3216		142.578125
3217		150.390625
3218		144.531250
3219		150.390625
3220		144.531250
3221		152.343750
3222		144.531250
3223		152.343750
3224		146.484375
3225		150.390625
3226		148.437500
3227		150.390625
3228		146.484375
3229		152.343750
3230		146.484375
3231		152.343750
3232		146.484375
3233		154.296875
3234		146.484375
3235		152.343750
3236		146.484375
3237		154.296875
3238		146.484375
3239		152.343750
3240		146.484375
3241		152.343750
3242		148.437500
3243		150.390625
3244		146.484375
3245		150.390625
3246		144.531250
3247		152.343750
3248		144.531250
3249		150.390625
3250		144.531250
3251		150.390625
3252		142.578125
3253		150.390625
3254		142.578125
3255		148.437500
3256		140.625000
3257		148.437500
3258		140.625000
3259		144.531250
3260		140.625000
3261		144.531250
3262		138.671875
3263		144.531250
3264		134.765625
3265		144.531250
3266		134.765625
3267		140.625000
3268		132.812500
3269		140.625000
3270		130.859375
3271		138.671875
3272		130.859375
3273		138.671875
3274		130.859375
3275		134.765625
3276		128.906250
3277		132.812500
3278		125.000000
3279		130.859375
3280		123.046875
3281		130.859375
3282		121.093750
3283		126.953125
3284		119.140625
3285		125.000000
3286		115.234375
3287		123.046875
3288		113.281250
3289		121.093750
3290		111.328125
3291		117.187500
3292		109.375000
3293		115.234375
3294		107.421875
3295		111.328125
3296		101.562500
3297		109.375000
3298		99.609375
3299		107.421875
3300		97.656250
3301		103.515625
3302		95.703125
3303		101.562500
3304		91.796875
3305		99.609375
3306		87.890625
3307		95.703125
3308		85.937500
3309		91.796875
3310		82.031250
3311		87.890625
3312		78.125000
3313		83.984375
3314		74.218750
3315		82.031250
3316		70.312500
3317		78.125000
3318		68.359375
3319		74.218750
3320		64.453125
3321		70.312500
3322		60.546875
3323		68.359375
3324		56.640625
3325		62.500000
3326		52.734375
3327		58.593750
3328		46.875000
3329		54.687500
3330		42.968750
3331		52.734375
3332		39.062500
3333		46.875000
3334		35.156250
3335		44.921875
3336		31.250000
3337		39.062500
3338		25.390625
3339		35.156250
3340		23.437500
3341		31.250000
3342		19.531250
3343		25.390625
3344		15.625000
3345		21.484375
3346		7.812500
3347		17.578125
3348		5.859375
3349		13.671875
3350		0.000000
3351		9.765625
3352		-5.859375
3353		5.859375
3354		-9.765625
3355		0.000000
3356		-11.718750
3357		-5.859375
3358		-15.625000
3359		-7.812500
3360		-19.531250
3361		-13.671875
3362		-27.343750
3363		-19.531250
3364		-31.250000
3365		-21.484375
3366		-35.156250
3367		-25.390625
3368		-39.062500
3369		-31.250000
3370		-44.921875
3371		-33.203125
3372		-48.828125
3373		-39.062500
3374		-52.734375
3375		-44.921875
3376		-56.640625
3377		-48.828125
3378		-60.546875
3379		-54.687500
3380		-68.359375
3381		-58.593750
3382		-70.312500
3383		-62.500000
3384		-76.171875
3385		-66.406250
3386		-78.125000
3387		-70.312500
3388		-83.984375
3389		-74.218750
3390		-87.890625
3391		-78.125000
3392		-89.843750
3393		-82.031250
3394		-93.750000
3395		-87.890625
3396		-99.609375
3397		-91.796875
3398		-103.515625
3399		-93.750000
3400		-109.375000
3401		-99.609375
3402		-111.328125
3403		-103.515625
3404		-115.234375
3405		-105.468750
3406		-119.140625
3407		-111.328125
3408		-121.093750
3409		-113.281250
3410		-125.000000
3411		-119.140625
3412		-128.906250
3413		-123.046875
3414		-132.812500
3415		-125.000000
3416		-136.718750
3417		-128.906250
3418		-138.671875
3419		-130.859375
3420		-142.578125
3421		-132.812500
3422		-146.484375
3423		-138.671875
3424		-148.437500
3425		-140.625000
3426		-148.437500
3427		-144.531250
3428		-152.343750
3429		-146.484375
3430		-156.250000
3431		-148.437500
3432		-158.203125
3433		-150.390625
3434		-162.109375
3435		-154.296875
3436		-162.109375
3437		-156.250000
3438		-166.015625
3439		-158.203125
3440		-167.968750
3441		-160.156250
3442		-169.921875
3443		-160.156250
3444		-169.921875
3445		-166.015625
3446		-171.875000
3447		-167.968750
3448		-173.828125
3449		-167.968750
3450		-175.781250
3451		-169.921875
3452		-177.734375
3453		-169.921875
3454		-177.734375
3455		-171.875000
3456		-179.687500
3457		-173.828125
3458		-179.687500
3459		-173.828125
3460		-179.687500
3461		-175.781250
3462		-179.687500
3463		-175.781250
3464		-181.640625
3465		-173.828125
3466		-181.640625
3467		-175.781250
3468		-183.593750
3469		-175.781250
3470		-181.640625
3471		-175.781250
3472		-181.640625
3473		-175.781250
3474		-181.640625
3475		-173.828125
3476		-179.687500
3477		-175.781250
3478		-179.687500
3479		-175.781250
3480		-179.687500
3481		-173.828125
3482		-179.687500
3483		-173.828125
3484		-179.687500
3485		-171.875000
3486		-177.734375
3487		-169.921875
3488		-175.781250
3489		-169.921875
3490		-175.781250
3491		-167.968750
3492		-173.828125
3493		-166.015625
3494		-169.921875
3495		-166.015625
3496		-169.921875
3497		-164.062500
3498		-167.968750
3499		-162.109375
3500		-167.968750
3501		-160.156250
3502		-166.015625
3503		-156.250000
3504		-164.062500
3505		-154.296875
3506		-160.156250
3507		-152.343750
3508		-158.203125
3509		-150.390625
3510		-154.296875
3511		-148.437500
3512		-152.343750
3513		-146.484375
3514		-150.390625
3515		-142.578125
3516		-148.437500
3517		-138.671875
3518		-144.531250
3519		-134.765625
3520		-140.625000
3521		-132.812500
3522		-136.718750
3523		-130.859375
3524		-134.765625
3525		-126.953125
3526		-130.859375
3527		-123.046875
3528		-125.000000
3529		-121.093750
3530		-123.046875
3531		-115.234375
3532		-121.093750
3533		-111.328125
3534		-115.234375
3535		-107.421875
3536		-111.328125
3537		-103.515625
3538		-109.375000
3539		-99.609375
3540		-103.515625
3541		-95.703125
3542		-99.609375
3543		-91.796875
3544		-93.750000
3545		-87.890625
3546		-89.843750
3547		-83.984375
3548		-85.937500
3549		-78.125000
3550		-83.984375
3551		-74.218750
3552		-78.125000
3553		-68.359375
3554		-74.218750
3555		-64.453125
3556		-70.312500
3557		-60.546875
3558		-64.453125
3559		-56.640625
3560		-60.546875
3561		-52.734375
3562		-54.687500
3563		-48.828125
3564		-50.781250
3565		-42.968750
3566		-46.875000
3567		-37.109375
3568		-42.968750
3569		-35.156250
3570		-39.062500
3571		-29.296875
3572		-33.203125
3573		-23.437500
3574		-29.296875
3575		-19.531250
3576		-23.437500
3577		-15.625000
3578		-17.578125
3579		-11.718750
3580		-13.671875
3581		-7.812500
3582		-11.718750
3583		-1.953125
3584		-5.859375
3585		1.953125
3586		-1.953125
3587		7.812500
3588		3.906250
3589		11.718750
3590		7.812500
3591		15.625000
3592		11.718750
3593		21.484375
3594		17.578125
3595		23.437500
3596		21.484375
3597		27.343750
3598		25.390625
3599		33.203125
3600		29.296875
3601		37.109375
3602		33.203125
3603		42.968750
3604		37.109375
3605		46.875000
3606		41.015625
3607		48.828125
3608		44.921875
3609		54.687500
3610		48.828125
3611		56.640625
3612		54.687500
3613		60.546875
3614		58.593750
3615		64.453125
3616		60.546875
3617		68.359375
3618		64.453125
3619		72.265625
3620		68.359375
3621		76.171875
3622		72.265625
3623		80.078125
3624		74.218750
3625		82.031250
3626		80.078125
3627		85.937500
3628		82.031250
3629		87.890625
3630		85.937500
3631		91.796875
3632		89.843750
3633		95.703125
3634		91.796875
3635		99.609375
3636		93.750000
3637		101.562500
3638		97.656250
3639		105.468750
3640		99.609375
3641		107.421875
3642		103.515625
3643		111.328125
3644		105.468750
3645		111.328125
3646		109.375000
3647		115.234375
3648		111.328125
3649		119.140625
3650		113.281250
3651		121.093750
3652		115.234375
3653		123.046875
3654		117.187500
3655		125.000000
3656		119.140625
3657		126.953125
3658		123.046875
3659		128.906250
3660		125.000000
3661		130.859375
3662		126.953125
3663		130.859375
3664		128.906250
3665		132.812500
3666		130.859375
3667		136.718750
3668		130.859375
3669		138.671875
3670		132.812500
3671		138.671875
3672		134.765625
3673		140.625000
3674		134.765625
3675		142.578125
3676		136.718750
3677		144.531250
3678		140.625000
3679		144.531250
3680		140.625000
3681		144.531250
3682		140.625000
3683		146.484375
3684		140.625000
3685		148.437500
3686		142.578125
3687		148.437500
3688		142.578125
3689		150.390625
3690		142.578125
3691		150.390625
3692		144.531250
3693		150.390625
3694		144.531250
3695		150.390625
3696		146.484375
3697		150.390625
3698		146.484375
3699		150.390625
3700		146.484375
3701		152.343750
3702		146.484375
3703		152.343750
3704		146.484375
3705		152.343750
3706		146.484375
3707		152.343750
3708		146.484375
3709		152.343750
3710		146.484375
3711		152.343750
3712		146.484375
3713		150.390625
3714		146.484375
3715		150.390625
3716		144.531250
3717		150.390625
3718		144.531250
3719		150.390625
3720		144.531250
3721		150.390625
3722		142.578125
3723		150.390625
3724		142.578125
3725		148.437500
3726		142.578125
3727		148.437500
3728		140.625000
3729		146.484375
3730		140.625000
3731		144.531250
3732		138.671875
3733		144.531250
3734		136.718750
3735		144.531250
3736		134.765625
3737		142.578125
3738		134.765625
3739		140.625000
3740		132.812500
3741		138.671875
3742		130.859375
3743		138.671875
3744		128.906250
3745		136.718750
3746		128.906250
3747		132.812500
3748		126.953125
3749		130.859375
3750		123.046875
3751		130.859375
3752		121.093750
3753		128.906250
3754		119.140625
3755		126.953125
3756		117.187500
3757		125.000000
3758		115.234375
3759		123.046875
3760		111.328125
3761		119.140625
3762		111.328125
3763		115.234375
3764		107.421875
3765		113.281250
3766		103.515625
3767		111.328125
3768		101.562500
3769		109.375000
3770		97.656250
3771		105.468750
3772		95.703125
3773		103.515625
3774		91.796875
3775		101.562500
3776		87.890625
3777		97.656250
3778		87.890625
3779		93.750000
3780		83.984375
3781		89.843750
3782		80.078125
3783		85.937500
3784		74.218750
3785		83.984375
3786		70.312500
3787		80.078125
3788		68.359375
3789		76.171875
3790		64.453125
3791		72.265625
3792		62.500000
3793		70.312500
3794		56.640625
3795		66.406250
3796		54.687500
3797		60.546875
3798		50.781250
3799		56.640625
3800		44.921875
3801		52.734375
3802		41.015625
3803		50.781250
3804		37.109375
3805		46.875000
3806		33.203125
3807		41.015625
3808		29.296875
3809		37.109375
3810		25.390625
3811		33.203125
3812		21.484375
3813		29.296875
3814		17.578125
3815		23.437500
3816		11.718750
3817		19.531250
3818		7.812500
3819		15.625000
3820		1.953125
3821		11.718750
3822		-1.953125
3823		7.812500
3824		-5.859375
3825		1.953125
3826		-9.765625
3827		-1.953125
3828		-13.671875
3829		-5.859375
3830		-17.578125
3831		-11.718750
3832		-21.484375
3833		-15.625000
3834		-27.343750
3835		-21.484375
3836		-33.203125
3837		-23.437500
3838		-37.109375
3839		-29.296875
3840		-42.968750
3841		-33.203125
3842		-46.875000
3843		-37.109375
3844		-50.781250
3845		-42.968750
3846		-54.687500
3847		-46.875000
3848		-58.593750
3849		-52.734375
3850		-64.453125
3851		-56.640625
3852		-68.359375
3853		-58.593750
3854		-72.265625
3855		-64.453125
3856		-76.171875
3857		-68.359375
3858		-82.031250
3859		-72.265625
3860		-85.937500
3861		-76.171875
3862		-87.890625
3863		-82.031250
3864		-91.796875
3865		-85.937500
3866		-95.703125
3867		-89.843750
3868		-101.562500
3869		-91.796875
3870		-105.468750
3871		-97.656250
3872		-109.375000
3873		-99.609375
3874		-113.281250
3875		-105.468750
3876		-117.187500
3877		-109.375000
3878		-121.093750
3879		-111.328125
3880		-123.046875
3881		-117.187500
3882		-125.000000
3883		-121.093750
3884		-130.859375
3885		-123.046875
3886		-134.765625
3887		-126.953125
3888		-138.671875
3889		-128.906250
3890		-140.625000
3891		-132.812500
3892		-142.578125
3893		-136.718750
3894		-146.484375
3895		-138.671875
3896		-148.437500
3897		-140.625000
3898		-150.390625
3899		-144.531250
3900		-154.296875
3901		-148.437500
3902		-156.250000
3903		-148.437500
3904		-160.156250
3905		-152.343750
3906		-162.109375
3907		-154.296875
3908		-164.062500
3909		-158.203125
3910		-166.015625
3911		-158.203125
3912		-167.968750
3913		-160.156250
3914		-167.968750
3915		-164.062500
3916		-169.921875
3917		-166.015625
3918		-173.828125
3919		-166.015625
3920		-175.781250
3921		-167.968750
3922		-175.781250
3923		-169.921875
3924		-177.734375
3925		-169.921875
3926		-177.734375
3927		-171.875000
3928		-179.687500
3929		-171.875000
3930		-177.734375
3931		-173.828125
3932		-179.687500
3933		-175.781250
3934		-181.640625
3935		-175.781250
3936		-181.640625
3937		-175.781250
3938		-181.640625
3939		-175.781250
3940		-183.593750
3941		-175.781250
3942		-183.593750
3943		-175.781250
3944		-181.640625
3945		-175.781250
3946		-181.640625
3947		-175.781250
3948		-179.687500
3949		-175.781250
3950		-179.687500
3951		-175.781250
3952		-179.687500
3953		-173.828125
3954		-179.687500
3955		-171.875000
3956		-179.687500
3957		-171.875000
3958		-177.734375
3959		-169.921875
3960		-177.734375
3961		-167.968750
3962		-173.828125
3963		-167.968750
3964		-171.875000
3965		-167.968750
3966		-169.921875
3967		-166.015625
3968		-167.968750
3969		-162.109375
3970		-167.968750
3971		-160.156250
3972		-166.015625
3973		-158.203125
3974		-164.062500
3975		-156.250000
3976		-162.109375
3977		-154.296875
3978		-160.156250
3979		-150.390625
3980		-158.203125
3981		-150.390625
3982		-152.343750
3983		-148.437500
3984		-150.390625
3985		-144.531250
3986		-148.437500
3987		-140.625000
3988		-146.484375
3989		-138.671875
3990		-140.625000
3991		-134.765625
3992		-138.671875
3993		-130.859375
3994		-136.718750
3995		-126.953125
3996		-132.812500
3997		-125.000000
3998		-126.953125
3999		-121.093750
4000		-123.046875
4001		-119.140625
4002		-121.093750
4003		-113.281250
4004		-119.140625
4005		-109.375000
4006		-113.281250
4007		-105.468750
4008		-109.375000
4009		-101.562500
4010		-105.468750
4011		-97.656250
4012		-101.562500
4013		-93.750000
4014		-97.656250
4015		-89.843750
4016		-91.796875
4017		-85.937500
4018		-87.890625
4019		-80.078125
4020		-85.937500
4021		-76.171875
4022		-80.078125
4023		-70.312500
4024		-76.171875
4025		-68.359375
4026		-72.265625
4027		-62.500000
4028		-68.359375
4029		-58.593750
4030		-62.500000
4031		-54.687500
4032		-56.640625
4033		-50.781250
4034		-52.734375
4035		-46.875000
4036		-48.828125
4037		-41.015625
4038		-44.921875
4039		-37.109375
4040		-41.015625
4041		-31.250000
4042		-35.156250
4043		-25.390625
4044		-31.250000
4045		-21.484375
4046		-25.390625
4047		-17.578125
4048		-19.531250
4049		-13.671875
4050		-15.625000
4051		-9.765625
4052		-11.718750
4053		-3.906250
4054		-7.812500
4055		0.000000
4056		-3.906250
4057		5.859375
4058		0.000000
4059		9.765625
4060		3.906250
4061		13.671875
4062		7.812500
4063		17.578125
4064		13.671875
4065		21.484375
4066		19.531250
4067		25.390625
4068		23.437500
4069		33.203125
4070		27.343750
4071		35.156250
4072		31.250000
4073		41.015625
4074		35.156250
4075		42.968750
4076		39.062500
4077		46.875000
4078		42.968750
4079		52.734375
4080		46.875000
4081		54.687500
4082		52.734375
4083		58.593750
4084		56.640625
4085		62.500000
4086		60.546875
4087		68.359375
4088		62.500000
4089		70.312500
4090		68.359375
4091		76.171875
4092		70.312500
4093		78.125000
4094		74.218750
4095		82.031250
4096		76.171875
4097		83.984375
4098		80.078125
4099		87.890625
4100		85.937500
4101		89.843750
4102		87.890625
4103		93.750000
4104		89.843750
4105		97.656250
4106		91.796875
4107		99.609375
4108		95.703125
4109		103.515625
4110		99.609375
4111		107.421875
4112		101.562500
4113		109.375000
4114		103.515625
4115		111.328125
4116		109.375000
4117		113.281250
4118		111.328125
4119		115.234375
4120		111.328125
4121		119.140625
4122		115.234375
4123		123.046875
4124		117.187500
4125		123.046875
4126		119.140625
4127		126.953125
4128		121.093750
4129		128.906250
4130		123.046875
4131		130.859375
4132		126.953125
4133		130.859375
4134		128.906250
4135		132.812500
4136		128.906250
4137		136.718750
4138		128.906250
4139		138.671875
4140		130.859375
4141		138.671875
4142		132.812500
4143		142.578125
4144		134.765625
4145		142.578125
4146		136.718750
4147		142.578125
4148		138.671875
4149		142.578125
4150		140.625000
4151		144.531250
4152		142.578125
4153		146.484375
4154		142.578125
4155		146.484375
4156		142.578125
4157		148.437500
4158		144.531250
4159		148.437500
4160		144.531250
4161		148.437500
4162		144.531250
4163		150.390625
4164		146.484375
4165		150.390625
4166		146.484375
4167		152.343750
4168		146.484375
4169		150.390625
4170		146.484375
4171		152.343750
4172		146.484375
4173		152.343750
4174		146.484375
4175		152.343750
4176		146.484375
4177		152.343750
4178		146.484375
4179		152.343750
4180		146.484375
4181		152.343750
4182		148.437500
4183		152.343750
4184		146.484375
4185		150.390625
4186		144.531250
4187		150.390625
4188		144.531250
4189		150.390625
4190		144.531250
4191		150.390625
4192		144.531250
4193		150.390625
4194		142.578125
4195		148.437500
4196		140.625000
4197		148.437500
4198		142.578125
4199		148.437500
4200		140.625000
4201		144.531250
4202		140.625000
4203		144.531250
4204		136.718750
4205		144.531250
4206		134.765625
4207		142.578125
4208		134.765625
4209		142.578125
4210		132.812500
4211		140.625000
4212		132.812500
4213		138.671875
4214		130.859375
4215		136.718750
4216		128.906250
4217		134.765625
4218		128.906250
4219		132.812500
4220		125.000000
4221		130.859375
4222		123.046875
4223		128.906250
4224		119.140625
4225		126.953125
4226		117.187500
4227		125.000000
4228		115.234375
4229		123.046875
4230		113.281250
4231		121.093750
4232		113.281250
4233		117.187500
4234		109.375000
4235		115.234375
4236		107.421875
4237		111.328125
4238		101.562500
4239		109.375000
4240		99.609375
4241		107.421875
4242		97.656250
4243		105.468750
4244		93.750000
4245		101.562500
4246		89.843750
4247		99.609375
4248		87.890625
4249		95.703125
4250		85.937500
4251		91.796875
4252		82.031250
4253		87.890625
4254		78.125000
4255		83.984375
4256		74.218750
4257		82.031250
4258		72.265625
4259		78.125000
4260		66.406250
4261		76.171875
4262		62.500000
4263		72.265625
4264		58.593750
4265		68.359375
4266		56.640625
4267		64.453125
4268		52.734375
4269		58.593750
4270		46.875000
4271		54.687500
4272		42.968750
4273		52.734375
4274		39.062500
4275		48.828125
4276		37.109375
4277		42.968750
4278		31.250000
4279		39.062500
4280		27.343750
4281		37.109375
4282		25.390625
4283		33.203125
4284		19.531250
4285		25.390625
4286		15.625000
4287		21.484375
4288		9.765625
4289		19.531250
4290		5.859375
4291		13.671875
4292		1.953125
4293		11.718750
4294		-3.906250
4295		3.906250
4296		-7.812500
4297		1.953125
4298		-13.671875
4299		-3.906250
4300		-15.625000
4301		-9.765625
4302		-21.484375
4303		-13.671875
4304		-25.390625
4305		-17.578125
4306		-31.250000
4307		-21.484375
4308		-35.156250
4309		-25.390625
4310		-39.062500
4311		-31.250000
4312		-42.968750
4313		-35.156250
4314		-48.828125
4315		-39.062500
4316		-50.781250
4317		-44.921875
4318		-56.640625
4319		-48.828125
4320		-60.546875
4321		-54.687500
4322		-66.406250
4323		-56.640625
4324		-72.265625
4325		-62.500000
4326		-74.218750
4327		-64.453125
4328		-80.078125
4329		-70.312500
4330		-83.984375
4331		-74.218750
4332		-85.937500
4333		-78.125000
4334		-89.843750
4335		-83.984375
4336		-93.750000
4337		-87.890625
4338		-99.609375
4339		-91.796875
4340		-103.515625
4341		-95.703125
4342		-107.421875
4343		-97.656250
4344		-111.328125
4345		-101.562500
4346		-115.234375
4347		-107.421875
4348		-117.187500
4349		-109.375000
4350		-121.093750
4351		-113.281250
4352		-123.046875
4353		-119.140625
4354		-130.859375
4355		-123.046875
4356		-132.812500
4357		-125.000000
4358		-134.765625
4359		-126.953125
4360		-138.671875
4361		-130.859375
4362		-142.578125
4363		-132.812500
4364		-144.531250
4365		-136.718750
4366		-146.484375
4367		-140.625000
4368		-148.437500
4369		-144.531250
4370		-152.343750
4371		-146.484375
4372		-156.250000
4373		-150.390625
4374		-158.203125
4375		-150.390625
4376		-160.156250
4377		-154.296875
4378		-164.062500
4379		-156.250000
4380		-166.015625
4381		-158.203125
4382		-167.968750
4383		-160.156250
4384		-167.968750
4385		-164.062500
4386		-169.921875
4387		-166.015625
4388		-173.828125
4389		-166.015625
4390		-173.828125
4391		-167.968750
4392		-175.781250
4393		-167.968750
4394		-175.781250
4395		-169.921875
4396		-177.734375
4397		-171.875000
4398		-179.687500
4399		-171.875000
4400		-179.687500
4401		-173.828125
4402		-179.687500
4403		-175.781250
4404		-179.687500
4405		-175.781250
4406		-181.640625
4407		-175.781250
4408		-181.640625
4409		-175.781250
4410		-181.640625
4411		-175.781250
4412		-183.593750
4413		-175.781250
4414		-181.640625
4415		-175.781250
4416		-181.640625
4417		-175.781250
4418		-179.687500
4419		-175.781250
4420		-179.687500
4421		-175.781250
4422		-179.687500
4423		-173.828125
4424		-179.687500
4425		-173.828125
4426		-179.687500
4427		-171.875000
4428		-177.734375
4429		-169.921875
4430		-175.781250
4431		-169.921875
4432		-175.781250
4433		-169.921875
4434		-173.828125
4435		-167.968750
4436		-169.921875
4437		-167.968750
4438		-169.921875
4439		-164.062500
4440		-169.921875
4441		-162.109375
4442		-167.968750
4443		-160.156250
4444		-166.015625
4445		-156.250000
4446		-162.109375
4447		-156.250000
4448		-160.156250
4449		-152.343750
4450		-158.203125
4451		-150.390625
4452		-154.296875
4453		-148.437500
4454		-150.390625
4455		-146.484375
4456		-148.437500
4457		-142.578125
4458		-146.484375
4459		-138.671875
4460		-144.531250
4461		-136.718750
4462		-140.625000
4463		-132.812500
4464		-138.671875
4465		-128.906250
4466		-134.765625
4467		-125.000000
4468		-130.859375
4469		-123.046875
4470		-125.000000
4471		-121.093750
4472		-123.046875
4473		-115.234375
4474		-119.140625
4475		-111.328125
4476		-115.234375
4477		-107.421875
4478		-113.281250
4479		-105.468750
4480		-109.375000
4481		-99.609375
4482		-103.515625
4483		-95.703125
4484		-99.609375
4485		-91.796875
4486		-93.750000
4487		-87.890625
4488		-89.843750
4489		-83.984375
4490		-87.890625
4491		-78.125000
4492		-82.031250
4493		-74.218750
4494		-78.125000
4495		-70.312500
4496		-74.218750
4497		-66.406250
4498		-70.312500
4499		-60.546875
4500		-66.406250
4501		-58.593750
4502		-60.546875
4503		-52.734375
4504		-54.687500
4505		-48.828125
4506		-50.781250
4507		-42.968750
4508		-48.828125
4509		-39.062500
4510		-44.921875
4511		-33.203125
4512		-37.109375
4513		-29.296875
4514		-33.203125
4515		-23.437500
4516		-29.296875
4517		-21.484375
4518		-25.390625
4519		-17.578125
4520		-19.531250
4521		-11.718750
4522		-13.671875
4523		-5.859375
4524		-11.718750
4525		-1.953125
4526		-7.812500
4527		1.953125
4528		-1.953125
4529		7.812500
4530		1.953125
4531		11.718750
4532		7.812500
4533		15.625000
4534		11.718750
4535		19.531250
4536		17.578125
4537		23.437500
4538		21.484375
4539		27.343750
4540		25.390625
4541		33.203125
4542		27.343750
4543		37.109375
4544		33.203125
4545		41.015625
4546		35.156250
4547		44.921875
4548		41.015625
4549		48.828125
4550		44.921875
4551		52.734375
4552		48.828125
4553		56.640625
4554		54.687500
4555		60.546875
4556		58.593750
4557		66.406250
4558		60.546875
4559		68.359375
4560		64.453125
4561		72.265625
4562		66.406250
4563		76.171875
4564		70.312500
4565		80.078125
4566		76.171875
4567		82.031250
4568		78.125000
4569		85.937500
4570		83.984375
4571		87.890625
4572		85.937500
4573		91.796875
4574		87.890625
4575		97.656250
4576		91.796875
4577		97.656250
4578		93.750000
4579		101.562500
4580		95.703125
4581		105.468750
4582		99.609375
4583		107.421875
4584		103.515625
4585		111.328125
4586		107.421875
4587		111.328125
4588		109.375000
4589		115.234375
4590		113.281250
4591		117.187500
4592		113.281250
4593		121.093750
4594		115.234375
4595		123.046875
4596		119.140625
4597		125.000000
4598		119.140625
4599		126.953125
4600		121.093750
4601		128.906250
4602		125.000000
4603		130.859375
4604		128.906250
4605		130.859375
4606		128.906250
4607		134.765625
4608		128.906250
4609		136.718750
4610		130.859375
4611		138.671875
4612		132.812500
4613		140.625000
4614		134.765625
4615		142.578125
4616		136.718750
4617		142.578125
4618		136.718750
4619		144.531250
4620		140.625000
4621		144.531250
4622		142.578125
4623		144.531250
4624		140.625000
4625		148.437500
4626		142.578125
4627		148.437500
4628		142.578125
4629		150.390625
4630		142.578125
4631		150.390625
4632		144.531250
4633		150.390625
4634		144.531250
4635		150.390625
4636		146.484375
4637		150.390625
4638		148.437500
4639		150.390625
4640		146.484375
4641		152.343750
4642		146.484375
4643		152.343750
4644		146.484375
4645		152.343750
4646		146.484375
4647		154.296875
4648		146.484375
4649		154.296875
4650		146.484375
4651		152.343750
4652		146.484375
4653		152.343750
4654		148.437500
4655		150.390625
4656		146.484375
4657		150.390625
4658		144.531250
4659		152.343750
4660		144.531250
4661		152.343750
4662		144.531250
4663		152.343750
4664		144.531250
4665		150.390625
4666		142.578125
4667		148.437500
4668		142.578125
4669		148.437500
4670		142.578125
4671		146.484375
4672		142.578125
4673		144.531250
4674		138.671875
4675		144.531250
4676		136.718750
4677		144.531250
4678		136.718750
4679		142.578125
4680		134.765625
4681		142.578125
4682		132.812500
4683		140.625000
4684		130.859375
4685		138.671875
4686		130.859375
4687		136.718750
4688		130.859375
4689		134.765625
4690		126.953125
4691		132.812500
4692		123.046875
4693		130.859375
4694		123.046875
4695		128.906250
4696		119.140625
4697		128.906250
4698		119.140625
4699		125.000000
4700		115.234375
4701		123.046875
4702		113.281250
4703		121.093750
4704		111.328125
4705		117.187500
4706		109.375000
4707		113.281250
4708		105.468750
4709		111.328125
4710		101.562500
4711		109.375000
4712		99.609375
4713		107.421875
4714		97.656250
4715		105.468750
4716		93.750000
4717		101.562500
4718		89.843750
4719		97.656250
4720		87.890625
4721		95.703125
4722		85.937500
4723		91.796875
4724		80.078125
4725		87.890625
4726		76.171875
4727		85.937500
4728		74.218750
4729		82.031250
4730		70.312500
4731		78.125000
4732		66.406250
4733		74.218750
4734		62.500000
4735		70.312500
4736		58.593750
4737		66.406250
4738		56.640625
4739		62.500000
4740		52.734375
4741		58.593750
4742		46.875000
4743		54.687500
4744		44.921875
4745		50.781250
4746		39.062500
4747		48.828125
4748		33.203125
4749		42.968750
4750		31.250000
4751		39.062500
4752		25.390625
4753		35.156250
4754		23.437500
4755		29.296875
4756		19.531250
4757		25.390625
4758		13.671875
4759		21.484375
4760		7.812500
4761		17.578125
4762		3.906250
4763		13.671875
4764		0.000000
4765		7.812500
4766		-3.906250
4767		3.906250
4768		-9.765625
4769		0.000000
4770		-11.718750
4771		-3.906250
4772		-15.625000
4773		-9.765625
4774		-21.484375
4775		-13.671875
4776		-27.343750
4777		-17.578125
4778		-31.250000
4779		-23.437500
4780		-37.109375
4781		-27.343750
4782		-39.062500
4783		-31.250000
4784		-44.921875
4785		-35.156250
4786		-48.828125
4787		-41.015625
4788		-52.734375
4789		-44.921875
4790		-56.640625
4791		-50.781250
4792		-62.500000
4793		-54.687500
4794		-66.406250
4795		-56.640625
4796		-70.312500
4797		-62.500000
4798		-74.218750
4799		-66.406250
4800		-80.078125
4801		-70.312500
4802		-83.984375
4803		-74.218750
4804		-85.937500
4805		-78.125000
4806		-89.843750
4807		-83.984375
4808		-95.703125
4809		-87.890625
4810		-99.609375
4811		-91.796875
4812		-103.515625
4813		-95.703125
4814		-107.421875
4815		-99.609375
4816		-111.328125
4817		-103.515625
4818		-113.281250
4819		-105.468750
4820		-117.187500
4821		-109.375000
4822		-121.093750
4823		-115.234375
4824		-126.953125
4825		-119.140625
4826		-128.906250
4827		-121.093750
4828		-132.812500
4829		-125.000000
4830		-136.718750
4831		-126.953125
4832		-138.671875
4833		-130.859375
4834		-142.578125
4835		-134.765625
4836		-144.531250
4837		-136.718750
4838		-146.484375
4839		-140.625000
4840		-148.437500
4841		-144.531250
4842		-152.343750
4843		-146.484375
4844		-154.296875
4845		-148.437500
4846		-158.203125
4847		-150.390625
4848		-160.156250
4849		-152.343750
4850		-162.109375
4851		-156.250000
4852		-164.062500
4853		-158.203125
4854		-166.015625
4855		-160.156250
4856		-167.968750
4857		-162.109375
4858		-169.921875
4859		-164.062500
4860		-171.875000
4861		-164.062500
4862		-173.828125
4863		-166.015625
4864		-173.828125
4865		-167.968750
4866		-175.781250
4867		-169.921875
4868		-177.734375
4869		-169.921875
4870		-177.734375
4871		-171.875000
4872		-177.734375
4873		-173.828125
4874		-177.734375
4875		-173.828125
4876		-179.687500
4877		-171.875000
4878		-181.640625
4879		-173.828125
4880		-181.640625
4881		-173.828125
4882		-181.640625
4883		-173.828125
4884		-181.640625
4885		-173.828125
4886		-181.640625
4887		-173.828125
4888		-179.687500
4889		-173.828125
4890		-177.734375
4891		-175.781250
4892		-179.687500
4893		-171.875000
4894		-177.734375
4895		-171.875000
4896		-177.734375
4897		-171.875000
4898		-177.734375
4899		-169.921875
4900		-175.781250
4901		-169.921875
4902		-175.781250
4903		-167.968750
4904		-173.828125
4905		-167.968750
4906		-169.921875
4907		-166.015625
4908		-167.968750
4909		-164.062500
4910		-167.968750
4911		-162.109375
4912		-167.968750
4913		-158.203125
4914		-164.062500
4915		-156.250000
4916		-162.109375
4917		-156.250000
4918		-160.156250
4919		-154.296875
4920		-158.203125
4921		-150.390625
4922		-154.296875
4923		-148.437500
4924		-150.390625
4925		-146.484375
4926		-148.437500
4927		-142.578125
4928		-148.437500
4929		-140.625000
4930		-144.531250
4931		-136.718750
4932		-140.625000
4933		-134.765625
4934		-138.671875
4935		-128.906250
4936		-134.765625
4937		-126.953125
4938		-130.859375
4939		-125.000000
4940		-126.953125
4941		-121.093750
4942		-123.046875
4943		-117.187500
4944		-121.093750
4945		-113.281250
4946		-117.187500
4947		-107.421875
4948		-113.281250
4949		-105.468750
4950		-109.375000
4951		-101.562500
4952		-105.468750
4953		-95.703125
4954		-99.609375
4955		-93.750000
4956		-95.703125
4957		-89.843750
4958		-91.796875
4959		-85.937500
4960		-87.890625
4961		-78.125000
4962		-83.984375
4963		-76.171875
4964		-80.078125
4965		-72.265625
4966		-76.171875
4967		-66.406250
4968		-70.312500
4969		-62.500000
4970		-66.406250
4971		-58.593750
4972		-62.500000
4973		-54.687500
4974		-56.640625
4975		-50.781250
4976		-52.734375
4977		-42.968750
4978		-46.875000
4979		-41.015625
4980		-44.921875
4981		-35.156250
4982		-39.062500
4983		-31.250000
4984		-35.156250
4985		-25.390625
4986		-31.250000
4987		-21.484375
4988		-27.343750
4989		-17.578125
4990		-19.531250
4991		-13.671875
4992		-15.625000
4993		-7.812500
4994		-11.718750
4995		-3.906250
4996		-5.859375
4997		0.000000
4998		-1.953125
4999		5.859375
5000		1.953125
5001		9.765625
5002		5.859375
5003		13.671875
5004		9.765625
5005		19.531250
5006		15.625000
5007		21.484375
5008		21.484375
5009		25.390625
5010		23.437500
5011		31.250000
5012		27.343750
5013		35.156250
5014		31.250000
5015		41.015625
5016		35.156250
5017		42.968750
5018		41.015625
5019		48.828125
5020		42.968750
5021		52.734375
5022		48.828125
5023		54.687500
5024		52.734375
5025		58.593750
5026		56.640625
5027		62.500000
5028		58.593750
5029		66.406250
5030		64.453125
5031		72.265625
5032		66.406250
5033		74.218750
5034		70.312500
5035		78.125000
5036		74.218750
5037		82.031250
5038		78.125000
5039		83.984375
5040		82.031250
5041		87.890625
5042		85.937500
5043		91.796875
5044		87.890625
5045		95.703125
5046		91.796875
5047		97.656250
5048		93.750000
5049		101.562500
5050		95.703125
5051		105.468750
5052		99.609375
5053		107.421875
5054		101.562500
5055		109.375000
5056		105.468750
5057		111.328125
5058		109.375000
5059		113.281250
5060		111.328125
5061		117.187500
5062		113.281250
5063		121.093750
5064		115.234375
5065		121.093750
5066		117.187500
5067		125.000000
5068		121.093750
5069		126.953125
5070		123.046875
5071		128.906250
5072		123.046875
5073		130.859375
5074		126.953125
5075		130.859375
5076		128.906250
5077		132.812500
5078		128.906250
5079		136.718750
5080		130.859375
5081		138.671875
5082		132.812500
5083		140.625000
5084		134.765625
5085		140.625000
5086		134.765625
5087		142.578125
5088		136.718750
5089		144.531250
5090		140.625000
5091		144.531250
5092		142.578125
5093		144.531250
5094		142.578125
5095		148.437500
5096		142.578125
5097		148.437500
5098		142.578125
5099		150.390625
5100		144.531250
5101		152.343750
5102		144.531250
5103		152.343750
5104		144.531250
5105		152.343750
5106		146.484375
5107		152.343750
5108		148.437500
5109		150.390625
5110		148.437500
5111		152.343750
5112		146.484375
5113		154.296875
5114		148.437500
5115		154.296875
5116		148.437500
5117		154.296875
5118		148.437500
5119		154.296875
5120		148.437500
5121		154.296875
5122		148.437500
5123		154.296875
5124		148.437500
5125		152.343750
5126		148.437500
5127		152.343750
5128		146.484375
5129		152.343750
5130		146.484375
5131		154.296875
5132		144.531250
5133		152.343750
5134		144.531250
5135		152.343750
5136		144.531250
5137		150.390625
5138		144.531250
5139		150.390625
5140		142.578125
5141		150.390625
5142		144.531250
5143		146.484375
5144		140.625000
5145		146.484375
5146		138.671875
5147		146.484375
5148		138.671875
5149		144.531250
5150		136.718750
5151		144.531250
5152		134.765625
5153		142.578125
5154		132.812500
5155		140.625000
5156		132.812500
5157		140.625000
5158		132.812500
5159		136.718750
5160		130.859375
5161		134.765625
5162		126.953125
5163		134.765625
5164		125.000000
5165		132.812500
5166		123.046875
5167		130.859375
5168		121.093750
5169		126.953125
5170		117.187500
5171		125.000000
5172		115.234375
5173		123.046875
5174		115.234375
5175		121.093750
5176		111.328125
5177		117.187500
5178		107.421875
5179		115.234375
5180		105.468750
5181		113.281250
5182		103.515625
5183		111.328125
5184		99.609375
5185		107.421875
5186		97.656250
5187		105.468750
5188		93.750000
5189		101.562500
5190		91.796875
5191		99.609375
5192		87.890625
5193		93.750000
5194		83.984375
5195		89.843750
5196		80.078125
5197		87.890625
5198		78.125000
5199		85.937500
5200		72.265625
5201		82.031250
5202		70.312500
5203		78.125000
5204		66.406250
5205		74.218750
5206		62.500000
5207		70.312500
5208		60.546875
5209		66.406250
5210		56.640625
5211		62.500000
5212		50.781250
5213		58.593750
5214		46.875000
5215		54.687500
5216		41.015625
5217		50.781250
5218		39.062500
5219		46.875000
5220		35.156250
5221		42.968750
5222		29.296875
5223		39.062500
5224		27.343750
5225		35.156250
5226		23.437500
5227		29.296875
5228		17.578125
5229		25.390625
5230		13.671875
5231		21.484375
5232		7.812500
5233		17.578125
5234		1.953125
5235		11.718750
5236		0.000000
5237		9.765625
5238		-5.859375
5239		3.906250
5240		-7.812500
5241		0.000000
5242		-11.718750
5243		-5.859375
5244		-15.625000
5245		-9.765625
5246		-21.484375
5247		-13.671875
5248		-27.343750
5249		-17.578125
5250		-31.250000
5251		-23.437500
5252		-35.156250
5253		-25.390625
5254		-41.015625
5255		-31.250000
5256		-44.921875
5257		-37.109375
5258		-46.875000
5259		-41.015625
5260		-52.734375
5261		-44.921875
5262		-58.593750
5263		-50.781250
5264		-62.500000
5265		-54.687500
5266		-66.406250
5267		-58.593750
5268		-70.312500
5269		-60.546875
5270		-76.171875
5271		-66.406250
5272		-78.125000
5273		-70.312500
5274		-82.031250
5275		-74.218750
5276		-85.937500
5277		-80.078125
5278		-91.796875
5279		-83.984375
5280		-95.703125
5281		-87.890625
5282		-97.656250
5283		-91.796875
5284		-103.515625
5285		-95.703125
5286		-107.421875
5287		-97.656250
5288		-109.375000
5289		-103.515625
5290		-115.234375
5291		-105.468750
5292		-117.187500
5293		-111.328125
5294		-121.093750
5295		-115.234375
5296		-125.000000
5297		-117.187500
5298		-126.953125
5299		-119.140625
5300		-132.812500
5301		-123.046875
5302		-134.765625
5303		-126.953125
5304		-136.718750
5305		-130.859375
5306		-140.625000
5307		-132.812500
5308		-144.531250
5309		-136.718750
5310		-144.531250
5311		-140.625000
5312		-148.437500
5313		-142.578125
5314		-152.343750
5315		-142.578125
5316		-154.296875
5317		-146.484375
5318		-156.250000
5319		-148.437500
5320		-160.156250
5321		-152.343750
5322		-162.109375
5323		-154.296875
5324		-162.109375
5325		-156.250000
5326		-164.062500
5327		-160.156250
5328		-164.062500
5329		-160.156250
5330		-169.921875
5331		-162.109375
5332		-169.921875
5333		-164.062500
5334		-169.921875
5335		-164.062500
5336		-171.875000
5337		-166.015625
5338		-173.828125
5339		-166.015625
5340		-175.781250
5341		-167.968750
5342		-173.828125
5343		-169.921875
5344		-175.781250
5345		-171.875000
5346		-177.734375
5347		-171.875000
5348		-177.734375
5349		-169.921875
5350		-177.734375
5351		-171.875000
5352		-177.734375
5353		-171.875000
5354		-177.734375
5355		-171.875000
5356		-179.687500
5357		-171.875000
5358		-177.734375
5359		-169.921875
5360		-175.781250
5361		-173.828125
5362		-175.781250
5363		-171.875000
5364		-177.734375
5365		-169.921875
5366		-175.781250
5367		-169.921875
5368		-175.781250
5369		-169.921875
5370		-175.781250
5371		-167.968750
5372		-173.828125
5373		-167.968750
5374		-173.828125
5375		-166.015625
5376		-169.921875
5377		-166.015625
5378		-167.968750
5379		-164.062500
5380		-166.015625
5381		-160.156250
5382		-166.015625
5383		-158.203125
5384		-164.062500
5385		-156.250000
5386		-162.109375
5387		-154.296875
5388		-160.156250
5389		-152.343750
5390		-158.203125
5391		-150.390625
5392		-156.250000
5393		-148.437500
5394		-152.343750
5395		-146.484375
5396		-148.437500
5397		-142.578125
5398		-146.484375
5399		-138.671875
5400		-144.531250
5401		-136.718750
5402		-140.625000
5403		-132.812500
5404		-140.625000
5405		-130.859375
5406		-134.765625
5407		-126.953125
5408		-130.859375
5409		-123.046875
5410		-126.953125
5411		-121.093750
5412		-123.046875
5413		-117.187500
5414		-121.093750
5415		-113.281250
5416		-117.187500
5417		-107.421875
5418		-113.281250
5419		-105.468750
5420		-109.375000
5421		-101.562500
5422		-105.468750
5423		-97.656250
5424		-101.562500
5425		-93.750000
5426		-97.656250
5427		-89.843750
5428		-91.796875
5429		-85.937500
5430		-87.890625
5431		-80.078125
5432		-83.984375
5433		-76.171875
5434		-80.078125
5435		-74.218750
5436		-76.171875
5437		-68.359375
5438		-70.312500
5439		-64.453125
5440		-66.406250
5441		-60.546875
5442		-64.453125
5443		-56.640625
5444		-56.640625
5445		-50.781250
5446		-52.734375
5447		-46.875000
5448		-48.828125
5449		-41.015625
5450		-44.921875
5451		-37.109375
5452		-41.015625
5453		-33.203125
5454		-35.156250
5455		-29.296875
5456		-31.250000
5457		-23.437500
5458		-27.343750
5459		-19.531250
5460		-21.484375
5461		-15.625000
5462		-17.578125
5463		-9.765625
5464		-11.718750
5465		-5.859375
5466		-9.765625
5467		-1.953125
5468		-1.953125
5469		3.906250
5470		1.953125
5471		7.812500
5472		5.859375
5473		11.718750
5474		9.765625
5475		17.578125
5476		11.718750
5477		21.484375
5478		19.531250
5479		25.390625
5480		23.437500
5481		29.296875
5482		27.343750
5483		33.203125
5484		31.250000
5485		37.109375
5486		35.156250
5487		41.015625
5488		39.062500
5489		46.875000
5490		44.921875
5491		52.734375
5492		46.875000
5493		54.687500
5494		50.781250
5495		58.593750
5496		56.640625
5497		62.500000
5498		60.546875
5499		66.406250
5500		64.453125
5501		68.359375
5502		66.406250
5503		72.265625
5504		70.312500
5505		76.171875
5506		74.218750
5507		80.078125
5508		76.171875
5509		83.984375
5510		80.078125
5511		87.890625
5512		83.984375
5513		89.843750
5514		87.890625
5515		93.750000
5516		89.843750
5517		95.703125
5518		93.750000
5519		99.609375
5520		97.656250
5521		103.515625
5522		99.609375
5523		105.468750
5524		101.562500
5525		109.375000
5526		105.468750
5527		111.328125
5528		107.421875
5529		113.281250
5530		111.328125
5531		115.234375
5532		113.281250
5533		119.140625
5534		115.234375
5535		121.093750
5536		119.140625
5537		123.046875
5538		121.093750
5539		125.000000
5540		123.046875
5541		126.953125
5542		125.000000
5543		130.859375
5544		126.953125
5545		130.859375
5546		128.906250
5547		132.812500
5548		130.859375
5549		136.718750
5550		132.812500
5551		136.718750
5552		134.765625
5553		138.671875
5554		136.718750
5555		140.625000
5556		138.671875
5557		142.578125
5558		138.671875
5559		142.578125
5560		138.671875
5561		144.531250
5562		142.578125
5563		144.531250
5564		142.578125
5565		148.437500
5566		144.531250
5567		148.437500
5568		144.531250
5569		148.437500
5570		146.484375
5571		148.437500
5572		146.484375
5573		150.390625
5574		146.484375
5575		150.390625
5576		148.437500
5577		152.343750
5578		148.437500
5579		152.343750
5580		148.437500
5581		152.343750
5582		150.390625
5583		154.296875
5584		150.390625
5585		154.296875
5586		150.390625
5587		154.296875
5588		150.390625
5589		154.296875
5590		150.390625
5591		154.296875
5592		150.390625
5593		154.296875
5594		150.390625
5595		154.296875
5596		150.390625
5597		152.343750
5598		148.437500
5599		154.296875
5600		148.437500
5601		152.343750
5602		148.437500
5603		152.343750
5604		148.437500
5605		152.343750
5606		146.484375
5607		150.390625
5608		146.484375
5609		150.390625
5610		144.531250
5611		150.390625
5612		144.531250
5613		148.437500
5614		144.531250
5615		148.437500
5616		142.578125
5617		148.437500
5618		140.625000
5619		146.484375
5620		140.625000
5621		144.531250
5622		138.671875
5623		142.578125
5624		136.718750
5625		140.625000
5626		132.812500
5627		140.625000
5628		134.765625
5629		138.671875
5630		132.812500
5631		136.718750
5632		130.859375
5633		134.765625
5634		128.906250
5635		132.812500
5636		126.953125
5637		130.859375
5638		125.000000
5639		128.906250
5640		121.093750
5641		126.953125
5642		119.140625
5643		125.000000
5644		117.187500
5645		121.093750
5646		115.234375
5647		119.140625
5648		111.328125
5649		117.187500
5650		109.375000
5651		113.281250
5652		107.421875
5653		111.328125
5654		103.515625
5655		109.375000
5656		99.609375
5657		105.468750
5658		97.656250
5659		103.515625
5660		93.750000
5661		99.609375
5662		91.796875
5663		95.703125
5664		87.890625
5665		93.750000
5666		83.984375
5667		89.843750
5668		82.031250
5669		85.937500
5670		78.125000
5671		83.984375
5672		74.218750
5673		80.078125
5674		70.312500
5675		76.171875
5676		66.406250
5677		72.265625
5678		62.500000
5679		70.312500
5680		58.593750
5681		64.453125
5682		54.687500
5683		60.546875
5684		50.781250
5685		56.640625
5686		46.875000
5687		54.687500
5688		42.968750
5689		48.828125
5690		39.062500
5691		44.921875
5692		35.156250
5693		41.015625
5694		31.250000
5695		37.109375
5696		27.343750
5697		33.203125
5698		21.484375
5699		29.296875
5700		17.578125
5701		25.390625
5702		13.671875
5703		19.531250
5704		9.765625
5705		15.625000
5706		3.906250
5707		11.718750
5708		0.000000
5709		7.812500
5710		-3.906250
5711		1.953125
5712		-7.812500
5713		-1.953125
5714		-13.671875
5715		-5.859375
5716		-17.578125
5717		-11.718750
5718		-21.484375
5719		-15.625000
5720		-27.343750
5721		-19.531250
5722		-31.250000
5723		-23.437500
5724		-35.156250
5725		-29.296875
5726		-39.062500
5727		-33.203125
5728		-44.921875
5729		-37.109375
5730		-48.828125
5731		-42.968750
5732		-54.687500
5733		-46.875000
5734		-58.593750
5735		-50.781250
5736		-62.500000
5737		-54.687500
5738		-66.406250
5739		-58.593750
5740		-70.312500
5741		-64.453125
5742		-74.218750
5743		-66.406250
5744		-78.125000
5745		-72.265625
5746		-82.031250
5747		-76.171875
5748		-85.937500
5749		-80.078125
5750		-91.796875
5751		-83.984375
5752		-95.703125
5753		-89.843750
5754		-99.609375
5755		-91.796875
5756		-103.515625
5757		-95.703125
5758		-107.421875
5759		-101.562500
5760		-109.375000
5761		-103.515625
5762		-113.281250
5763		-107.421875
5764		-117.187500
5765		-111.328125
5766		-121.093750
5767		-115.234375
5768		-125.000000
5769		-117.187500
5770		-128.906250
5771		-121.093750
5772		-130.859375
5773		-125.000000
5774		-134.765625
5775		-126.953125
5776		-136.718750
5777		-130.859375
5778		-140.625000
5779		-132.812500
5780		-142.578125
5781		-136.718750
5782		-144.531250
5783		-140.625000
5784		-148.437500
5785		-142.578125
5786		-152.343750
5787		-144.531250
5788		-154.296875
5789		-148.437500
5790		-156.250000
5791		-150.390625
5792		-158.203125
5793		-152.343750
5794		-160.156250
5795		-154.296875
5796		-162.109375
5797		-156.250000
5798		-164.062500
5799		-160.156250
5800		-166.015625
5801		-162.109375
5802		-167.968750
5803		-164.062500
5804		-169.921875
5805		-164.062500
5806		-171.875000
5807		-164.062500
5808		-171.875000
5809		-166.015625
5810		-173.828125
5811		-167.968750
5812		-173.828125
5813		-169.921875
5814		-173.828125
5815		-171.875000
5816		-175.781250
5817		-171.875000
5818		-175.781250
5819		-171.875000
5820		-175.781250
5821		-171.875000
5822		-177.734375
5823		-171.875000
5824		-177.734375
5825		-171.875000
5826		-177.734375
5827		-171.875000
5828		-177.734375
5829		-171.875000
5830		-175.781250
5831		-173.828125
5832		-175.781250
5833		-173.828125
5834		-175.781250
5835		-171.875000
5836		-175.781250
5837		-171.875000
5838		-173.828125
5839		-169.921875
5840		-173.828125
5841		-169.921875
5842		-171.875000
5843		-167.968750
5844		-171.875000
5845		-167.968750
5846		-169.921875
5847		-166.015625
5848		-167.968750
5849		-164.062500
5850		-166.015625
5851		-162.109375
5852		-166.015625
5853		-162.109375
5854		-164.062500
5855		-158.203125
5856		-162.109375
5857		-156.250000
5858		-158.203125
5859		-154.296875
5860		-156.250000
5861		-152.343750
5862		-154.296875
5863		-150.390625
5864		-152.343750
5865		-148.437500
5866		-150.390625
5867		-144.531250
5868		-146.484375
5869		-142.578125
5870		-144.531250
5871		-138.671875
5872		-142.578125
5873		-136.718750
5874		-138.671875
5875		-132.812500
5876		-134.765625
5877		-128.906250
5878		-132.812500
5879		-126.953125
5880		-128.906250
5881		-123.046875
5882		-125.000000
5883		-119.140625
5884		-123.046875
5885		-115.234375
5886		-117.187500
5887		-111.328125
5888		-115.234375
5889		-109.375000
5890		-111.328125
5891		-105.468750
5892		-107.421875
5893		-101.562500
5894		-103.515625
5895		-95.703125
5896		-97.656250
5897		-93.750000
5898		-95.703125
5899		-87.890625
5900		-89.843750
5901		-83.984375
5902		-85.937500
5903		-80.078125
5904		-82.031250
5905		-76.171875
5906		-78.125000
5907		-72.265625
5908		-72.265625
5909		-66.406250
5910		-68.359375
5911		-62.500000
5912		-64.453125
5913		-58.593750
5914		-60.546875
5915		-52.734375
5916		-54.687500
5917		-48.828125
5918		-50.781250
5919		-44.921875
5920		-46.875000
5921		-41.015625
5922		-42.968750
5923		-35.156250
5924		-37.109375
5925		-31.250000
5926		-33.203125
5927		-25.390625
5928		-29.296875
5929		-21.484375
5930		-23.437500
5931		-17.578125
5932		-19.531250
5933		-13.671875
5934		-15.625000
5935		-5.859375
5936		-13.671875
5937		-1.953125
5938		-7.812500
5939		1.953125
5940		-3.906250
5941		5.859375
5942		3.906250
5943		9.765625
5944		7.812500
5945		13.671875
5946		11.718750
5947		17.578125
5948		15.625000
5949		23.437500
5950		21.484375
5951		27.343750
5952		21.484375
5953		31.250000
5954		27.343750
5955		37.109375
5956		31.250000
5957		41.015625
5958		37.109375
5959		42.968750
5960		41.015625
5961		46.875000
5962		44.921875
5963		50.781250
5964		48.828125
5965		54.687500
5966		54.687500
5967		58.593750
5968		56.640625
5969		66.406250
5970		60.546875
5971		70.312500
5972		62.500000
5973		72.265625
5974		68.359375
5975		74.218750
5976		72.265625
5977		78.125000
5978		76.171875
5979		82.031250
5980		78.125000
5981		85.937500
5982		82.031250
5983		87.890625
5984		85.937500
5985		93.750000
5986		85.937500
5987		97.656250
5988		89.843750
5989		99.609375
5990		91.796875
5991		101.562500
5992		99.609375
5993		103.515625
5994		101.562500
5995		107.421875
5996		105.468750
5997		109.375000
5998		107.421875
5999		111.328125
6000		109.375000
6001		115.234375
6002		111.328125
6003		121.093750
6004		113.281250
6005		123.046875
6006		115.234375
6007		125.000000
6008		119.140625
6009		125.000000
6010		123.046875
6011		126.953125
6012		125.000000
6013		128.906250
6014		125.000000
6015		130.859375
6016		128.906250
6017		132.812500
6018		128.906250
6019		136.718750
6020		128.906250
6021		138.671875
6022		130.859375
6023		140.625000
6024		132.812500
6025		142.578125
6026		136.718750
6027		140.625000
6028		138.671875
6029		142.578125
6030		140.625000
6031		144.531250
6032		140.625000
6033		144.531250
6034		142.578125
6035		146.484375
6036		140.625000
6037		150.390625
6038		142.578125
6039		150.390625
6040		142.578125
6041		152.343750
6042		146.484375
6043		150.390625
6044		146.484375
6045		150.390625
6046		148.437500
6047		150.390625
6048		148.437500
6049		152.343750
6050		148.437500
6051		152.343750
6052		146.484375
6053		156.250000
6054		146.484375
6055		156.250000
6056		148.437500
6057		156.250000
6058		150.390625
6059		154.296875
6060		150.390625
6061		154.296875
6062		150.390625
6063		154.296875
6064		150.390625
6065		154.296875
6066		150.390625
6067		154.296875
6068		150.390625
6069		152.343750
6070		146.484375
6071		156.250000
6072		146.484375
6073		156.250000
6074		146.484375
6075		154.296875
6076		148.437500
6077		152.343750
6078		148.437500
6079		150.390625
6080		146.484375
6081		150.390625
6082		146.484375
6083		150.390625
6084		144.531250
6085		148.437500
6086		140.625000
6087		150.390625
6088		138.671875
6089		148.437500
6090		138.671875
6091		148.437500
6092		140.625000
6093		144.531250
6094		138.671875
6095		142.578125
6096		136.718750
6097		140.625000
6098		134.765625
6099		138.671875
6100		132.812500
6101		138.671875
6102		130.859375
6103		136.718750
6104		126.953125
6105		136.718750
6106		125.000000
6107		134.765625
6108		125.000000
6109		132.812500
6110		123.046875
6111		128.906250
6112		121.093750
6113		126.953125
6114		119.140625
6115		123.046875
6116		117.187500
6117		121.093750
6118		113.281250
6119		119.140625
6120		111.328125
6121		117.187500
6122		107.421875
6123		115.234375
6124		105.468750
6125		113.281250
6126		103.515625
6127		107.421875
6128		99.609375
6129		105.468750
6130		97.656250
6131		103.515625
6132		93.750000
6133		99.609375
6134		89.843750
6135		95.703125
6136		87.890625
6137		93.750000
6138		83.984375
6139		89.843750
6140		80.078125
6141		87.890625
6142		76.171875
6143		82.031250
6144		74.218750
6145		78.125000
6146		70.312500
6147		76.171875
6148		66.406250
6149		72.265625
6150		62.500000
6151		68.359375
6152		58.593750
6153		64.453125
6154		54.687500
6155		60.546875
6156		50.781250
6157		58.593750
6158		46.875000
6159		54.687500
6160		42.968750
6161		48.828125
6162		37.109375
6163		44.921875
6164		33.203125
6165		39.062500
6166		29.296875
6167		37.109375
6168		25.390625
6169		31.250000
6170		21.484375
6171		27.343750
6172		17.578125
6173		23.437500
6174		13.671875
6175		19.531250
6176		7.812500
6177		13.671875
6178		3.906250
6179		9.765625
6180		0.000000
6181		5.859375
6182		-5.859375
6183		1.953125
6184		-9.765625
6185		-3.906250
6186		-13.671875
6187		-7.812500
6188		-17.578125
6189		-11.718750
6190		-23.437500
6191		-15.625000
6192		-27.343750
6193		-21.484375
6194		-31.250000
6195		-25.390625
6196		-37.109375
6197		-29.296875
6198		-41.015625
6199		-33.203125
6200		-44.921875
6201		-39.062500
6202		-50.781250
6203		-42.968750
6204		-54.687500
6205		-46.875000
6206		-58.593750
6207		-50.781250
6208		-62.500000
6209		-56.640625
6210		-68.359375
6211		-60.546875
6212		-70.312500
6213		-64.453125
6214		-76.171875
6215		-68.359375
6216		-80.078125
6217		-72.265625
6218		-83.984375
6219		-76.171875
6220		-87.890625
6221		-82.031250
6222		-91.796875
6223		-85.937500
6224		-95.703125
6225		-89.843750
6226		-99.609375
6227		-93.750000
6228		-103.515625
6229		-97.656250
6230		-107.421875
6231		-101.562500
6232		-111.328125
6233		-105.468750
6234		-113.281250
6235		-109.375000
6236		-119.140625
6237		-113.281250
6238		-121.093750
6239		-115.234375
6240		-125.000000
6241		-119.140625
6242		-128.906250
6243		-123.046875
6244		-130.859375
6245		-125.000000
6246		-134.765625
6247		-128.906250
6248		-136.718750
6249		-132.812500
6250		-140.625000
6251		-134.765625
6252		-142.578125
6253		-138.671875
6254		-146.484375
6255		-140.625000
6256		-148.437500
6257		-144.531250
6258		-150.390625
6259		-146.484375
6260		-154.296875
6261		-148.437500
6262		-156.250000
6263		-150.390625
6264		-158.203125
6265		-154.296875
6266		-160.156250
6267		-156.250000
6268		-162.109375
6269		-158.203125
6270		-164.062500
6271		-160.156250
6272		-166.015625
6273		-160.156250
6274		-167.968750
6275		-162.109375
6276		-169.921875
6277		-164.062500
6278		-171.875000
6279		-166.015625
6280		-171.875000
6281		-167.968750
6282		-171.875000
6283		-169.921875
6284		-173.828125
6285		-167.968750
6286		-173.828125
6287		-171.875000
6288		-175.781250
6289		-169.921875
6290		-175.781250
6291		-171.875000
6292		-175.781250
6293		-171.875000
6294		-177.734375
6295		-171.875000
6296		-175.781250
6297		-173.828125
6298		-175.781250
6299		-173.828125
6300		-175.781250
6301		-173.828125
6302		-175.781250
6303		-171.875000
6304		-175.781250
6305		-171.875000
6306		-175.781250
6307		-171.875000
6308		-173.828125
6309		-169.921875
6310		-173.828125
6311		-169.921875
6312		-173.828125
6313		-169.921875
6314		-171.875000
6315		-167.968750
6316		-169.921875
6317		-166.015625
6318		-169.921875
6319		-166.015625
6320		-167.968750
6321		-164.062500
6322		-166.015625
6323		-162.109375
6324		-166.015625
6325		-160.156250
6326		-162.109375
6327		-158.203125
6328		-162.109375
6329		-156.250000
6330		-160.156250
6331		-154.296875
6332		-156.250000
6333		-152.343750
6334		-154.296875
6335		-150.390625
6336		-152.343750
6337		-146.484375
6338		-150.390625
6339		-144.531250
6340		-146.484375
6341		-140.625000
6342		-142.578125
6343		-138.671875
6344		-140.625000
6345		-134.765625
6346		-138.671875
6347		-132.812500
6348		-134.765625
6349		-128.906250
6350		-130.859375
6351		-125.000000
6352		-126.953125
6353		-123.046875
6354		-125.000000
6355		-119.140625
6356		-121.093750
6357		-115.234375
6358		-117.187500
6359		-111.328125
6360		-113.281250
6361		-107.421875
6362		-109.375000
6363		-103.515625
6364		-105.468750
6365		-99.609375
6366		-101.562500
6367		-95.703125
6368		-97.656250
6369		-91.796875
6370		-93.750000
6371		-87.890625
6372		-89.843750
6373		-83.984375
6374		-85.937500
6375		-80.078125
6376		-80.078125
6377		-74.218750
6378		-76.171875
6379		-70.312500
6380		-72.265625
6381		-66.406250
6382		-68.359375
6383		-60.546875
6384		-62.500000
6385		-56.640625
6386		-58.593750
6387		-52.734375
6388		-54.687500
6389		-46.875000
6390		-50.781250
6391		-42.968750
6392		-44.921875
6393		-39.062500
6394		-41.015625
6395		-35.156250
6396		-37.109375
6397		-29.296875
6398		-31.250000
6399		-25.390625
6400		-27.343750
6401		-21.484375
6402		-23.437500
6403		-15.625000
6404		-17.578125
6405		-11.718750
6406		-13.671875
6407		-7.812500
6408		-9.765625
6409		-1.953125
6410		-3.906250
6411		1.953125
6412		0.000000
6413		5.859375
6414		3.906250
6415		9.765625
6416		7.812500
6417		15.625000
6418		13.671875
6419		19.531250
6420		17.578125
6421		23.437500
6422		21.484375
6423		27.343750
6424		25.390625
6425		33.203125
6426		31.250000
6427		37.109375
6428		35.156250
6429		41.015625
6430		39.062500
6431		44.921875
6432		42.968750
6433		48.828125
6434		46.875000
6435		52.734375
6436		50.781250
6437		56.640625
6438		54.687500
6439		60.546875
6440		58.593750
6441		64.453125
6442		62.500000
6443		68.359375
6444		66.406250
6445		72.265625
6446		70.312500
6447		76.171875
6448		74.218750
6449		80.078125
6450		78.125000
6451		82.031250
6452		80.078125
6453		85.937500
6454		83.984375
6455		89.843750
6456		87.890625
6457		91.796875
6458		89.843750
6459		95.703125
6460		93.750000
6461		99.609375
6462		95.703125
6463		101.562500
6464		99.609375
6465		105.468750
6466		103.515625
6467		107.421875
6468		105.468750
6469		109.375000
6470		107.421875
6471		113.281250
6472		111.328125
6473		115.234375
6474		113.281250
6475		117.187500
6476		115.234375
6477		121.093750
6478		119.140625
6479		123.046875
6480		121.093750
6481		125.000000
6482		123.046875
6483		126.953125
6484		125.000000
6485		128.906250
6486		126.953125
6487		130.859375
6488		128.906250
6489		132.812500
6490		130.859375
6491		134.765625
6492		132.812500
6493		136.718750
6494		134.765625
6495		138.671875
6496		136.718750
6497		138.671875
6498		136.718750
6499		140.625000
6500		138.671875
6501		142.578125
6502		140.625000
6503		144.531250
6504		142.578125
6505		144.531250
6506		142.578125
6507		146.484375
6508		144.531250
6509		148.437500
6510		144.531250
6511		148.437500
6512		146.484375
6513		150.390625
6514		146.484375
6515		150.390625
6516		148.437500
6517		150.390625
6518		148.437500
6519		152.343750
6520		148.437500
6521		152.343750
6522		148.437500
6523		152.343750
6524		150.390625
6525		154.296875
6526		150.390625
6527		152.343750
6528		150.390625
6529		154.296875
6530		150.390625
6531		154.296875
6532		150.390625
6533		154.296875
6534		150.390625
6535		154.296875
6536		150.390625
6537		154.296875
6538		150.390625
6539		154.296875
6540		148.437500
6541		154.296875
6542		148.437500
6543		152.343750
6544		148.437500
6545		152.343750
6546		148.437500
6547		152.343750
6548		148.437500
6549		150.390625
6550		146.484375
6551		150.390625
6552		146.484375
6553		150.390625
6554		144.531250
6555		148.437500
6556		142.578125
6557		148.437500
6558		140.625000
6559		148.437500
6560		142.578125
6561		146.484375
6562		140.625000
6563		144.531250
6564		138.671875
6565		142.578125
6566		138.671875
6567		142.578125
6568		136.718750
6569		140.625000
6570		134.765625
6571		138.671875
6572		132.812500
6573		136.718750
6574		128.906250
6575		136.718750
6576		128.906250
6577		134.765625
6578		126.953125
6579		130.859375
6580		125.000000
6581		130.859375
6582		123.046875
6583		126.953125
6584		121.093750
6585		125.000000
6586		119.140625
6587		123.046875
6588		117.187500
6589		121.093750
6590		113.281250
6591		119.140625
6592		111.328125
6593		115.234375
6594		107.421875
6595		113.281250
6596		105.468750
6597		109.375000
6598		103.515625
6599		107.421875
6600		99.609375
6601		105.468750
6602		95.703125
6603		101.562500
6604		93.750000
6605		97.656250
6606		87.890625
6607		95.703125
6608		85.937500
6609		93.750000
6610		82.031250
6611		89.843750
6612		80.078125
6613		85.937500
6614		76.171875
6615		82.031250
6616		72.265625
6617		78.125000
6618		68.359375
6619		74.218750
6620		64.453125
6621		70.312500
6622		60.546875
6623		66.406250
6624		56.640625
6625		64.453125
6626		52.734375
6627		60.546875
6628		48.828125
6629		54.687500
6630		44.921875
6631		50.781250
6632		41.015625
6633		46.875000
6634		37.109375
6635		42.968750
6636		33.203125
6637		39.062500
6638		29.296875
6639		35.156250
6640		23.437500
6641		31.250000
6642		19.531250
6643		27.343750
6644		15.625000
6645		21.484375
6646		11.718750
6647		17.578125
6648		7.812500
6649		13.671875
6650		3.906250
6651		9.765625
6652		-1.953125
6653		3.906250
6654		-5.859375
6655		0.000000
6656		-9.765625
6657		-3.906250
6658		-15.625000
6659		-7.812500
6660		-19.531250
6661		-11.718750
6662		-23.437500
6663		-17.578125
6664		-29.296875
6665		-21.484375
6666		-33.203125
6667		-27.343750
6668		-37.109375
6669		-31.250000
6670		-41.015625
6671		-35.156250
6672		-46.875000
6673		-39.062500
6674		-50.781250
6675		-44.921875
6676		-54.687500
6677		-48.828125
6678		-58.593750
6679		-52.734375
6680		-62.500000
6681		-56.640625
6682		-68.359375
6683		-60.546875
6684		-72.265625
6685		-66.406250
6686		-76.171875
6687		-70.312500
6688		-80.078125
6689		-74.218750
6690		-85.937500
6691		-78.125000
6692		-89.843750
6693		-80.078125
6694		-91.796875
6695		-85.937500
6696		-95.703125
6697		-89.843750
6698		-99.609375
6699		-93.750000
6700		-103.515625
6701		-97.656250
6702		-107.421875
6703		-101.562500
6704		-111.328125
6705		-105.468750
6706		-115.234375
6707		-109.375000
6708		-119.140625
6709		-111.328125
6710		-121.093750
6711		-115.234375
6712		-125.000000
6713		-119.140625
6714		-128.906250
6715		-123.046875
6716		-130.859375
6717		-126.953125
6718		-134.765625
6719		-128.906250
6720		-136.718750
6721		-132.812500
6722		-140.625000
6723		-134.765625
6724		-144.531250
6725		-138.671875
6726		-146.484375
6727		-138.671875
6728		-148.437500
6729		-144.531250
6730		-150.390625
6731		-146.484375
6732		-152.343750
6733		-148.437500
6734		-154.296875
6735		-150.390625
6736		-158.203125
6737		-152.343750
6738		-160.156250
6739		-154.296875
6740		-162.109375
6741		-158.203125
6742		-164.062500
6743		-158.203125
6744		-164.062500
6745		-160.156250
6746		-166.015625
6747		-162.109375
6748		-167.968750
6749		-164.062500
6750		-167.968750
6751		-164.062500
6752		-169.921875
6753		-166.015625
6754		-171.875000
6755		-167.968750
6756		-171.875000
6757		-167.968750
6758		-173.828125
6759		-169.921875
6760		-173.828125
6761		-169.921875
6762		-173.828125
6763		-169.921875
6764		-173.828125
6765		-171.875000
6766		-173.828125
6767		-171.875000
6768		-173.828125
6769		-171.875000
6770		-173.828125
6771		-171.875000
6772		-173.828125
6773		-169.921875
6774		-173.828125
6775		-169.921875
6776		-173.828125
6777		-169.921875
6778		-171.875000
6779		-169.921875
6780		-171.875000
6781		-167.968750
6782		-171.875000
6783		-167.968750
6784		-169.921875
6785		-166.015625
6786		-169.921875
6787		-166.015625
6788		-167.968750
6789		-164.062500
6790		-166.015625
6791		-162.109375
6792		-164.062500
6793		-160.156250
6794		-164.062500
6795		-160.156250
6796		-162.109375
6797		-158.203125
6798		-160.156250
6799		-156.250000
6800		-158.203125
6801		-154.296875
6802		-156.250000
6803		-150.390625
6804		-152.343750
6805		-148.437500
6806		-150.390625
6807		-146.484375
6808		-148.437500
6809		-142.578125
6810		-144.531250
6811		-140.625000
6812		-142.578125
6813		-138.671875
6814		-140.625000
6815		-134.765625
6816		-136.718750
6817		-130.859375
6818		-134.765625
6819		-128.906250
6820		-130.859375
6821		-125.000000
6822		-126.953125
6823		-121.093750
6824		-123.046875
6825		-119.140625
6826		-121.093750
6827		-115.234375
6828		-117.187500
6829		-111.328125
6830		-113.281250
6831		-107.421875
6832		-109.375000
6833		-103.515625
6834		-105.468750
6835		-99.609375
6836		-101.562500
6837		-95.703125
6838		-97.656250
6839		-91.796875
6840		-93.750000
6841		-87.890625
6842		-89.843750
6843		-83.984375
6844		-85.937500
6845		-80.078125
6846		-80.078125
6847		-74.218750
6848		-76.171875
6849		-70.312500
6850		-72.265625
6851		-66.406250
6852		-68.359375
6853		-62.500000
6854		-64.453125
6855		-58.593750
6856		-58.593750
6857		-52.734375
6858		-54.687500
6859		-48.828125
6860		-50.781250
6861		-44.921875
6862		-46.875000
6863		-39.062500
6864		-41.015625
6865		-35.156250
6866		-37.109375
6867		-31.250000
6868		-33.203125
6869		-25.390625
6870		-27.343750
6871		-21.484375
6872		-23.437500
6873		-17.578125
6874		-19.531250
6875		-11.718750
6876		-13.671875
6877		-7.812500
6878		-9.765625
6879		-3.906250
6880		-5.859375
6881		1.953125
6882		-1.953125
6883		5.859375
6884		3.906250
6885		9.765625
6886		7.812500
6887		13.671875
6888		11.718750
6889		19.531250
6890		17.578125
6891		23.437500
6892		21.484375
6893		27.343750
6894		25.390625
6895		31.250000
6896		29.296875
6897		37.109375
6898		35.156250
6899		41.015625
6900		39.062500
6901		44.921875
6902		42.968750
6903		48.828125
6904		46.875000
6905		52.734375
6906		50.781250
6907		56.640625
6908		54.687500
6909		60.546875
6910		58.593750
6911		64.453125
6912		62.500000
6913		68.359375
6914		66.406250
6915		72.265625
6916		70.312500
6917		74.218750
6918		72.265625
6919		78.125000
6920		76.171875
6921		82.031250
6922		80.078125
6923		85.937500
6924		83.984375
6925		89.843750
6926		87.890625
6927		91.796875
6928		89.843750
6929		95.703125
6930		93.750000
6931		97.656250
6932		95.703125
6933		101.562500
6934		99.609375
6935		105.468750
6936		101.562500
6937		107.421875
6938		105.468750
6939		109.375000
6940		107.421875
6941		113.281250
6942		111.328125
6943		115.234375
6944		113.281250
6945		117.187500
6946		115.234375
6947		119.140625
6948		117.187500
6949		123.046875
6950		121.093750
6951		125.000000
6952		123.046875
6953		126.953125
6954		125.000000
6955		128.906250
6956		126.953125
6957		130.859375
6958		128.906250
6959		132.812500
6960		130.859375
6961		134.765625
6962		132.812500
6963		136.718750
6964		134.765625
6965		138.671875
6966		136.718750
6967		140.625000
6968		138.671875
6969		142.578125
6970		138.671875
6971		142.578125
6972		140.625000
6973		144.531250
6974		142.578125
6975		146.484375
6976		142.578125
6977		146.484375
6978		144.531250
6979		148.437500
6980		144.531250
6981		148.437500
6982		146.484375
6983		150.390625
6984		146.484375
6985		150.390625
6986		148.437500
6987		152.343750
6988		148.437500
6989		152.343750
6990		150.390625
6991		152.343750
6992		150.390625
6993		152.343750
6994		150.390625
6995		154.296875
6996		150.390625
6997		154.296875
6998		152.343750
6999		154.296875
7000		152.343750
7001		154.296875
7002		152.343750
7003		154.296875
7004		152.343750
7005		154.296875
7006		152.343750
7007		154.296875
7008		150.390625
7009		154.296875
7010		150.390625
7011		154.296875
7012		150.390625
7013		154.296875
7014		150.390625
7015		154.296875
7016		150.390625
7017		152.343750
7018		148.437500
7019		152.343750
7020		148.437500
7021		152.343750
7022		148.437500
7023		150.390625
7024		146.484375
7025		150.390625
7026		146.484375
7027		150.390625
7028		144.531250
7029		148.437500
7030		144.531250
7031		146.484375
7032		142.578125
7033		146.484375
7034		142.578125
7035		144.531250
7036		140.625000
7037		144.531250
7038		138.671875
7039		142.578125
7040		136.718750
7041		140.625000
7042		134.765625
7043		138.671875
7044		132.812500
7045		136.718750
7046		130.859375
7047		136.718750
7048		130.859375
7049		134.765625
7050		126.953125
7051		132.812500
7052		125.000000
7053		130.859375
7054		123.046875
7055		126.953125
7056		121.093750
7057		125.000000
7058		119.140625
7059		123.046875
7060		117.187500
7061		121.093750
7062		113.281250
7063		119.140625
7064		111.328125
7065		115.234375
7066		109.375000
7067		113.281250
7068		105.468750
7069		109.375000
7070		103.515625
7071		107.421875
7072		99.609375
7073		103.515625
7074		95.703125
7075		101.562500
7076		93.750000
7077		97.656250
7078		89.843750
7079		95.703125
7080		85.937500
7081		91.796875
7082		82.031250
7083		87.890625
7084		80.078125
7085		85.937500
7086		76.171875
7087		82.031250
7088		72.265625
7089		78.125000
7090		68.359375
7091		74.218750
7092		64.453125
7093		70.312500
7094		60.546875
7095		66.406250
7096		56.640625
7097		62.500000
7098		52.734375
7099		58.593750
7100		48.828125
7101		54.687500
7102		44.921875
7103		50.781250
7104		41.015625
7105		46.875000
7106		37.109375
7107		42.968750
7108		33.203125
7109		39.062500
7110		29.296875
7111		35.156250
7112		23.437500
7113		29.296875
7114		19.531250
7115		25.390625
7116		15.625000
7117		21.484375
7118		11.718750
7119		17.578125
7120		5.859375
7121		13.671875
7122		1.953125
7123		9.765625
7124		-1.953125
7125		3.906250
7126		-5.859375
7127		0.000000
7128		-11.718750
7129		-3.906250
7130		-15.625000
7131		-9.765625
7132		-19.531250
7133		-13.671875
7134		-23.437500
7135		-17.578125
7136		-29.296875
7137		-23.437500
7138		-33.203125
7139		-27.343750
7140		-37.109375
7141		-31.250000
7142		-42.968750
7143		-37.109375
7144		-46.875000
7145		-41.015625
7146		-50.781250
7147		-44.921875
7148		-54.687500
7149		-48.828125
7150		-60.546875
7151		-52.734375
7152		-64.453125
7153		-58.593750
7154		-68.359375
7155		-62.500000
7156		-72.265625
7157		-66.406250
7158		-76.171875
7159		-70.312500
7160		-80.078125
7161		-74.218750
7162		-83.984375
7163		-78.125000
7164		-87.890625
7165		-82.031250
7166		-91.796875
7167		-87.890625
7168		-95.703125
7169		-89.843750
7170		-99.609375
7171		-95.703125
7172		-103.515625
7173		-97.656250
7174		-107.421875
7175		-101.562500
7176		-111.328125
7177		-105.468750
7178		-115.234375
7179		-109.375000
7180		-119.140625
7181		-113.281250
7182		-121.093750
7183		-117.187500
7184		-125.000000
7185		-119.140625
7186		-128.906250
7187		-123.046875
7188		-132.812500
7189		-126.953125
7190		-134.765625
7191		-128.906250
7192		-136.718750
7193		-132.812500
7194		-140.625000
7195		-136.718750
7196		-142.578125
7197		-138.671875
7198		-146.484375
7199		-140.625000
7200		-148.437500
7201		-142.578125
7202		-150.390625
7203		-146.484375
7204		-154.296875
7205		-148.437500
7206		-156.250000
7207		-150.390625
7208		-158.203125
7209		-154.296875
7210		-160.156250
7211		-156.250000
7212		-162.109375
7213		-158.203125
7214		-164.062500
7215		-160.156250
7216		-166.015625
7217		-160.156250
7218		-166.015625
7219		-162.109375
7220		-167.968750
7221		-164.062500
7222		-169.921875
7223		-166.015625
7224		-169.921875
7225		-166.015625
7226		-171.875000
7227		-167.968750
7228		-171.875000
7229		-167.968750
7230		-171.875000
7231		-169.921875
7232		-173.828125
7233		-169.921875
7234		-173.828125
7235		-169.921875
7236		-173.828125
7237		-169.921875
7238		-173.828125
7239		-169.921875
7240		-173.828125
7241		-171.875000
7242		-173.828125
7243		-171.875000
7244		-173.828125
7245		-171.875000
7246		-173.828125
7247		-169.921875
7248		-173.828125
7249		-169.921875
7250		-171.875000
7251		-169.921875
7252		-171.875000
7253		-167.968750
7254		-169.921875
7255		-167.968750
7256		-169.921875
7257		-166.015625
7258		-167.968750
7259		-166.015625
7260		-167.968750
7261		-164.062500
7262		-166.015625
7263		-162.109375
7264		-166.015625
7265		-160.156250
7266		-162.109375
7267		-158.203125
7268		-160.156250
7269		-156.250000
7270		-160.156250
7271		-154.296875
7272		-156.250000
7273		-152.343750
7274		-154.296875
7275		-150.390625
7276		-152.343750
7277		-148.437500
7278		-150.390625
7279		-144.531250
7280		-148.437500
7281		-142.578125
7282		-144.531250
7283		-140.625000
7284		-142.578125
7285		-136.718750
7286		-138.671875
7287		-134.765625
7288		-136.718750
7289		-130.859375
7290		-132.812500
7291		-126.953125
7292		-128.906250
7293		-125.000000
7294		-126.953125
7295		-121.093750
7296		-123.046875
7297		-117.187500
7298		-119.140625
7299		-113.281250
7300		-115.234375
7301		-109.375000
7302		-111.328125
7303		-105.468750
7304		-107.421875
7305		-101.562500
7306		-103.515625
7307		-97.656250
7308		-99.609375
7309		-93.750000
7310		-95.703125
7311		-89.843750
7312		-91.796875
7313		-85.937500
7314		-87.890625
7315		-82.031250
7316		-83.984375
7317		-78.125000
7318		-80.078125
7319		-74.218750
7320		-76.171875
7321		-70.312500
7322		-72.265625
7323		-64.453125
7324		-66.406250
7325		-60.546875
7326		-62.500000
7327		-56.640625
7328		-58.593750
7329		-50.781250
7330		-52.734375
7331		-46.875000
7332		-48.828125
7333		-42.968750
7334		-44.921875
7335		-37.109375
7336		-39.062500
7337		-33.203125
7338		-35.156250
7339		-29.296875
7340		-31.250000
7341		-23.437500
7342		-25.390625
7343		-19.531250
7344		-21.484375
7345		-15.625000
7346		-17.578125
7347		-9.765625
7348		-11.718750
7349		-5.859375
7350		-7.812500
7351		-1.953125
7352		-3.906250
7353		1.953125
7354		1.953125
7355		7.812500
7356		5.859375
7357		11.718750
7358		9.765625
7359		15.625000
7360		13.671875
7361		19.531250
7362		17.578125
7363		25.390625
7364		23.437500
7365		29.296875
7366		27.343750
7367		33.203125
7368		31.250000
7369		37.109375
7370		35.156250
7371		41.015625
7372		39.062500
7373		44.921875
7374		44.921875
7375		48.828125
7376		48.828125
7377		54.687500
7378		50.781250
7379		58.593750
7380		56.640625
7381		60.546875
7382		60.546875
7383		64.453125
7384		62.500000
7385		68.359375
7386		66.406250
7387		72.265625
7388		70.312500
7389		76.171875
7390		74.218750
7391		80.078125
7392		78.125000
7393		83.984375
7394		82.031250
7395		85.937500
7396		83.984375
7397		89.843750
7398		87.890625
7399		93.750000
7400		91.796875
7401		95.703125
7402		93.750000
7403		99.609375
7404		97.656250
7405		101.562500
7406		99.609375
7407		105.468750
7408		103.515625
7409		107.421875
7410		105.468750
7411		111.328125
7412		109.375000
7413		113.281250
7414		111.328125
7415		115.234375
7416		115.234375
7417		119.140625
7418		117.187500
7419		121.093750
7420		119.140625
7421		123.046875
7422		121.093750
7423		125.000000
7424		123.046875
7425		126.953125
7426		125.000000
7427		128.906250
7428		126.953125
7429		130.859375
7430		128.906250
7431		132.812500
7432		130.859375
7433		134.765625
7434		132.812500
7435		136.718750
7436		134.765625
7437		138.671875
7438		136.718750
7439		140.625000
7440		138.671875
7441		142.578125
7442		138.671875
7443		142.578125
7444		140.625000
7445		144.531250
7446		142.578125
7447		146.484375
7448		142.578125
7449		148.437500
7450		144.531250
7451		148.437500
7452		146.484375
7453		148.437500
7454		146.484375
7455		150.390625
7456		148.437500
7457		150.390625
7458		148.437500
7459		150.390625
7460		148.437500
7461		152.343750
7462		148.437500
7463		152.343750
7464		150.390625
7465		152.343750
7466		150.390625
7467		154.296875
7468		150.390625
7469		154.296875
7470		150.390625
7471		154.296875
7472		150.390625
7473		154.296875
7474		150.390625
7475		154.296875
7476		150.390625
7477		154.296875
7478		150.390625
7479		154.296875
7480		150.390625
7481		154.296875
7482		150.390625
7483		154.296875
7484		150.390625
7485		154.296875
7486		148.437500
7487		152.343750
7488		148.437500
7489		152.343750
7490		148.437500
7491		152.343750
7492		148.437500
7493		150.390625
7494		146.484375
7495		150.390625
7496		144.531250
7497		148.437500
7498		144.531250
7499		148.437500
7500		144.531250
7501		148.437500
7502		142.578125
7503		146.484375
7504		140.625000
7505		144.531250
7506		140.625000
7507		144.531250
7508		138.671875
7509		142.578125
7510		136.718750
7511		140.625000
7512		134.765625
7513		138.671875
7514		132.812500
7515		138.671875
7516		130.859375
7517		136.718750
7518		130.859375
7519		134.765625
7520		128.906250
7521		132.812500
7522		125.000000
7523		130.859375
7524		123.046875
7525		128.906250
7526		121.093750
7527		126.953125
7528		119.140625
7529		123.046875
7530		117.187500
7531		121.093750
7532		113.281250
7533		119.140625
7534		111.328125
7535		117.187500
7536		109.375000
7537		113.281250
7538		105.468750
7539		111.328125
7540		103.515625
7541		107.421875
7542		99.609375
7543		105.468750
7544		97.656250
7545		101.562500
7546		93.750000
7547		99.609375
7548		89.843750
7549		95.703125
7550		87.890625
7551		93.750000
7552		83.984375
7553		89.843750
7554		80.078125
7555		85.937500
7556		76.171875
7557		82.031250
7558		72.265625
7559		78.125000
7560		70.312500
7561		74.218750
7562		66.406250
7563		72.265625
7564		62.500000
7565		68.359375
7566		58.593750
7567		64.453125
7568		54.687500
7569		60.546875
7570		50.781250
7571		56.640625
7572		46.875000
7573		52.734375
7574		41.015625
7575		48.828125
7576		37.109375
7577		44.921875
7578		33.203125
7579		39.062500
7580		29.296875
7581		35.156250
7582		25.390625
7583		31.250000
7584		21.484375
7585		27.343750
7586		17.578125
7587		23.437500
7588		11.718750
7589		19.531250
7590		5.859375
7591		13.671875
7592		3.906250
7593		9.765625
7594		0.000000
7595		5.859375
7596		-5.859375
7597		0.000000
7598		-9.765625
7599		-3.906250
7600		-13.671875
7601		-7.812500
7602		-19.531250
7603		-11.718750
7604		-23.437500
7605		-15.625000
7606		-27.343750
7607		-21.484375
7608		-31.250000
7609		-23.437500
7610		-37.109375
7611		-29.296875
7612		-41.015625
7613		-35.156250
7614		-44.921875
7615		-39.062500
7616		-48.828125
7617		-42.968750
7618		-54.687500
7619		-46.875000
7620		-58.593750
7621		-50.781250
7622		-62.500000
7623		-56.640625
7624		-66.406250
7625		-60.546875
7626		-72.265625
7627		-64.453125
7628		-76.171875
7629		-66.406250
7630		-80.078125
7631		-74.218750
7632		-83.984375
7633		-78.125000
7634		-87.890625
7635		-82.031250
7636		-91.796875
7637		-85.937500
7638		-95.703125
7639		-89.843750
7640		-101.562500
7641		-93.750000
7642		-103.515625
7643		-97.656250
7644		-107.421875
7645		-101.562500
7646		-111.328125
7647		-105.468750
7648		-115.234375
7649		-109.375000
7650		-119.140625
7651		-111.328125
7652		-123.046875
7653		-113.281250
7654		-125.000000
7655		-119.140625
7656		-128.906250
7657		-121.093750
7658		-130.859375
7659		-123.046875
7660		-136.718750
7661		-128.906250
7662		-136.718750
7663		-132.812500
7664		-140.625000
7665		-134.765625
7666		-144.531250
7667		-138.671875
7668		-146.484375
7669		-138.671875
7670		-148.437500
7671		-142.578125
7672		-150.390625
7673		-146.484375
7674		-156.250000
7675		-146.484375
7676		-156.250000
7677		-148.437500
7678		-158.203125
7679		-150.390625
7680		-160.156250
7681		-156.250000
7682		-162.109375
7683		-158.203125
7684		-166.015625
7685		-158.203125
7686		-166.015625
7687		-160.156250
7688		-166.015625
7689		-162.109375
7690		-169.921875
7691		-164.062500
7692		-171.875000
7693		-162.109375
7694		-173.828125
7695		-166.015625
7696		-171.875000
7697		-167.968750
7698		-171.875000
7699		-169.921875
7700		-173.828125
7701		-169.921875
7702		-175.781250
7703		-167.968750
7704		-175.781250
7705		-169.921875
7706		-173.828125
7707		-171.875000
7708		-177.734375
7709		-167.968750
7710		-175.781250
7711		-171.875000
7712		-175.781250
7713		-167.968750
7714		-173.828125
7715		-171.875000
7716		-173.828125
7717		-169.921875
7718		-175.781250
7719		-167.968750
7720		-173.828125
7721		-167.968750
7722		-171.875000
7723		-169.921875
7724		-173.828125
7725		-166.015625
7726		-173.828125
7727		-164.062500
7728		-171.875000
7729		-164.062500
7730		-167.968750
7731		-164.062500
7732		-167.968750
7733		-164.062500
7734		-166.015625
7735		-160.156250
7736		-166.015625
7737		-158.203125
7738		-162.109375
7739		-158.203125
7740		-160.156250
7741		-156.250000
7742		-160.156250
7743		-150.390625
7744		-156.250000
7745		-148.437500
7746		-154.296875
7747		-148.437500
7748		-152.343750
7749		-146.484375
7750		-148.437500
7751		-142.578125
7752		-148.437500
7753		-140.625000
7754		-144.531250
7755		-138.671875
7756		-140.625000
7757		-134.765625
7758		-138.671875
7759		-130.859375
7760		-136.718750
7761		-128.906250
7762		-132.812500
7763		-126.953125
7764		-128.906250
7765		-123.046875
7766		-125.000000
7767		-119.140625
7768		-121.093750
7769		-113.281250
7770		-121.093750
7771		-111.328125
7772		-115.234375
7773		-109.375000
7774		-109.375000
7775		-105.468750
7776		-109.375000
7777		-99.609375
7778		-103.515625
7779		-93.750000
7780		-97.656250
7781		-91.796875
7782		-93.750000
7783		-87.890625
7784		-89.843750
7785		-83.984375
7786		-87.890625
7787		-80.078125
7788		-83.984375
7789		-76.171875
7790		-78.125000
7791		-72.265625
7792		-74.218750
7793		-64.453125
7794		-72.265625
7795		-62.500000
7796		-66.406250
7797		-58.593750
7798		-60.546875
7799		-52.734375
7800		-56.640625
7801		-48.828125
7802		-52.734375
7803		-42.968750
7804		-46.875000
7805		-39.062500
7806		-42.968750
7807		-37.109375
7808		-37.109375
7809		-31.250000
7810		-35.156250
7811		-27.343750
7812		-29.296875
7813		-21.484375
7814		-23.437500
7815		-17.578125
7816		-19.531250
7817		-13.671875
7818		-15.625000
7819		-7.812500
7820		-13.671875
7821		-3.906250
7822		-5.859375
7823		0.000000
7824		-1.953125
7825		3.906250
7826		1.953125
7827		11.718750
7828		5.859375
7829		15.625000
7830		11.718750
7831		17.578125
7832		15.625000
7833		21.484375
7834		19.531250
7835		27.343750
7836		23.437500
7837		33.203125
7838		29.296875
7839		35.156250
7840		33.203125
7841		39.062500
7842		37.109375
7843		46.875000
7844		37.109375
7845		46.875000
7846		42.968750
7847		50.781250
7848		48.828125
7849		54.687500
7850		52.734375
7851		58.593750
7852		56.640625
7853		62.500000
7854		58.593750
7855		68.359375
7856		64.453125
7857		70.312500
7858		68.359375
7859		76.171875
7860		70.312500
7861		78.125000
7862		76.171875
7863		83.984375
7864		78.125000
7865		83.984375
7866		82.031250
7867		87.890625
7868		85.937500
7869		91.796875
7870		87.890625
7871		95.703125
7872		89.843750
7873		97.656250
7874		95.703125
7875		99.609375
7876		97.656250
7877		103.515625
7878		101.562500
7879		105.468750
7880		103.515625
7881		109.375000
7882		107.421875
7883		111.328125
7884		109.375000
7885		115.234375
7886		111.328125
7887		117.187500
7888		115.234375
7889		121.093750
7890		117.187500
7891		121.093750
7892		119.140625
7893		125.000000
7894		121.093750
7895		126.953125
7896		123.046875
7897		128.906250
7898		126.953125
7899		130.859375
7900		128.906250
7901		132.812500
7902		128.906250
7903		134.765625
7904		130.859375
7905		134.765625
7906		132.812500
7907		138.671875
7908		134.765625
7909		138.671875
7910		136.718750
7911		140.625000
7912		138.671875
7913		142.578125
7914		138.671875
7915		144.531250
7916		140.625000
7917		144.531250
7918		142.578125
7919		146.484375
7920		142.578125
7921		146.484375
7922		144.531250
7923		148.437500
7924		146.484375
7925		150.390625
7926		146.484375
7927		150.390625
7928		146.484375
7929		150.390625
7930		148.437500
7931		150.390625
7932		148.437500
7933		152.343750
7934		150.390625
7935		152.343750
7936		148.437500
7937		154.296875
7938		148.437500
7939		154.296875
7940		148.437500
7941		154.296875
7942		148.437500
7943		154.296875
7944		150.390625
7945		154.296875
7946		150.390625
7947		154.296875
7948		150.390625
7949		154.296875
7950		150.390625
7951		154.296875
7952		150.390625
7953		154.296875
7954		148.437500
7955		154.296875
7956		148.437500
7957		154.296875
7958		146.484375
7959		152.343750
7960		148.437500
7961		152.343750
7962		146.484375
7963		152.343750
7964		146.484375
7965		152.343750
7966		146.484375
7967		150.390625
7968		144.531250
7969		148.437500
7970		144.531250
7971		148.437500
7972		142.578125
7973		148.437500
7974		140.625000
7975		146.484375
7976		138.671875
7977		144.531250
7978		138.671875
7979		142.578125
7980		136.718750
7981		142.578125
7982		136.718750
7983		140.625000
7984		134.765625
7985		138.671875
7986		130.859375
7987		136.718750
7988		130.859375
7989		134.765625
7990		126.953125
7991		134.765625
7992		126.953125
7993		132.812500
7994		125.000000
7995		130.859375
7996		121.093750
7997		128.906250
7998		121.093750
7999		125.000000
8000		117.187500
8001		123.046875
8002		115.234375
8003		119.140625
8004		113.281250
8005		117.187500
8006		109.375000
8007		115.234375
8008		107.421875
8009		111.328125
8010		103.515625
8011		109.375000
8012		101.562500
8013		107.421875
8014		97.656250
8015		103.515625
8016		95.703125
8017		101.562500
8018		91.796875
8019		97.656250
8020		89.843750
8021		93.750000
8022		85.937500
8023		91.796875
8024		80.078125
8025		87.890625
8026		78.125000
8027		85.937500
8028		74.218750
8029		80.078125
8030		72.265625
8031		78.125000
8032		68.359375
8033		74.218750
8034		64.453125
8035		70.312500
8036		60.546875
8037		66.406250
8038		56.640625
8039		62.500000
8040		52.734375
8041		58.593750
8042		48.828125
8043		56.640625
8044		44.921875
8045		50.781250
8046		39.062500
8047		46.875000
8048		35.156250
8049		41.015625
8050		31.250000
8051		37.109375
8052		27.343750
8053		33.203125
8054		23.437500
8055		29.296875
8056		17.578125
8057		25.390625
8058		13.671875
8059		21.484375
8060		9.765625
8061		17.578125
8062		5.859375
8063		13.671875
8064		1.953125
8065		7.812500
8066		-3.906250
8067		3.906250
8068		-7.812500
8069		-1.953125
8070		-11.718750
8071		-5.859375
8072		-17.578125
8073		-9.765625
8074		-21.484375
8075		-13.671875
8076		-25.390625
8077		-19.531250
8078		-29.296875
8079		-23.437500
8080		-35.156250
8081		-27.343750
8082		-39.062500
8083		-31.250000
8084		-42.968750
8085		-37.109375
8086		-46.875000
8087		-41.015625
8088		-50.781250
8089		-44.921875
8090		-56.640625
8091		-48.828125
8092		-62.500000
8093		-54.687500
8094		-64.453125
8095		-58.593750
8096		-70.312500
8097		-62.500000
8098		-74.218750
8099		-66.406250
8100		-78.125000
8101		-72.265625
8102		-82.031250
8103		-76.171875
8104		-85.937500
8105		-80.078125
8106		-89.843750
8107		-83.984375
8108		-93.750000
8109		-87.890625
8110		-97.656250
8111		-89.843750
8112		-101.562500
8113		-95.703125
8114		-105.468750
8115		-99.609375
8116		-109.375000
8117		-103.515625
8118		-113.281250
8119		-107.421875
8120		-117.187500
8121		-111.328125
8122		-121.093750
8123		-115.234375
8124		-123.046875
8125		-117.187500
8126		-126.953125
8127		-121.093750
8128		-130.859375
8129		-125.000000
8130		-132.812500
8131		-126.953125
8132		-136.718750
8133		-130.859375
8134		-138.671875
8135		-134.765625
8136		-142.578125
8137		-136.718750
8138		-144.531250
8139		-140.625000
8140		-148.437500
8141		-142.578125
8142		-152.343750
8143		-146.484375
8144		-152.343750
8145		-148.437500
8146		-154.296875
8147		-150.390625
8148		-158.203125
8149		-152.343750
8150		-160.156250
8151		-154.296875
8152		-162.109375
8153		-156.250000
8154		-164.062500
8155		-160.156250
8156		-164.062500
8157		-160.156250
8158		-166.015625
8159		-162.109375
8160		-167.968750
8161		-164.062500
8162		-169.921875
8163		-166.015625
8164		-169.921875
8165		-166.015625
8166		-171.875000
8167		-167.968750
8168		-171.875000
8169		-169.921875
8170		-173.828125
8171		-169.921875
8172		-175.781250
8173		-169.921875
8174		-175.781250
8175		-171.875000
8176		-175.781250
8177		-171.875000
8178		-175.781250
8179		-171.875000
8180		-175.781250
8181		-171.875000
8182		-175.781250
8183		-173.828125
8184		-175.781250
8185		-171.875000
8186		-175.781250
8187		-171.875000
8188		-175.781250
8189		-171.875000
8190		-175.781250
8191		-171.875000
8192		-173.828125
8193		-169.921875
8194		-173.828125
8195		-169.921875
8196		-171.875000
8197		-169.921875
8198		-171.875000
8199		-167.968750
8200		-169.921875
8201		-167.968750
8202		-169.921875
8203		-166.015625
8204		-167.968750
8205		-164.062500
8206		-166.015625
8207		-162.109375
8208		-164.062500
8209		-160.156250
8210		-164.062500
8211		-158.203125
8212		-162.109375
8213		-156.250000
8214		-160.156250
8215		-154.296875
8216		-158.203125
8217		-152.343750
8218		-154.296875
8219		-150.390625
8220		-152.343750
8221		-146.484375
8222		-150.390625
8223		-144.531250
8224		-146.484375
8225		-142.578125
8226		-144.531250
8227		-140.625000
8228		-142.578125
8229		-136.718750
8230		-138.671875
8231		-132.812500
8232		-134.765625
8233		-128.906250
8234		-132.812500
8235		-126.953125
8236		-128.906250
8237		-123.046875
8238		-125.000000
8239		-119.140625
8240		-121.093750
8241		-117.187500
8242		-119.140625
8243		-111.328125
8244		-115.234375
8245		-109.375000
8246		-111.328125
8247		-105.468750
8248		-107.421875
8249		-101.562500
8250		-103.515625
8251		-97.656250
8252		-99.609375
8253		-93.750000
8254		-95.703125
8255		-87.890625
8256		-91.796875
8257		-85.937500
8258		-87.890625
8259		-80.078125
8260		-82.031250
8261		-76.171875
8262		-78.125000
8263		-72.265625
8264		-74.218750
8265		-68.359375
8266		-70.312500
8267		-62.500000
8268		-64.453125
8269		-58.593750
8270		-60.546875
8271		-54.687500
8272		-56.640625
8273		-50.781250
8274		-50.781250
8275		-44.921875
8276		-46.875000
8277		-41.015625
8278		-42.968750
8279		-37.109375
8280		-39.062500
8281		-31.250000
8282		-33.203125
8283		-27.343750
8284		-29.296875
8285		-23.437500
8286		-25.390625
8287		-17.578125
8288		-19.531250
8289		-13.671875
8290		-15.625000
8291		-9.765625
8292		-9.765625
8293		-3.906250
8294		-5.859375
8295		0.000000
8296		-1.953125
8297		3.906250
8298		1.953125
8299		9.765625
8300		7.812500
8301		13.671875
8302		11.718750
8303		17.578125
8304		15.625000
8305		23.437500
8306		19.531250
8307		27.343750
8308		23.437500
8309		31.250000
8310		27.343750
8311		35.156250
8312		33.203125
8313		39.062500
8314		37.109375
8315		42.968750
8316		41.015625
8317		48.828125
8318		44.921875
8319		50.781250
8320		48.828125
8321		54.687500
8322		52.734375
8323		60.546875
8324		56.640625
8325		62.500000
8326		60.546875
8327		66.406250
8328		64.453125
8329		70.312500
8330		68.359375
8331		74.218750
8332		72.265625
8333		78.125000
8334		74.218750
8335		82.031250
8336		78.125000
8337		83.984375
8338		82.031250
8339		87.890625
8340		85.937500
8341		91.796875
8342		87.890625
8343		93.750000
8344		91.796875
8345		97.656250
8346		95.703125
8347		99.609375
8348		97.656250
8349		103.515625
8350		101.562500
8351		105.468750
8352		103.515625
8353		109.375000
8354		107.421875
8355		111.328125
8356		109.375000
8357		115.234375
8358		113.281250
8359		117.187500
8360		115.234375
8361		119.140625
8362		117.187500
8363		121.093750
8364		119.140625
8365		125.000000
8366		121.093750
8367		126.953125
8368		123.046875
8369		128.906250
8370		125.000000
8371		130.859375
8372		128.906250
8373		132.812500
8374		130.859375
8375		134.765625
8376		130.859375
8377		136.718750
8378		132.812500
8379		138.671875
8380		134.765625
8381		138.671875
8382		136.718750
8383		140.625000
8384		138.671875
8385		142.578125
8386		138.671875
8387		142.578125
8388		140.625000
8389		144.531250
8390		140.625000
8391		146.484375
8392		142.578125
8393		146.484375
8394		144.531250
8395		148.437500
8396		144.531250
8397		148.437500
8398		146.484375
8399		150.390625
8400		146.484375
8401		150.390625
8402		148.437500
8403		150.390625
8404		148.437500
8405		152.343750
8406		148.437500
8407		152.343750
8408		148.437500
8409		154.296875
8410		150.390625
8411		152.343750
8412		150.390625
8413		154.296875
8414		150.390625
8415		154.296875
8416		150.390625
8417		154.296875
8418		150.390625
8419		154.296875
8420		150.390625
8421		154.296875
8422		150.390625
8423		154.296875
8424		150.390625
8425		154.296875
8426		148.437500
8427		152.343750
8428		148.437500
8429		152.343750
8430		148.437500
8431		152.343750
8432		148.437500
8433		150.390625
8434		146.484375
8435		150.390625
8436		146.484375
8437		150.390625
8438		146.484375
8439		148.437500
8440		144.531250
8441		148.437500
8442		142.578125
8443		148.437500
8444		142.578125
8445		146.484375
8446		140.625000
8447		146.484375
8448		140.625000
8449		144.531250
8450		138.671875
8451		142.578125
8452		136.718750
8453		140.625000
8454		134.765625
8455		138.671875
8456		132.812500
8457		136.718750
8458		130.859375
8459		136.718750
8460		128.906250
8461		134.765625
8462		126.953125
8463		132.812500
8464		125.000000
8465		130.859375
8466		123.046875
8467		128.906250
8468		121.093750
8469		126.953125
8470		119.140625
8471		123.046875
8472		115.234375
8473		121.093750
8474		113.281250
8475		119.140625
8476		111.328125
8477		117.187500
8478		109.375000
8479		113.281250
8480		105.468750
8481		111.328125
8482		103.515625
8483		109.375000
8484		99.609375
8485		105.468750
8486		97.656250
8487		101.562500
8488		93.750000
8489		99.609375
8490		91.796875
8491		95.703125
8492		87.890625
8493		93.750000
8494		83.984375
8495		89.843750
8496		80.078125
8497		85.937500
8498		76.171875
8499		82.031250
8500		74.218750
8501		80.078125
8502		70.312500
8503		76.171875
8504		66.406250
8505		72.265625
8506		62.500000
8507		68.359375
8508		58.593750
8509		64.453125
8510		54.687500
8511		60.546875
8512		50.781250
8513		56.640625
8514		46.875000
8515		52.734375
8516		42.968750
8517		48.828125
8518		37.109375
8519		44.921875
8520		33.203125
8521		41.015625
8522		29.296875
8523		37.109375
8524		25.390625
8525		31.250000
8526		21.484375
8527		27.343750
8528		17.578125
8529		23.437500
8530		11.718750
8531		19.531250
8532		7.812500
8533		15.625000
8534		3.906250
8535		9.765625
8536		0.000000
8537		5.859375
8538		-3.906250
8539		1.953125
8540		-9.765625
8541		-1.953125
8542		-13.671875
8543		-7.812500
8544		-17.578125
8545		-11.718750
8546		-23.437500
8547		-15.625000
8548		-27.343750
8549		-21.484375
8550		-33.203125
8551		-25.390625
8552		-35.156250
8553		-29.296875
8554		-41.015625
8555		-35.156250
8556		-44.921875
8557		-39.062500
8558		-48.828125
8559		-42.968750
8560		-54.687500
8561		-46.875000
8562		-58.593750
8563		-52.734375
8564		-62.500000
8565		-56.640625
8566		-66.406250
8567		-60.546875
8568		-72.265625
8569		-64.453125
8570		-76.171875
8571		-70.312500
8572		-80.078125
8573		-74.218750
8574		-83.984375
8575		-78.125000
8576		-87.890625
8577		-82.031250
8578		-91.796875
8579		-85.937500
8580		-95.703125
8581		-89.843750
8582		-99.609375
8583		-93.750000
8584		-103.515625
8585		-97.656250
8586		-107.421875
8587		-101.562500
8588		-111.328125
8589		-105.468750
8590		-115.234375
8591		-109.375000
8592		-117.187500
8593		-113.281250
8594		-121.093750
8595		-115.234375
8596		-125.000000
8597		-119.140625
8598		-128.906250
8599		-123.046875
8600		-130.859375
8601		-126.953125
8602		-134.765625
8603		-128.906250
8604		-136.718750
8605		-132.812500
8606		-140.625000
8607		-134.765625
8608		-144.531250
8609		-138.671875
8610		-146.484375
8611		-140.625000
8612		-148.437500
8613		-144.531250
8614		-152.343750
8615		-146.484375
8616		-154.296875
8617		-148.437500
8618		-156.250000
8619		-152.343750
8620		-158.203125
8621		-154.296875
8622		-160.156250
8623		-156.250000
8624		-162.109375
8625		-158.203125
8626		-164.062500
8627		-160.156250
8628		-167.968750
8629		-162.109375
8630		-167.968750
8631		-164.062500
8632		-169.921875
8633		-164.062500
8634		-169.921875
8635		-166.015625
8636		-171.875000
8637		-167.968750
8638		-171.875000
8639		-167.968750
8640		-173.828125
8641		-169.921875
8642		-173.828125
8643		-171.875000
8644		-175.781250
8645		-171.875000
8646		-177.734375
8647		-171.875000
8648		-175.781250
8649		-171.875000
8650		-175.781250
8651		-173.828125
8652		-177.734375
8653		-171.875000
8654		-175.781250
8655		-173.828125
8656		-175.781250
8657		-173.828125
8658		-175.781250
8659		-171.875000
8660		-175.781250
8661		-169.921875
8662		-177.734375
8663		-169.921875
8664		-175.781250
8665		-169.921875
8666		-173.828125
8667		-169.921875
8668		-173.828125
8669		-167.968750
8670		-171.875000
8671		-167.968750
8672		-169.921875
8673		-166.015625
8674		-169.921875
8675		-164.062500
8676		-167.968750
8677		-164.062500
8678		-167.968750
8679		-160.156250
8680		-166.015625
8681		-158.203125
8682		-162.109375
8683		-158.203125
8684		-164.062500
8685		-156.250000
8686		-160.156250
8687		-154.296875
8688		-156.250000
8689		-150.390625
8690		-154.296875
8691		-148.437500
8692		-152.343750
8693		-144.531250
8694		-150.390625
8695		-142.578125
8696		-148.437500
8697		-140.625000
8698		-144.531250
8699		-134.765625
8700		-142.578125
8701		-134.765625
8702		-136.718750
8703		-132.812500
8704		-134.765625
8705		-128.906250
8706		-130.859375
8707		-125.000000
8708		-126.953125
8709		-121.093750
8710		-125.000000
8711		-117.187500
8712		-121.093750
8713		-113.281250
8714		-117.187500
8715		-109.375000
8716		-115.234375
8717		-105.468750
8718		-109.375000
8719		-103.515625
8720		-105.468750
8721		-99.609375
8722		-101.562500
8723		-95.703125
8724		-97.656250
8725		-91.796875
8726		-93.750000
8727		-85.937500
8728		-89.843750
8729		-82.031250
8730		-87.890625
8731		-78.125000
8732		-82.031250
8733		-72.265625
8734		-78.125000
8735		-68.359375
8736		-72.265625
8737		-64.453125
8738		-68.359375
8739		-60.546875
8740		-62.500000
8741		-56.640625
8742		-58.593750
8743		-50.781250
8744		-54.687500
8745		-46.875000
8746		-50.781250
8747		-42.968750
8748		-46.875000
8749		-37.109375
8750		-41.015625
8751		-33.203125
8752		-37.109375
8753		-29.296875
8754		-33.203125
8755		-25.390625
8756		-27.343750
8757		-21.484375
8758		-21.484375
8759		-13.671875
8760		-19.531250
8761		-9.765625
8762		-15.625000
8763		-3.906250
8764		-11.718750
8765		-1.953125
8766		-5.859375
8767		1.953125
8768		-1.953125
8769		5.859375
8770		1.953125
8771		11.718750
8772		9.765625
8773		15.625000
8774		13.671875
8775		19.531250
8776		17.578125
8777		23.437500
8778		21.484375
8779		29.296875
8780		25.390625
8781		33.203125
8782		29.296875
8783		37.109375
8784		33.203125
8785		41.015625
8786		39.062500
8787		46.875000
8788		42.968750
8789		48.828125
8790		46.875000
8791		52.734375
8792		50.781250
8793		56.640625
8794		54.687500
8795		62.500000
8796		56.640625
8797		64.453125
8798		60.546875
8799		68.359375
8800		62.500000
8801		74.218750
8802		68.359375
8803		78.125000
8804		72.265625
8805		78.125000
8806		76.171875
8807		82.031250
8808		80.078125
8809		85.937500
8810		82.031250
8811		91.796875
8812		85.937500
8813		93.750000
8814		87.890625
8815		95.703125
8816		91.796875
8817		101.562500
8818		95.703125
8819		103.515625
8820		99.609375
8821		105.468750
8822		103.515625
8823		107.421875
8824		105.468750
8825		109.375000
8826		107.421875
8827		113.281250
8828		109.375000
8829		117.187500
8830		111.328125
8831		119.140625
8832		115.234375
8833		123.046875
8834		117.187500
8835		123.046875
8836		119.140625
8837		126.953125
8838		121.093750
8839		126.953125
8840		125.000000
8841		128.906250
8842		126.953125
8843		130.859375
8844		126.953125
8845		134.765625
8846		128.906250
8847		136.718750
8848		130.859375
8849		138.671875
8850		132.812500
8851		140.625000
8852		132.812500
8853		140.625000
8854		134.765625
8855		142.578125
8856		138.671875
8857		142.578125
8858		140.625000
8859		144.531250
8860		140.625000
8861		146.484375
8862		140.625000
8863		148.437500
8864		140.625000
8865		148.437500
8866		142.578125
8867		150.390625
8868		144.531250
8869		150.390625
8870		144.531250
8871		152.343750
8872		146.484375
8873		150.390625
8874		148.437500
8875		152.343750
8876		148.437500
8877		154.296875
8878		146.484375
8879		154.296875
8880		148.437500
8881		154.296875
8882		146.484375
8883		154.296875
8884		148.437500
8885		154.296875
8886		148.437500
8887		154.296875
8888		148.437500
8889		156.250000
8890		150.390625
8891		152.343750
8892		150.390625
8893		154.296875
8894		148.437500
8895		154.296875
8896		148.437500
8897		154.296875
8898		146.484375
8899		154.296875
8900		146.484375
8901		154.296875
8902		146.484375
8903		152.343750
8904		146.484375
8905		152.343750
8906		146.484375
8907		150.390625
8908		146.484375
8909		148.437500
8910		142.578125
8911		150.390625
8912		142.578125
8913		150.390625
8914		140.625000
8915		148.437500
8916		140.625000
8917		148.437500
8918		138.671875
8919		146.484375
8920		136.718750
8921		144.531250
8922		136.718750
8923		142.578125
8924		134.765625
8925		140.625000
8926		134.765625
8927		138.671875
8928		130.859375
8929		138.671875
8930		128.906250
8931		136.718750
8932		126.953125
8933		134.765625
8934		125.000000
8935		132.812500
8936		123.046875
8937		130.859375
8938		121.093750
8939		128.906250
8940		121.093750
8941		125.000000
8942		117.187500
8943		123.046875
8944		113.281250
8945		121.093750
8946		111.328125
8947		119.140625
8948		109.375000
8949		115.234375
8950		105.468750
8951		113.281250
8952		103.515625
8953		111.328125
8954		101.562500
8955		107.421875
8956		97.656250
8957		105.468750
8958		95.703125
8959		101.562500
8960		91.796875
8961		97.656250
8962		87.890625
8963		95.703125
8964		83.984375
8965		93.750000
8966		80.078125
8967		89.843750
8968		78.125000
8969		85.937500
8970		72.265625
8971		82.031250
8972		72.265625
8973		78.125000
8974		68.359375
8975		74.218750
8976		64.453125
8977		70.312500
8978		58.593750
8979		66.406250
8980		54.687500
8981		64.453125
8982		50.781250
8983		60.546875
8984		46.875000
8985		56.640625
8986		44.921875
8987		52.734375
8988		39.062500
8989		48.828125
8990		37.109375
8991		42.968750
8992		31.250000
8993		39.062500
8994		27.343750
8995		35.156250
8996		23.437500
8997		31.250000
8998		17.578125
8999		27.343750
9000		13.671875
9001		21.484375
9002		9.765625
9003		17.578125
9004		5.859375
9005		13.671875
9006		1.953125
9007		9.765625
9008		-1.953125
9009		3.906250
9010		-7.812500
9011		0.000000
9012		-13.671875
9013		-3.906250
9014		-17.578125
9015		-7.812500
9016		-21.484375
9017		-13.671875
9018		-25.390625
9019		-15.625000
9020		-31.250000
9021		-21.484375
9022		-33.203125
9023		-27.343750
9024		-39.062500
9025		-31.250000
9026		-42.968750
9027		-35.156250
9028		-48.828125
9029		-41.015625
9030		-52.734375
9031		-42.968750
9032		-56.640625
9033		-48.828125
9034		-62.500000
9035		-52.734375
9036		-66.406250
9037		-56.640625
9038		-70.312500
9039		-62.500000
9040		-72.265625
9041		-64.453125
9042		-78.125000
9043		-72.265625
9044		-83.984375
9045		-76.171875
9046		-85.937500
9047		-78.125000
9048		-89.843750
9049		-82.031250
9050		-93.750000
9051		-85.937500
9052		-99.609375
9053		-89.843750
9054		-103.515625
9055		-93.750000
9056		-105.468750
9057		-97.656250
9058		-109.375000
9059		-103.515625
9060		-113.281250
9061		-107.421875
9062		-117.187500
9063		-109.375000
9064		-121.093750
9065		-111.328125
9066		-125.000000
9067		-117.187500
9068		-128.906250
9069		-121.093750
9070		-130.859375
9071		-123.046875
9072		-134.765625
9073		-126.953125
9074		-136.718750
9075		-130.859375
9076		-138.671875
9077		-134.765625
9078		-142.578125
9079		-136.718750
9080		-146.484375
9081		-138.671875
9082		-150.390625
9083		-140.625000
9084		-152.343750
9085		-144.531250
9086		-154.296875
9087		-146.484375
9088		-156.250000
9089		-150.390625
9090		-158.203125
9091		-150.390625
9092		-160.156250
9093		-156.250000
9094		-162.109375
9095		-158.203125
9096		-166.015625
9097		-158.203125
9098		-167.968750
9099		-160.156250
9100		-167.968750
9101		-162.109375
9102		-169.921875
9103		-164.062500
9104		-171.875000
9105		-166.015625
9106		-171.875000
9107		-166.015625
9108		-171.875000
9109		-169.921875
9110		-173.828125
9111		-169.921875
9112		-175.781250
9113		-169.921875
9114		-177.734375
9115		-169.921875
9116		-177.734375
9117		-171.875000
9118		-179.687500
9119		-171.875000
9120		-177.734375
9121		-171.875000
9122		-177.734375
9123		-171.875000
9124		-177.734375
9125		-173.828125
9126		-177.734375
9127		-173.828125
9128		-177.734375
9129		-171.875000
9130		-179.687500
9131		-171.875000
9132		-177.734375
9133		-171.875000
9134		-177.734375
9135		-169.921875
9136		-177.734375
9137		-169.921875
9138		-175.781250
9139		-169.921875
9140		-175.781250
9141		-167.968750
9142		-171.875000
9143		-167.968750
9144		-169.921875
9145		-167.968750
9146		-169.921875
9147		-164.062500
9148		-169.921875
9149		-162.109375
9150		-167.968750
9151		-160.156250
9152		-166.015625
9153		-160.156250
9154		-164.062500
9155		-158.203125
9156		-162.109375
9157		-154.296875
9158		-160.156250
9159		-154.296875
9160		-156.250000
9161		-152.343750
9162		-154.296875
9163		-148.437500
9164		-152.343750
9165		-144.531250
9166		-150.390625
9167		-142.578125
9168		-146.484375
9169		-140.625000
9170		-144.531250
9171		-136.718750
9172		-142.578125
9173		-132.812500
9174		-138.671875
9175		-130.859375
9176		-132.812500
9177		-128.906250
9178		-130.859375
9179		-125.000000
9180		-128.906250
9181		-119.140625
9182		-125.000000
9183		-115.234375
9184		-123.046875
9185		-113.281250
9186		-117.187500
9187		-109.375000
9188		-115.234375
9189		-105.468750
9190		-109.375000
9191		-101.562500
9192		-105.468750
9193		-99.609375
9194		-101.562500
9195		-95.703125
9196		-97.656250
9197		-89.843750
9198		-93.750000
9199		-85.937500
9200		-89.843750
9201		-82.031250
9202		-85.937500
9203		-76.171875
9204		-82.031250
9205		-72.265625
9206		-78.125000
9207		-70.312500
9208		-72.265625
9209		-64.453125
9210		-66.406250
9211		-60.546875
9212		-62.500000
9213		-54.687500
9214		-58.593750
9215		-50.781250
9216		-54.687500
9217		-46.875000
9218		-50.781250
9219		-41.015625
9220		-44.921875
9221		-37.109375
9222		-41.015625
9223		-33.203125
9224		-37.109375
9225		-29.296875
9226		-31.250000
9227		-25.390625
9228		-25.390625
9229		-19.531250
9230		-23.437500
9231		-13.671875
9232		-19.531250
9233		-9.765625
9234		-15.625000
9235		-3.906250
9236		-7.812500
9237		0.000000
9238		-5.859375
9239		3.906250
9240		0.000000
9241		7.812500
9242		5.859375
9243		11.718750
9244		9.765625
9245		15.625000
9246		13.671875
9247		21.484375
9248		17.578125
9249		25.390625
9250		21.484375
9251		31.250000
9252		25.390625
9253		33.203125
9254		29.296875
9255		39.062500
9256		35.156250
9257		42.968750
9258		39.062500
9259		44.921875
9260		42.968750
9261		48.828125
9262		46.875000
9263		52.734375
9264		50.781250
9265		58.593750
9266		54.687500
9267		62.500000
9268		58.593750
9269		66.406250
9270		60.546875
9271		70.312500
9272		64.453125
9273		74.218750
9274		70.312500
9275		76.171875
9276		74.218750
9277		80.078125
9278		78.125000
9279		82.031250
9280		80.078125
9281		87.890625
9282		83.984375
9283		89.843750
9284		85.937500
9285		93.750000
9286		89.843750
9287		97.656250
9288		91.796875
9289		99.609375
9290		95.703125
9291		103.515625
9292		97.656250
9293		105.468750
9294		103.515625
9295		107.421875
9296		105.468750
9297		111.328125
9298		105.468750
9299		113.281250
9300		109.375000
9301		117.187500
9302		111.328125
9303		119.140625
9304		115.234375
9305		121.093750
9306		117.187500
9307		123.046875
9308		119.140625
9309		126.953125
9310		123.046875
9311		126.953125
9312		125.000000
9313		128.906250
9314		125.000000
9315		132.812500
9316		126.953125
9317		134.765625
9318		128.906250
9319		136.718750
9320		130.859375
9321		136.718750
9322		132.812500
9323		140.625000
9324		134.765625
9325		140.625000
9326		136.718750
9327		140.625000
9328		138.671875
9329		142.578125
9330		140.625000
9331		144.531250
9332		140.625000
9333		146.484375
9334		140.625000
9335		148.437500
9336		142.578125
9337		148.437500
9338		142.578125
9339		150.390625
9340		144.531250
9341		152.343750
9342		144.531250
9343		150.390625
9344		146.484375
9345		150.390625
9346		148.437500
9347		150.390625
9348		146.484375
9349		154.296875
9350		146.484375
9351		154.296875
9352		146.484375
9353		154.296875
9354		146.484375
9355		154.296875
9356		148.437500
9357		154.296875
9358		148.437500
9359		154.296875
9360		150.390625
9361		154.296875
9362		150.390625
9363		154.296875
9364		148.437500
9365		154.296875
9366		148.437500
9367		154.296875
9368		148.437500
9369		154.296875
9370		146.484375
9371		154.296875
9372		146.484375
9373		152.343750
9374		146.484375
9375		152.343750
9376		146.484375
9377		152.343750
9378		146.484375
9379		150.390625
9380		144.531250
9381		150.390625
9382		142.578125
9383		150.390625
9384		142.578125
9385		150.390625
9386		140.625000
9387		146.484375
9388		138.671875
9389		146.484375
9390		138.671875
9391		144.531250
9392		136.718750
9393		144.531250
9394		136.718750
9395		140.625000
9396		134.765625
9397		138.671875
9398		132.812500
9399		138.671875
9400		128.906250
9401		136.718750
9402		128.906250
9403		134.765625
9404		126.953125
9405		132.812500
9406		125.000000
9407		132.812500
9408		121.093750
9409		128.906250
9410		121.093750
9411		126.953125
9412		119.140625
9413		123.046875
9414		115.234375
9415		121.093750
9416		113.281250
9417		121.093750
9418		109.375000
9419		117.187500
9420		107.421875
9421		115.234375
9422		105.468750
9423		113.281250
9424		103.515625
9425		109.375000
9426		99.609375
9427		107.421875
9428		97.656250
9429		101.562500
9430		93.750000
9431		99.609375
9432		89.843750
9433		97.656250
9434		87.890625
9435		93.750000
9436		83.984375
9437		91.796875
9438		80.078125
9439		87.890625
9440		76.171875
9441		83.984375
9442		72.265625
9443		80.078125
9444		70.312500
9445		76.171875
9446		66.406250
9447		72.265625
9448		60.546875
9449		68.359375
9450		58.593750
9451		66.406250
9452		54.687500
9453		62.500000
9454		48.828125
9455		58.593750
9456		44.921875
9457		54.687500
9458		41.015625
9459		50.781250
9460		39.062500
9461		44.921875
9462		35.156250
9463		41.015625
9464		29.296875
9465		37.109375
9466		25.390625
9467		33.203125
9468		19.531250
9469		29.296875
9470		17.578125
9471		23.437500
9472		13.671875
9473		21.484375
9474		7.812500
9475		15.625000
9476		3.906250
9477		11.718750
9478		0.000000
9479		5.859375
9480		-3.906250
9481		1.953125
9482		-9.765625
9483		-1.953125
9484		-13.671875
9485		-3.906250
9486		-19.531250
9487		-11.718750
9488		-23.437500
9489		-15.625000
9490		-29.296875
9491		-19.531250
9492		-33.203125
9493		-23.437500
9494		-35.156250
9495		-27.343750
9496		-41.015625
9497		-33.203125
9498		-44.921875
9499		-39.062500
9500		-50.781250
9501		-41.015625
9502		-54.687500
9503		-44.921875
9504		-58.593750
9505		-48.828125
9506		-62.500000
9507		-54.687500
9508		-70.312500
9509		-58.593750
9510		-70.312500
9511		-62.500000
9512		-74.218750
9513		-68.359375
9514		-78.125000
9515		-72.265625
9516		-83.984375
9517		-76.171875
9518		-87.890625
9519		-80.078125
9520		-93.750000
9521		-83.984375
9522		-97.656250
9523		-87.890625
9524		-99.609375
9525		-93.750000
9526		-103.515625
9527		-95.703125
9528		-107.421875
9529		-99.609375
9530		-109.375000
9531		-105.468750
9532		-115.234375
9533		-109.375000
9534		-119.140625
9535		-111.328125
9536		-123.046875
9537		-115.234375
9538		-126.953125
9539		-117.187500
9540		-128.906250
9541		-121.093750
9542		-132.812500
9543		-125.000000
9544		-134.765625
9545		-128.906250
9546		-136.718750
9547		-132.812500
9548		-140.625000
9549		-134.765625
9550		-144.531250
9551		-136.718750
9552		-146.484375
9553		-140.625000
9554		-150.390625
9555		-142.578125
9556		-152.343750
9557		-144.531250
9558		-154.296875
9559		-148.437500
9560		-158.203125
9561		-150.390625
9562		-158.203125
9563		-154.296875
9564		-160.156250
9565		-156.250000
9566		-164.062500
9567		-156.250000
9568		-166.015625
9569		-158.203125
9570		-167.968750
9571		-160.156250
9572		-169.921875
9573		-162.109375
9574		-171.875000
9575		-164.062500
9576		-171.875000
9577		-164.062500
9578		-171.875000
9579		-166.015625
9580		-171.875000
9581		-169.921875
9582		-175.781250
9583		-169.921875
9584		-175.781250
9585		-169.921875
9586		-177.734375
9587		-169.921875
9588		-177.734375
9589		-169.921875
9590		-177.734375
9591		-169.921875
9592		-177.734375
9593		-171.875000
9594		-177.734375
9595		-171.875000
9596		-177.734375
9597		-173.828125
9598		-177.734375
9599		-173.828125
9600		-179.687500
9601		-171.875000
9602		-177.734375
9603		-171.875000
9604		-177.734375
9605		-169.921875
9606		-177.734375
9607		-169.921875
9608		-175.781250
9609		-169.921875
9610		-175.781250
9611		-169.921875
9612		-173.828125
9613		-169.921875
9614		-171.875000
9615		-167.968750
9616		-169.921875
9617		-166.015625
9618		-169.921875
9619		-164.062500
9620		-169.921875
9621		-162.109375
9622		-166.015625
9623		-160.156250
9624		-164.062500
9625		-160.156250
9626		-164.062500
9627		-156.250000
9628		-160.156250
9629		-156.250000
9630		-158.203125
9631		-154.296875
9632		-156.250000
9633		-150.390625
9634		-154.296875
9635		-148.437500
9636		-152.343750
9637		-144.531250
9638		-148.437500
9639		-142.578125
9640		-146.484375
9641		-138.671875
9642		-142.578125
9643		-136.718750
9644		-140.625000
9645		-132.812500
9646		-136.718750
9647		-130.859375
9648		-132.812500
9649		-126.953125
9650		-128.906250
9651		-123.046875
9652		-126.953125
9653		-119.140625
9654		-125.000000
9655		-115.234375
9656		-119.140625
9657		-111.328125
9658		-117.187500
9659		-107.421875
9660		-113.281250
9661		-103.515625
9662		-107.421875
9663		-101.562500
9664		-103.515625
9665		-97.656250
9666		-99.609375
9667		-91.796875
9668		-95.703125
9669		-87.890625
9670		-91.796875
9671		-83.984375
9672		-89.843750
9673		-80.078125
9674		-83.984375
9675		-76.171875
9676		-80.078125
9677		-72.265625
9678		-76.171875
9679		-68.359375
9680		-70.312500
9681		-62.500000
9682		-64.453125
9683		-58.593750
9684		-60.546875
9685		-52.734375
9686		-58.593750
9687		-48.828125
9688		-52.734375
9689		-44.921875
9690		-48.828125
9691		-39.062500
9692		-44.921875
9693		-35.156250
9694		-41.015625
9695		-31.250000
9696		-35.156250
9697		-27.343750
9698		-29.296875
9699		-23.437500
9700		-25.390625
9701		-17.578125
9702		-21.484375
9703		-11.718750
9704		-17.578125
9705		-5.859375
9706		-11.718750
9707		-3.906250
9708		-7.812500
9709		1.953125
9710		-1.953125
9711		5.859375
9712		0.000000
9713		9.765625
9714		5.859375
9715		13.671875
9716		11.718750
9717		17.578125
9718		13.671875
9719		23.437500
9720		19.531250
9721		27.343750
9722		21.484375
9723		31.250000
9724		27.343750
9725		37.109375
9726		31.250000
9727		39.062500
9728		35.156250
9729		42.968750
9730		41.015625
9731		46.875000
9732		44.921875
9733		50.781250
9734		48.828125
9735		56.640625
9736		52.734375
9737		58.593750
9738		54.687500
9739		62.500000
9740		58.593750
9741		68.359375
9742		62.500000
9743		72.265625
9744		66.406250
9745		74.218750
9746		70.312500
9747		78.125000
9748		76.171875
9749		80.078125
9750		78.125000
9751		85.937500
9752		80.078125
9753		89.843750
9754		83.984375
9755		91.796875
9756		85.937500
9757		95.703125
9758		91.796875
9759		97.656250
9760		93.750000
9761		99.609375
9762		95.703125
9763		103.515625
9764		101.562500
9765		105.468750
9766		103.515625
9767		109.375000
9768		103.515625
9769		113.281250
9770		107.421875
9771		115.234375
9772		109.375000
9773		117.187500
9774		113.281250
9775		119.140625
9776		115.234375
9777		123.046875
9778		117.187500
9779		125.000000
9780		121.093750
9781		125.000000
9782		123.046875
9783		126.953125
9784		125.000000
9785		130.859375
9786		125.000000
9787		132.812500
9788		126.953125
9789		134.765625
9790		130.859375
9791		136.718750
9792		130.859375
9793		138.671875
9794		132.812500
9795		138.671875
9796		134.765625
9797		140.625000
9798		136.718750
9799		140.625000
9800		138.671875
9801		142.578125
9802		138.671875
9803		146.484375
9804		138.671875
9805		146.484375
9806		138.671875
9807		148.437500
9808		140.625000
9809		148.437500
9810		142.578125
9811		148.437500
9812		142.578125
9813		150.390625
9814		146.484375
9815		148.437500
9816		146.484375
9817		150.390625
9818		146.484375
9819		152.343750
9820		146.484375
9821		152.343750
9822		146.484375
9823		152.343750
9824		146.484375
9825		152.343750
9826		146.484375
9827		152.343750
9828		146.484375
9829		154.296875
9830		146.484375
9831		152.343750
9832		148.437500
9833		152.343750
9834		148.437500
9835		152.343750
9836		146.484375
9837		152.343750
9838		146.484375
9839		152.343750
9840		146.484375
9841		152.343750
9842		144.531250
9843		152.343750
9844		144.531250
9845		150.390625
9846		144.531250
9847		150.390625
9848		144.531250
9849		148.437500
9850		144.531250
9851		148.437500
9852		140.625000
9853		148.437500
9854		140.625000
9855		148.437500
9856		140.625000
9857		146.484375
9858		136.718750
9859		144.531250
9860		136.718750
9861		144.531250
9862		134.765625
9863		142.578125
9864		136.718750
9865		140.625000
9866		134.765625
9867		138.671875
9868		130.859375
9869		138.671875
9870		128.906250
9871		136.718750
9872		128.906250
9873		134.765625
9874		125.000000
9875		132.812500
9876		123.046875
9877		130.859375
9878		121.093750
9879		128.906250
9880		121.093750
9881		126.953125
9882		119.140625
9883		123.046875
9884		117.187500
9885		121.093750
9886		111.328125
9887		119.140625
9888		109.375000
9889		117.187500
9890		107.421875
9891		115.234375
9892		103.515625
9893		111.328125
9894		101.562500
9895		109.375000
9896		99.609375
9897		107.421875
9898		97.656250
9899		103.515625
9900		93.750000
9901		99.609375
9902		89.843750
9903		95.703125
9904		85.937500
9905		93.750000
9906		82.031250
9907		89.843750
9908		80.078125
9909		87.890625
9910		76.171875
9911		83.984375
9912		72.265625
9913		82.031250
9914		70.312500
9915		78.125000
9916		66.406250
9917		72.265625
9918		62.500000
9919		68.359375
9920		56.640625
9921		66.406250
9922		54.687500
9923		62.500000
9924		48.828125
9925		58.593750
9926		44.921875
9927		54.687500
9928		41.015625
9929		48.828125
9930		39.062500
9931		46.875000
9932		35.156250
9933		41.015625
9934		31.250000
9935		37.109375
9936		25.390625
9937		33.203125
9938		19.531250
9939		29.296875
9940		15.625000
9941		25.390625
9942		11.718750
9943		19.531250
9944		7.812500
9945		17.578125
9946		1.953125
9947		11.718750
9948		0.000000
9949		5.859375
9950		-3.906250
9951		1.953125
9952		-9.765625
9953		-1.953125
9954		-15.625000
9955		-5.859375
9956		-17.578125
9957		-11.718750
9958		-23.437500
9959		-15.625000
9960		-29.296875
9961		-19.531250
9962		-33.203125
9963		-23.437500
9964		-37.109375
9965		-27.343750
9966		-41.015625
9967		-33.203125
9968		-44.921875
9969		-39.062500
9970		-50.781250
9971		-41.015625
9972		-54.687500
9973		-44.921875
9974		-58.593750
9975		-50.781250
9976		-64.453125
9977		-54.687500
9978		-68.359375
9979		-58.593750
9980		-72.265625
9981		-62.500000
9982		-76.171875
9983		-68.359375
9984		-80.078125
9985		-72.265625
9986		-83.984375
9987		-78.125000
9988		-87.890625
9989		-80.078125
9990		-91.796875
9991		-83.984375
9992		-97.656250
9993		-89.843750
9994		-101.562500
9995		-93.750000
9996		-103.515625
9997		-95.703125
9998		-107.421875
9999		-99.609375
10000		-111.328125
