Channel              :		CH1
Frequency            :		1.061kHz
Period               :		0.942ms
PK-PK                :		273.4mV
Probe attenuation    :		1X
Voltage per ADC value:		0.122070mV
Time interval        :		2.00000us

index		CH1_Voltage(mV)
1		72.265625
2		72.265625
3		60.546875
4		70.312500
5		58.593750
6		66.406250
7		56.640625
8		64.453125
9		54.687500
10		60.546875
11		52.734375
12		56.640625
13		46.875000
14		54.687500
15		44.921875
16		52.734375
17		41.015625
18		50.781250
19		39.062500
20		46.875000
21		35.156250
22		42.968750
23		33.203125
24		39.062500
25		29.296875
26		37.109375
27		27.343750
28		33.203125
29		21.484375
30		29.296875
31		19.531250
32		27.343750
33		15.625000
34		23.437500
35		11.718750
36		21.484375
37		9.765625
38		17.578125
39		5.859375
40		13.671875
41		3.906250
42		11.718750
43		0.000000
44		5.859375
45		-5.859375
46		1.953125
47		-7.812500
48		0.000000
49		-11.718750
50		-1.953125
51		-15.625000
52		-7.812500
53		-19.531250
54		-11.718750
55		-21.484375
56		-15.625000
57		-25.390625
58		-15.625000
59		-27.343750
60		-23.437500
61		-31.250000
62		-25.390625
63		-37.109375
64		-29.296875
65		-39.062500
66		-31.250000
67		-42.968750
68		-35.156250
69		-46.875000
70		-39.062500
71		-50.781250
72		-41.015625
73		-54.687500
74		-44.921875
75		-54.687500
76		-48.828125
77		-58.593750
78		-52.734375
79		-64.453125
80		-56.640625
81		-68.359375
82		-58.593750
83		-70.312500
84		-62.500000
85		-72.265625
86		-66.406250
87		-76.171875
88		-68.359375
89		-80.078125
90		-72.265625
91		-82.031250
92		-76.171875
93		-83.984375
94		-78.125000
95		-87.890625
96		-82.031250
97		-93.750000
98		-83.984375
99		-95.703125
100		-87.890625
101		-97.656250
102		-89.843750
103		-101.562500
104		-91.796875
105		-103.515625
106		-95.703125
107		-105.468750
108		-97.656250
109		-107.421875
110		-101.562500
111		-109.375000
112		-105.468750
113		-113.281250
114		-107.421875
115		-115.234375
116		-107.421875
117		-119.140625
118		-109.375000
119		-121.093750
120		-113.281250
121		-123.046875
122		-115.234375
123		-125.000000
124		-117.187500
125		-125.000000
126		-119.140625
127		-126.953125
128		-121.093750
129		-128.906250
130		-125.000000
131		-130.859375
132		-125.000000
133		-132.812500
134		-126.953125
135		-134.765625
136		-126.953125
137		-136.718750
138		-128.906250
139		-136.718750
140		-130.859375
141		-138.671875
142		-132.812500
143		-138.671875
144		-134.765625
145		-138.671875
146		-134.765625
147		-142.578125
148		-134.765625
149		-142.578125
150		-136.718750
151		-142.578125
152		-136.718750
153		-144.531250
154		-136.718750
155		-144.531250
156		-138.671875
157		-144.531250
158		-136.718750
159		-144.531250
160		-138.671875
161		-142.578125
162		-140.625000
163		-144.531250
164		-138.671875
165		-144.531250
166		-138.671875
167		-144.531250
168		-138.671875
169		-144.531250
170		-138.671875
171		-144.531250
172		-136.718750
173		-142.578125
174		-136.718750
175		-142.578125
176		-136.718750
177		-140.625000
178		-136.718750
179		-140.625000
180		-136.718750
181		-140.625000
182		-134.765625
183		-140.625000
184		-132.812500
185		-138.671875
186		-132.812500
187		-138.671875
188		-130.859375
189		-136.718750
190		-130.859375
191		-136.718750
192		-128.906250
193		-134.765625
194		-128.906250
195		-130.859375
196		-126.953125
197		-130.859375
198		-123.046875
199		-128.906250
200		-121.093750
201		-126.953125
202		-121.093750
203		-125.000000
204		-117.187500
205		-123.046875
206		-115.234375
207		-121.093750
208		-113.281250
209		-119.140625
210		-113.281250
211		-115.234375
212		-109.375000
213		-113.281250
214		-105.468750
215		-113.281250
216		-103.515625
217		-109.375000
218		-101.562500
219		-107.421875
220		-99.609375
221		-103.515625
222		-95.703125
223		-101.562500
224		-93.750000
225		-97.656250
226		-89.843750
227		-93.750000
228		-87.890625
229		-91.796875
230		-85.937500
231		-87.890625
232		-82.031250
233		-85.937500
234		-78.125000
235		-83.984375
236		-76.171875
237		-80.078125
238		-72.265625
239		-78.125000
240		-68.359375
241		-74.218750
242		-66.406250
243		-72.265625
244		-64.453125
245		-66.406250
246		-60.546875
247		-62.500000
248		-56.640625
249		-58.593750
250		-52.734375
251		-56.640625
252		-48.828125
253		-52.734375
254		-46.875000
255		-48.828125
256		-41.015625
257		-44.921875
258		-39.062500
259		-42.968750
260		-35.156250
261		-37.109375
262		-31.250000
263		-35.156250
264		-29.296875
265		-31.250000
266		-23.437500
267		-27.343750
268		-19.531250
269		-25.390625
270		-15.625000
271		-21.484375
272		-13.671875
273		-17.578125
274		-9.765625
275		-15.625000
276		-5.859375
277		-11.718750
278		-3.906250
279		-5.859375
280		0.000000
281		-1.953125
282		3.906250
283		0.000000
284		7.812500
285		1.953125
286		11.718750
287		5.859375
288		15.625000
289		9.765625
290		17.578125
291		13.671875
292		21.484375
293		15.625000
294		23.437500
295		21.484375
296		27.343750
297		23.437500
298		31.250000
299		25.390625
300		35.156250
301		29.296875
302		39.062500
303		33.203125
304		41.015625
305		35.156250
306		42.968750
307		39.062500
308		46.875000
309		41.015625
310		48.828125
311		46.875000
312		50.781250
313		48.828125
314		54.687500
315		50.781250
316		58.593750
317		52.734375
318		62.500000
319		56.640625
320		64.453125
321		60.546875
322		66.406250
323		62.500000
324		70.312500
325		64.453125
326		72.265625
327		66.406250
328		74.218750
329		70.312500
330		76.171875
331		74.218750
332		80.078125
333		74.218750
334		82.031250
335		76.171875
336		83.984375
337		78.125000
338		85.937500
339		82.031250
340		87.890625
341		83.984375
342		89.843750
343		85.937500
344		91.796875
345		87.890625
346		93.750000
347		89.843750
348		95.703125
349		91.796875
350		97.656250
351		91.796875
352		99.609375
353		93.750000
354		103.515625
355		95.703125
356		103.515625
357		97.656250
358		105.468750
359		99.609375
360		105.468750
361		101.562500
362		107.421875
363		103.515625
364		107.421875
365		103.515625
366		111.328125
367		105.468750
368		111.328125
369		105.468750
370		111.328125
371		107.421875
372		113.281250
373		107.421875
374		115.234375
375		109.375000
376		117.187500
377		109.375000
378		115.234375
379		111.328125
380		115.234375
381		113.281250
382		117.187500
383		111.328125
384		119.140625
385		111.328125
386		119.140625
387		113.281250
388		119.140625
389		113.281250
390		119.140625
391		113.281250
392		119.140625
393		113.281250
394		121.093750
395		117.187500
396		119.140625
397		117.187500
398		119.140625
399		113.281250
400		121.093750
401		113.281250
402		121.093750
403		115.234375
404		121.093750
405		113.281250
406		121.093750
407		113.281250
408		119.140625
409		113.281250
410		121.093750
411		113.281250
412		119.140625
413		115.234375
414		117.187500
415		111.328125
416		119.140625
417		111.328125
418		117.187500
419		111.328125
420		117.187500
421		111.328125
422		117.187500
423		109.375000
424		115.234375
425		107.421875
426		115.234375
427		107.421875
428		113.281250
429		107.421875
430		111.328125
431		107.421875
432		111.328125
433		103.515625
434		111.328125
435		103.515625
436		109.375000
437		101.562500
438		107.421875
439		99.609375
440		107.421875
441		97.656250
442		105.468750
443		97.656250
444		103.515625
445		95.703125
446		101.562500
447		95.703125
448		99.609375
449		91.796875
450		99.609375
451		89.843750
452		97.656250
453		87.890625
454		95.703125
455		85.937500
456		93.750000
457		83.984375
458		89.843750
459		82.031250
460		89.843750
461		80.078125
462		87.890625
463		78.125000
464		83.984375
465		76.171875
466		82.031250
467		72.265625
468		80.078125
469		70.312500
470		78.125000
471		66.406250
472		74.218750
473		64.453125
474		72.265625
475		62.500000
476		70.312500
477		58.593750
478		68.359375
479		58.593750
480		62.500000
481		54.687500
482		60.546875
483		50.781250
484		58.593750
485		46.875000
486		56.640625
487		44.921875
488		52.734375
489		41.015625
490		50.781250
491		39.062500
492		46.875000
493		35.156250
494		44.921875
495		33.203125
496		41.015625
497		31.250000
498		35.156250
499		25.390625
500		33.203125
501		23.437500
502		31.250000
503		19.531250
504		27.343750
505		15.625000
506		23.437500
507		13.671875
508		21.484375
509		7.812500
510		17.578125
511		5.859375
512		13.671875
513		3.906250
514		9.765625
515		0.000000
516		5.859375
517		-3.906250
518		1.953125
519		-7.812500
520		1.953125
521		-11.718750
522		-3.906250
523		-15.625000
524		-5.859375
525		-17.578125
526		-9.765625
527		-21.484375
528		-13.671875
529		-23.437500
530		-17.578125
531		-27.343750
532		-21.484375
533		-33.203125
534		-25.390625
535		-37.109375
536		-27.343750
537		-39.062500
538		-33.203125
539		-42.968750
540		-33.203125
541		-46.875000
542		-39.062500
543		-50.781250
544		-41.015625
545		-52.734375
546		-44.921875
547		-54.687500
548		-50.781250
549		-58.593750
550		-52.734375
551		-64.453125
552		-54.687500
553		-66.406250
554		-58.593750
555		-70.312500
556		-60.546875
557		-72.265625
558		-64.453125
559		-76.171875
560		-68.359375
561		-80.078125
562		-72.265625
563		-82.031250
564		-76.171875
565		-83.984375
566		-78.125000
567		-89.843750
568		-82.031250
569		-91.796875
570		-83.984375
571		-93.750000
572		-85.937500
573		-97.656250
574		-87.890625
575		-99.609375
576		-91.796875
577		-103.515625
578		-95.703125
579		-103.515625
580		-97.656250
581		-105.468750
582		-101.562500
583		-109.375000
584		-103.515625
585		-113.281250
586		-105.468750
587		-115.234375
588		-107.421875
589		-117.187500
590		-109.375000
591		-119.140625
592		-113.281250
593		-121.093750
594		-113.281250
595		-123.046875
596		-117.187500
597		-123.046875
598		-119.140625
599		-125.000000
600		-121.093750
601		-128.906250
602		-121.093750
603		-130.859375
604		-123.046875
605		-132.812500
606		-125.000000
607		-134.765625
608		-126.953125
609		-134.765625
610		-128.906250
611		-136.718750
612		-128.906250
613		-136.718750
614		-130.859375
615		-136.718750
616		-132.812500
617		-138.671875
618		-132.812500
619		-140.625000
620		-132.812500
621		-140.625000
622		-134.765625
623		-142.578125
624		-134.765625
625		-142.578125
626		-136.718750
627		-144.531250
628		-134.765625
629		-142.578125
630		-136.718750
631		-142.578125
632		-138.671875
633		-142.578125
634		-138.671875
635		-142.578125
636		-136.718750
637		-144.531250
638		-138.671875
639		-144.531250
640		-136.718750
641		-142.578125
642		-136.718750
643		-142.578125
644		-136.718750
645		-142.578125
646		-134.765625
647		-140.625000
648		-136.718750
649		-138.671875
650		-136.718750
651		-140.625000
652		-132.812500
653		-140.625000
654		-132.812500
655		-138.671875
656		-130.859375
657		-136.718750
658		-130.859375
659		-136.718750
660		-128.906250
661		-134.765625
662		-126.953125
663		-134.765625
664		-126.953125
665		-130.859375
666		-126.953125
667		-128.906250
668		-125.000000
669		-128.906250
670		-121.093750
671		-126.953125
672		-121.093750
673		-125.000000
674		-117.187500
675		-123.046875
676		-115.234375
677		-121.093750
678		-113.281250
679		-119.140625
680		-111.328125
681		-115.234375
682		-111.328125
683		-113.281250
684		-107.421875
685		-111.328125
686		-105.468750
687		-109.375000
688		-101.562500
689		-107.421875
690		-99.609375
691		-105.468750
692		-95.703125
693		-101.562500
694		-93.750000
695		-99.609375
696		-89.843750
697		-95.703125
698		-89.843750
699		-91.796875
700		-85.937500
701		-89.843750
702		-82.031250
703		-87.890625
704		-78.125000
705		-83.984375
706		-74.218750
707		-82.031250
708		-74.218750
709		-78.125000
710		-68.359375
711		-74.218750
712		-66.406250
713		-72.265625
714		-64.453125
715		-66.406250
716		-60.546875
717		-62.500000
718		-56.640625
719		-60.546875
720		-54.687500
721		-58.593750
722		-48.828125
723		-54.687500
724		-46.875000
725		-50.781250
726		-42.968750
727		-46.875000
728		-39.062500
729		-44.921875
730		-35.156250
731		-39.062500
732		-33.203125
733		-35.156250
734		-29.296875
735		-33.203125
736		-25.390625
737		-31.250000
738		-21.484375
739		-25.390625
740		-17.578125
741		-23.437500
742		-13.671875
743		-19.531250
744		-11.718750
745		-15.625000
746		-7.812500
747		-13.671875
748		-5.859375
749		-7.812500
750		-1.953125
751		-3.906250
752		3.906250
753		-1.953125
754		5.859375
755		1.953125
756		9.765625
757		5.859375
758		13.671875
759		7.812500
760		15.625000
761		9.765625
762		19.531250
763		15.625000
764		23.437500
765		19.531250
766		25.390625
767		23.437500
768		29.296875
769		25.390625
770		33.203125
771		29.296875
772		37.109375
773		33.203125
774		39.062500
775		35.156250
776		42.968750
777		37.109375
778		44.921875
779		41.015625
780		48.828125
781		42.968750
782		50.781250
783		48.828125
784		52.734375
785		50.781250
786		56.640625
787		52.734375
788		60.546875
789		54.687500
790		64.453125
791		58.593750
792		64.453125
793		60.546875
794		68.359375
795		64.453125
796		70.312500
797		66.406250
798		72.265625
799		70.312500
800		74.218750
801		72.265625
802		78.125000
803		74.218750
804		82.031250
805		76.171875
806		83.984375
807		78.125000
808		85.937500
809		80.078125
810		87.890625
811		82.031250
812		89.843750
813		83.984375
814		91.796875
815		87.890625
816		93.750000
817		89.843750
818		93.750000
819		89.843750
820		97.656250
821		91.796875
822		99.609375
823		93.750000
824		101.562500
825		95.703125
826		103.515625
827		97.656250
828		105.468750
829		97.656250
830		105.468750
831		101.562500
832		105.468750
833		103.515625
834		107.421875
835		103.515625
836		109.375000
837		103.515625
838		111.328125
839		105.468750
840		113.281250
841		105.468750
842		113.281250
843		107.421875
844		115.234375
845		109.375000
846		115.234375
847		109.375000
848		115.234375
849		111.328125
850		115.234375
851		113.281250
852		115.234375
853		111.328125
854		119.140625
855		111.328125
856		119.140625
857		113.281250
858		121.093750
859		113.281250
860		119.140625
861		113.281250
862		121.093750
863		115.234375
864		121.093750
865		115.234375
866		121.093750
867		117.187500
868		119.140625
869		113.281250
870		121.093750
871		115.234375
872		121.093750
873		115.234375
874		121.093750
875		113.281250
876		121.093750
877		115.234375
878		121.093750
879		113.281250
880		121.093750
881		113.281250
882		119.140625
883		115.234375
884		119.140625
885		113.281250
886		117.187500
887		111.328125
888		119.140625
889		111.328125
890		119.140625
891		111.328125
892		117.187500
893		109.375000
894		117.187500
895		109.375000
896		115.234375
897		109.375000
898		115.234375
899		107.421875
900		113.281250
901		107.421875
902		111.328125
903		103.515625
904		111.328125
905		103.515625
906		111.328125
907		101.562500
908		109.375000
909		101.562500
910		109.375000
911		99.609375
912		107.421875
913		97.656250
914		105.468750
915		95.703125
916		101.562500
917		95.703125
918		99.609375
919		93.750000
920		97.656250
921		91.796875
922		97.656250
923		89.843750
924		95.703125
925		85.937500
926		95.703125
927		83.984375
928		91.796875
929		82.031250
930		89.843750
931		80.078125
932		87.890625
933		80.078125
934		83.984375
935		78.125000
936		82.031250
937		74.218750
938		80.078125
939		72.265625
940		78.125000
941		68.359375
942		76.171875
943		66.406250
944		74.218750
945		62.500000
946		72.265625
947		60.546875
948		68.359375
949		58.593750
950		66.406250
951		56.640625
952		62.500000
953		50.781250
954		58.593750
955		48.828125
956		56.640625
957		46.875000
958		54.687500
959		42.968750
960		50.781250
961		41.015625
962		48.828125
963		37.109375
964		44.921875
965		35.156250
966		41.015625
967		31.250000
968		37.109375
969		29.296875
970		35.156250
971		23.437500
972		31.250000
973		21.484375
974		29.296875
975		17.578125
976		27.343750
977		13.671875
978		21.484375
979		11.718750
980		19.531250
981		7.812500
982		15.625000
983		5.859375
984		13.671875
985		1.953125
986		7.812500
987		-3.906250
988		3.906250
989		-5.859375
990		1.953125
991		-9.765625
992		-1.953125
993		-13.671875
994		-5.859375
995		-17.578125
996		-9.765625
997		-19.531250
998		-11.718750
999		-23.437500
1000		-17.578125
1001		-25.390625
1002		-21.484375
1003		-31.250000
1004		-23.437500
1005		-35.156250
1006		-25.390625
1007		-39.062500
1008		-31.250000
1009		-41.015625
1010		-33.203125
1011		-44.921875
1012		-37.109375
1013		-48.828125
1014		-39.062500
1015		-52.734375
1016		-44.921875
1017		-54.687500
1018		-48.828125
1019		-56.640625
1020		-52.734375
1021		-62.500000
1022		-54.687500
1023		-64.453125
1024		-58.593750
1025		-68.359375
1026		-60.546875
1027		-72.265625
1028		-64.453125
1029		-74.218750
1030		-66.406250
1031		-80.078125
1032		-70.312500
1033		-80.078125
1034		-74.218750
1035		-82.031250
1036		-78.125000
1037		-87.890625
1038		-80.078125
1039		-89.843750
1040		-82.031250
1041		-93.750000
1042		-85.937500
1043		-95.703125
1044		-87.890625
1045		-99.609375
1046		-91.796875
1047		-101.562500
1048		-93.750000
1049		-103.515625
1050		-97.656250
1051		-105.468750
1052		-101.562500
1053		-107.421875
1054		-103.515625
1055		-113.281250
1056		-103.515625
1057		-115.234375
1058		-107.421875
1059		-117.187500
1060		-109.375000
1061		-119.140625
1062		-111.328125
1063		-121.093750
1064		-113.281250
1065		-123.046875
1066		-115.234375
1067		-125.000000
1068		-117.187500
1069		-125.000000
1070		-121.093750
1071		-128.906250
1072		-123.046875
1073		-130.859375
1074		-123.046875
1075		-132.812500
1076		-125.000000
1077		-132.812500
1078		-126.953125
1079		-134.765625
1080		-128.906250
1081		-136.718750
1082		-128.906250
1083		-138.671875
1084		-130.859375
1085		-136.718750
1086		-132.812500
1087		-138.671875
1088		-134.765625
1089		-140.625000
1090		-132.812500
1091		-140.625000
1092		-134.765625
1093		-142.578125
1094		-134.765625
1095		-142.578125
1096		-136.718750
1097		-142.578125
1098		-136.718750
1099		-144.531250
1100		-136.718750
1101		-142.578125
1102		-138.671875
1103		-142.578125
1104		-138.671875
1105		-144.531250
1106		-138.671875
1107		-144.531250
1108		-136.718750
1109		-144.531250
1110		-136.718750
1111		-144.531250
1112		-136.718750
1113		-142.578125
1114		-136.718750
1115		-142.578125
1116		-136.718750
1117		-142.578125
1118		-136.718750
1119		-140.625000
1120		-136.718750
1121		-140.625000
1122		-134.765625
1123		-140.625000
1124		-132.812500
1125		-140.625000
1126		-132.812500
1127		-138.671875
1128		-130.859375
1129		-136.718750
1130		-128.906250
1131		-134.765625
1132		-128.906250
1133		-132.812500
1134		-126.953125
1135		-130.859375
1136		-126.953125
1137		-130.859375
1138		-125.000000
1139		-128.906250
1140		-123.046875
1141		-126.953125
1142		-121.093750
1143		-126.953125
1144		-119.140625
1145		-125.000000
1146		-117.187500
1147		-121.093750
1148		-115.234375
1149		-121.093750
1150		-111.328125
1151		-117.187500
1152		-111.328125
1153		-113.281250
1154		-109.375000
1155		-111.328125
1156		-105.468750
1157		-111.328125
1158		-103.515625
1159		-107.421875
1160		-99.609375
1161		-105.468750
1162		-97.656250
1163		-103.515625
1164		-93.750000
1165		-101.562500
1166		-91.796875
1167		-97.656250
1168		-91.796875
1169		-93.750000
1170		-87.890625
1171		-89.843750
1172		-83.984375
1173		-89.843750
1174		-80.078125
1175		-85.937500
1176		-78.125000
1177		-82.031250
1178		-74.218750
1179		-78.125000
1180		-70.312500
1181		-76.171875
1182		-68.359375
1183		-74.218750
1184		-64.453125
1185		-68.359375
1186		-62.500000
1187		-64.453125
1188		-58.593750
1189		-62.500000
1190		-54.687500
1191		-60.546875
1192		-50.781250
1193		-56.640625
1194		-48.828125
1195		-52.734375
1196		-42.968750
1197		-48.828125
1198		-41.015625
1199		-44.921875
1200		-37.109375
1201		-42.968750
1202		-35.156250
1203		-37.109375
1204		-31.250000
1205		-33.203125
1206		-27.343750
1207		-31.250000
1208		-23.437500
1209		-27.343750
1210		-19.531250
1211		-25.390625
1212		-15.625000
1213		-21.484375
1214		-13.671875
1215		-17.578125
1216		-9.765625
1217		-13.671875
1218		-5.859375
1219		-9.765625
1220		-3.906250
1221		-5.859375
1222		0.000000
1223		-3.906250
1224		3.906250
1225		0.000000
1226		7.812500
1227		1.953125
1228		11.718750
1229		5.859375
1230		13.671875
1231		9.765625
1232		17.578125
1233		11.718750
1234		21.484375
1235		17.578125
1236		23.437500
1237		21.484375
1238		27.343750
1239		25.390625
1240		31.250000
1241		25.390625
1242		35.156250
1243		29.296875
1244		37.109375
1245		33.203125
1246		41.015625
1247		35.156250
1248		44.921875
1249		39.062500
1250		46.875000
1251		42.968750
1252		48.828125
1253		46.875000
1254		52.734375
1255		48.828125
1256		54.687500
1257		50.781250
1258		60.546875
1259		54.687500
1260		60.546875
1261		56.640625
1262		64.453125
1263		58.593750
1264		66.406250
1265		60.546875
1266		70.312500
1267		64.453125
1268		72.265625
1269		68.359375
1270		74.218750
1271		70.312500
1272		76.171875
1273		74.218750
1274		80.078125
1275		74.218750
1276		82.031250
1277		76.171875
1278		83.984375
1279		80.078125
1280		85.937500
1281		82.031250
1282		87.890625
1283		82.031250
1284		91.796875
1285		85.937500
1286		91.796875
1287		89.843750
1288		93.750000
1289		89.843750
1290		97.656250
1291		91.796875
1292		97.656250
1293		91.796875
1294		99.609375
1295		93.750000
1296		101.562500
1297		95.703125
1298		103.515625
1299		97.656250
1300		105.468750
1301		97.656250
1302		105.468750
1303		101.562500
1304		105.468750
1305		103.515625
1306		107.421875
1307		103.515625
1308		109.375000
1309		105.468750
1310		111.328125
1311		105.468750
1312		111.328125
1313		105.468750
1314		113.281250
1315		107.421875
1316		115.234375
1317		109.375000
1318		115.234375
1319		111.328125
1320		115.234375
1321		111.328125
1322		115.234375
1323		111.328125
1324		117.187500
1325		111.328125
1326		119.140625
1327		111.328125
1328		119.140625
1329		113.281250
1330		119.140625
1331		113.281250
1332		119.140625
1333		113.281250
1334		119.140625
1335		113.281250
1336		119.140625
1337		115.234375
1338		119.140625
1339		117.187500
1340		119.140625
1341		113.281250
1342		119.140625
1343		113.281250
1344		121.093750
1345		115.234375
1346		121.093750
1347		115.234375
1348		121.093750
1349		113.281250
1350		121.093750
1351		113.281250
1352		121.093750
1353		115.234375
1354		119.140625
1355		115.234375
1356		117.187500
1357		111.328125
1358		119.140625
1359		111.328125
1360		119.140625
1361		111.328125
1362		117.187500
1363		111.328125
1364		117.187500
1365		109.375000
1366		117.187500
1367		109.375000
1368		115.234375
1369		109.375000
1370		115.234375
1371		107.421875
1372		113.281250
1373		105.468750
1374		111.328125
1375		103.515625
1376		111.328125
1377		103.515625
1378		111.328125
1379		101.562500
1380		109.375000
1381		101.562500
1382		107.421875
1383		99.609375
1384		105.468750
1385		97.656250
1386		103.515625
1387		97.656250
1388		101.562500
1389		95.703125
1390		99.609375
1391		91.796875
1392		99.609375
1393		89.843750
1394		97.656250
1395		87.890625
1396		95.703125
1397		85.937500
1398		93.750000
1399		83.984375
1400		91.796875
1401		82.031250
1402		89.843750
1403		82.031250
1404		87.890625
1405		80.078125
1406		83.984375
1407		76.171875
1408		82.031250
1409		74.218750
1410		80.078125
1411		70.312500
1412		78.125000
1413		66.406250
1414		76.171875
1415		64.453125
1416		74.218750
1417		62.500000
1418		70.312500
1419		60.546875
1420		68.359375
1421		58.593750
1422		64.453125
1423		54.687500
1424		60.546875
1425		50.781250
1426		58.593750
1427		48.828125
1428		56.640625
1429		44.921875
1430		52.734375
1431		42.968750
1432		50.781250
1433		39.062500
1434		46.875000
1435		37.109375
1436		44.921875
1437		35.156250
1438		41.015625
1439		31.250000
1440		37.109375
1441		27.343750
1442		33.203125
1443		23.437500
1444		31.250000
1445		19.531250
1446		29.296875
1447		17.578125
1448		25.390625
1449		11.718750
1450		21.484375
1451		9.765625
1452		17.578125
1453		7.812500
1454		15.625000
1455		3.906250
1456		9.765625
1457		-1.953125
1458		7.812500
1459		-3.906250
1460		3.906250
1461		-7.812500
1462		0.000000
1463		-9.765625
1464		-1.953125
1465		-15.625000
1466		-5.859375
1467		-17.578125
1468		-9.765625
1469		-21.484375
1470		-13.671875
1471		-23.437500
1472		-17.578125
1473		-27.343750
1474		-21.484375
1475		-31.250000
1476		-25.390625
1477		-35.156250
1478		-27.343750
1479		-39.062500
1480		-29.296875
1481		-41.015625
1482		-35.156250
1483		-46.875000
1484		-37.109375
1485		-48.828125
1486		-41.015625
1487		-50.781250
1488		-42.968750
1489		-54.687500
1490		-48.828125
1491		-60.546875
1492		-52.734375
1493		-62.500000
1494		-54.687500
1495		-66.406250
1496		-56.640625
1497		-68.359375
1498		-60.546875
1499		-72.265625
1500		-64.453125
1501		-76.171875
1502		-68.359375
1503		-78.125000
1504		-70.312500
1505		-80.078125
1506		-76.171875
1507		-83.984375
1508		-78.125000
1509		-87.890625
1510		-80.078125
1511		-91.796875
1512		-82.031250
1513		-93.750000
1514		-85.937500
1515		-97.656250
1516		-89.843750
1517		-99.609375
1518		-91.796875
1519		-101.562500
1520		-93.750000
1521		-103.515625
1522		-97.656250
1523		-105.468750
1524		-101.562500
1525		-111.328125
1526		-103.515625
1527		-113.281250
1528		-105.468750
1529		-115.234375
1530		-107.421875
1531		-117.187500
1532		-109.375000
1533		-119.140625
1534		-111.328125
1535		-121.093750
1536		-113.281250
1537		-123.046875
1538		-115.234375
1539		-125.000000
1540		-119.140625
1541		-126.953125
1542		-121.093750
1543		-128.906250
1544		-123.046875
1545		-130.859375
1546		-123.046875
1547		-132.812500
1548		-125.000000
1549		-132.812500
1550		-126.953125
1551		-134.765625
1552		-126.953125
1553		-136.718750
1554		-128.906250
1555		-136.718750
1556		-132.812500
1557		-136.718750
1558		-132.812500
1559		-138.671875
1560		-132.812500
1561		-140.625000
1562		-132.812500
1563		-142.578125
1564		-134.765625
1565		-142.578125
1566		-134.765625
1567		-142.578125
1568		-136.718750
1569		-144.531250
1570		-136.718750
1571		-142.578125
1572		-136.718750
1573		-142.578125
1574		-138.671875
1575		-144.531250
1576		-136.718750
1577		-144.531250
1578		-138.671875
1579		-144.531250
1580		-136.718750
1581		-144.531250
1582		-138.671875
1583		-144.531250
1584		-136.718750
1585		-144.531250
1586		-136.718750
1587		-144.531250
1588		-136.718750
1589		-140.625000
1590		-136.718750
1591		-140.625000
1592		-136.718750
1593		-140.625000
1594		-134.765625
1595		-140.625000
1596		-134.765625
1597		-138.671875
1598		-132.812500
1599		-138.671875
1600		-130.859375
1601		-138.671875
1602		-130.859375
1603		-136.718750
1604		-128.906250
1605		-134.765625
1606		-128.906250
1607		-132.812500
1608		-126.953125
1609		-132.812500
1610		-123.046875
1611		-130.859375
1612		-123.046875
1613		-128.906250
1614		-121.093750
1615		-126.953125
1616		-119.140625
1617		-123.046875
1618		-117.187500
1619		-123.046875
1620		-115.234375
1621		-121.093750
1622		-113.281250
1623		-117.187500
1624		-111.328125
1625		-115.234375
1626		-109.375000
1627		-113.281250
1628		-105.468750
1629		-111.328125
1630		-105.468750
1631		-109.375000
1632		-101.562500
1633		-105.468750
1634		-97.656250
1635		-103.515625
1636		-95.703125
1637		-99.609375
1638		-93.750000
1639		-97.656250
1640		-91.796875
1641		-93.750000
1642		-87.890625
1643		-91.796875
1644		-83.984375
1645		-89.843750
1646		-82.031250
1647		-85.937500
1648		-78.125000
1649		-83.984375
1650		-76.171875
1651		-80.078125
1652		-72.265625
1653		-78.125000
1654		-68.359375
1655		-72.265625
1656		-66.406250
1657		-68.359375
1658		-62.500000
1659		-66.406250
1660		-60.546875
1661		-64.453125
1662		-54.687500
1663		-60.546875
1664		-52.734375
1665		-56.640625
1666		-48.828125
1667		-52.734375
1668		-44.921875
1669		-50.781250
1670		-41.015625
1671		-44.921875
1672		-39.062500
1673		-41.015625
1674		-35.156250
1675		-37.109375
1676		-33.203125
1677		-35.156250
1678		-27.343750
1679		-31.250000
1680		-23.437500
1681		-29.296875
1682		-21.484375
1683		-25.390625
1684		-17.578125
1685		-21.484375
1686		-13.671875
1687		-17.578125
1688		-9.765625
1689		-15.625000
1690		-7.812500
1691		-9.765625
1692		-3.906250
1693		-5.859375
1694		1.953125
1695		-3.906250
1696		5.859375
1697		-1.953125
1698		7.812500
1699		3.906250
1700		11.718750
1701		5.859375
1702		13.671875
1703		9.765625
1704		17.578125
1705		13.671875
1706		19.531250
1707		17.578125
1708		23.437500
1709		21.484375
1710		27.343750
1711		23.437500
1712		31.250000
1713		25.390625
1714		35.156250
1715		29.296875
1716		37.109375
1717		33.203125
1718		41.015625
1719		35.156250
1720		42.968750
1721		37.109375
1722		46.875000
1723		42.968750
1724		48.828125
1725		46.875000
1726		50.781250
1727		48.828125
1728		54.687500
1729		50.781250
1730		58.593750
1731		52.734375
1732		62.500000
1733		56.640625
1734		64.453125
1735		58.593750
1736		66.406250
1737		62.500000
1738		70.312500
1739		64.453125
1740		70.312500
1741		68.359375
1742		74.218750
1743		70.312500
1744		78.125000
1745		72.265625
1746		80.078125
1747		74.218750
1748		82.031250
1749		76.171875
1750		83.984375
1751		78.125000
1752		85.937500
1753		80.078125
1754		87.890625
1755		83.984375
1756		89.843750
1757		85.937500
1758		91.796875
1759		87.890625
1760		91.796875
1761		89.843750
1762		97.656250
1763		91.796875
1764		97.656250
1765		91.796875
1766		99.609375
1767		93.750000
1768		101.562500
1769		95.703125
1770		103.515625
1771		97.656250
1772		105.468750
1773		99.609375
1774		105.468750
1775		101.562500
1776		105.468750
1777		103.515625
1778		107.421875
1779		103.515625
1780		111.328125
1781		103.515625
1782		109.375000
1783		105.468750
1784		113.281250
1785		107.421875
1786		113.281250
1787		107.421875
1788		115.234375
1789		107.421875
1790		115.234375
1791		111.328125
1792		115.234375
1793		111.328125
1794		115.234375
1795		111.328125
1796		117.187500
1797		111.328125
1798		117.187500
1799		111.328125
1800		119.140625
1801		113.281250
1802		119.140625
1803		113.281250
1804		119.140625
1805		113.281250
1806		119.140625
1807		115.234375
1808		119.140625
1809		115.234375
1810		119.140625
1811		113.281250
1812		119.140625
1813		113.281250
1814		121.093750
1815		115.234375
1816		121.093750
1817		113.281250
1818		121.093750
1819		113.281250
1820		119.140625
1821		113.281250
1822		121.093750
1823		113.281250
1824		119.140625
1825		115.234375
1826		117.187500
1827		113.281250
1828		117.187500
1829		111.328125
1830		117.187500
1831		111.328125
1832		117.187500
1833		109.375000
1834		117.187500
1835		109.375000
1836		117.187500
1837		109.375000
1838		115.234375
1839		107.421875
1840		115.234375
1841		109.375000
1842		111.328125
1843		107.421875
1844		111.328125
1845		103.515625
1846		111.328125
1847		103.515625
1848		109.375000
1849		101.562500
1850		109.375000
1851		101.562500
1852		107.421875
1853		99.609375
1854		105.468750
1855		95.703125
1856		103.515625
1857		97.656250
1858		101.562500
1859		95.703125
1860		99.609375
1861		93.750000
1862		99.609375
1863		89.843750
1864		97.656250
1865		89.843750
1866		95.703125
1867		87.890625
1868		93.750000
1869		83.984375
1870		91.796875
1871		82.031250
1872		89.843750
1873		80.078125
1874		87.890625
1875		80.078125
1876		83.984375
1877		78.125000
1878		82.031250
1879		74.218750
1880		82.031250
1881		70.312500
1882		78.125000
1883		68.359375
1884		76.171875
1885		66.406250
1886		74.218750
1887		64.453125
1888		70.312500
1889		60.546875
1890		68.359375
1891		58.593750
1892		64.453125
1893		56.640625
1894		60.546875
1895		52.734375
1896		58.593750
1897		48.828125
1898		56.640625
1899		46.875000
1900		54.687500
1901		42.968750
1902		50.781250
1903		39.062500
1904		48.828125
1905		37.109375
1906		44.921875
1907		35.156250
1908		42.968750
1909		31.250000
1910		37.109375
1911		27.343750
1912		35.156250
1913		23.437500
1914		33.203125
1915		21.484375
1916		29.296875
1917		17.578125
1918		25.390625
1919		13.671875
1920		23.437500
1921		11.718750
1922		17.578125
1923		7.812500
1924		17.578125
1925		5.859375
1926		11.718750
1927		1.953125
1928		7.812500
1929		-1.953125
1930		3.906250
1931		-5.859375
1932		1.953125
1933		-7.812500
1934		-1.953125
1935		-11.718750
1936		-5.859375
1937		-15.625000
1938		-9.765625
1939		-19.531250
1940		-11.718750
1941		-23.437500
1942		-15.625000
1943		-25.390625
1944		-19.531250
1945		-29.296875
1946		-23.437500
1947		-35.156250
1948		-25.390625
1949		-37.109375
1950		-29.296875
1951		-42.968750
1952		-33.203125
1953		-44.921875
1954		-37.109375
1955		-48.828125
1956		-39.062500
1957		-50.781250
1958		-42.968750
1959		-52.734375
1960		-48.828125
1961		-56.640625
1962		-50.781250
1963		-62.500000
1964		-54.687500
1965		-64.453125
1966		-56.640625
1967		-68.359375
1968		-60.546875
1969		-72.265625
1970		-64.453125
1971		-74.218750
1972		-66.406250
1973		-78.125000
1974		-70.312500
1975		-80.078125
1976		-74.218750
1977		-82.031250
1978		-78.125000
1979		-87.890625
1980		-80.078125
1981		-89.843750
1982		-82.031250
1983		-91.796875
1984		-85.937500
1985		-95.703125
1986		-87.890625
1987		-99.609375
1988		-89.843750
1989		-101.562500
1990		-93.750000
1991		-103.515625
1992		-95.703125
1993		-103.515625
1994		-99.609375
1995		-107.421875
1996		-101.562500
1997		-111.328125
1998		-103.515625
1999		-113.281250
2000		-105.468750
2001		-115.234375
2002		-107.421875
2003		-117.187500
2004		-109.375000
2005		-121.093750
2006		-113.281250
2007		-123.046875
2008		-115.234375
2009		-121.093750
2010		-117.187500
2011		-123.046875
2012		-119.140625
2013		-126.953125
2014		-121.093750
2015		-128.906250
2016		-123.046875
2017		-130.859375
2018		-123.046875
2019		-132.812500
2020		-125.000000
2021		-134.765625
2022		-126.953125
2023		-134.765625
2024		-128.906250
2025		-134.765625
2026		-128.906250
2027		-134.765625
2028		-130.859375
2029		-136.718750
2030		-132.812500
2031		-138.671875
2032		-132.812500
2033		-140.625000
2034		-132.812500
2035		-140.625000
2036		-134.765625
2037		-142.578125
2038		-134.765625
2039		-142.578125
2040		-134.765625
2041		-142.578125
2042		-134.765625
2043		-140.625000
2044		-136.718750
2045		-140.625000
2046		-136.718750
2047		-142.578125
2048		-136.718750
2049		-142.578125
2050		-136.718750
2051		-142.578125
2052		-134.765625
2053		-142.578125
2054		-136.718750
2055		-142.578125
2056		-134.765625
2057		-142.578125
2058		-134.765625
2059		-142.578125
2060		-134.765625
2061		-138.671875
2062		-134.765625
2063		-140.625000
2064		-132.812500
2065		-138.671875
2066		-132.812500
2067		-136.718750
2068		-130.859375
2069		-136.718750
2070		-130.859375
2071		-136.718750
2072		-128.906250
2073		-134.765625
2074		-126.953125
2075		-134.765625
2076		-126.953125
2077		-128.906250
2078		-125.000000
2079		-128.906250
2080		-125.000000
2081		-128.906250
2082		-121.093750
2083		-126.953125
2084		-119.140625
2085		-126.953125
2086		-117.187500
2087		-123.046875
2088		-115.234375
2089		-121.093750
2090		-113.281250
2091		-119.140625
2092		-111.328125
2093		-115.234375
2094		-111.328125
2095		-113.281250
2096		-107.421875
2097		-111.328125
2098		-103.515625
2099		-109.375000
2100		-101.562500
2101		-107.421875
2102		-99.609375
2103		-105.468750
2104		-97.656250
2105		-101.562500
2106		-93.750000
2107		-97.656250
2108		-91.796875
2109		-95.703125
2110		-89.843750
2111		-91.796875
2112		-87.890625
2113		-89.843750
2114		-82.031250
2115		-87.890625
2116		-80.078125
2117		-83.984375
2118		-76.171875
2119		-80.078125
2120		-72.265625
2121		-78.125000
2122		-70.312500
2123		-74.218750
2124		-68.359375
2125		-72.265625
2126		-64.453125
2127		-68.359375
2128		-62.500000
2129		-64.453125
2130		-58.593750
2131		-60.546875
2132		-54.687500
2133		-58.593750
2134		-50.781250
2135		-54.687500
2136		-46.875000
2137		-52.734375
2138		-44.921875
2139		-48.828125
2140		-41.015625
2141		-44.921875
2142		-37.109375
2143		-41.015625
2144		-33.203125
2145		-37.109375
2146		-31.250000
2147		-33.203125
2148		-27.343750
2149		-29.296875
2150		-23.437500
2151		-27.343750
2152		-19.531250
2153		-23.437500
2154		-15.625000
2155		-19.531250
2156		-11.718750
2157		-15.625000
2158		-7.812500
2159		-13.671875
2160		-5.859375
2161		-7.812500
2162		-1.953125
2163		-5.859375
2164		1.953125
2165		-1.953125
2166		5.859375
2167		0.000000
2168		7.812500
2169		3.906250
2170		13.671875
2171		5.859375
2172		15.625000
2173		11.718750
2174		19.531250
2175		13.671875
2176		21.484375
2177		19.531250
2178		25.390625
2179		21.484375
2180		27.343750
2181		25.390625
2182		33.203125
2183		27.343750
2184		35.156250
2185		31.250000
2186		39.062500
2187		33.203125
2188		41.015625
2189		37.109375
2190		42.968750
2191		39.062500
2192		46.875000
2193		42.968750
2194		48.828125
2195		46.875000
2196		52.734375
2197		50.781250
2198		56.640625
2199		50.781250
2200		58.593750
2201		54.687500
2202		62.500000
2203		58.593750
2204		64.453125
2205		58.593750
2206		66.406250
2207		62.500000
2208		70.312500
2209		66.406250
2210		72.265625
2211		68.359375
2212		74.218750
2213		72.265625
2214		76.171875
2215		74.218750
2216		80.078125
2217		74.218750
2218		82.031250
2219		78.125000
2220		83.984375
2221		80.078125
2222		85.937500
2223		82.031250
2224		89.843750
2225		83.984375
2226		91.796875
2227		87.890625
2228		91.796875
2229		89.843750
2230		93.750000
2231		91.796875
2232		97.656250
2233		91.796875
2234		99.609375
2235		93.750000
2236		99.609375
2237		95.703125
2238		101.562500
2239		97.656250
2240		103.515625
2241		97.656250
2242		105.468750
2243		99.609375
2244		105.468750
2245		103.515625
2246		107.421875
2247		103.515625
2248		109.375000
2249		103.515625
2250		111.328125
2251		105.468750
2252		111.328125
2253		105.468750
2254		113.281250
2255		107.421875
2256		113.281250
2257		107.421875
2258		115.234375
2259		109.375000
2260		117.187500
2261		111.328125
2262		115.234375
2263		113.281250
2264		115.234375
2265		111.328125
2266		117.187500
2267		113.281250
2268		119.140625
2269		113.281250
2270		119.140625
2271		113.281250
2272		119.140625
2273		115.234375
2274		121.093750
2275		113.281250
2276		121.093750
2277		115.234375
2278		121.093750
2279		117.187500
2280		119.140625
2281		117.187500
2282		119.140625
2283		115.234375
2284		121.093750
2285		115.234375
2286		121.093750
2287		115.234375
2288		121.093750
2289		115.234375
2290		123.046875
2291		115.234375
2292		121.093750
2293		113.281250
2294		121.093750
2295		115.234375
2296		119.140625
2297		115.234375
2298		119.140625
2299		113.281250
2300		119.140625
2301		113.281250
2302		119.140625
2303		111.328125
2304		119.140625
2305		111.328125
2306		117.187500
2307		109.375000
2308		117.187500
2309		109.375000
2310		115.234375
2311		109.375000
2312		113.281250
2313		109.375000
2314		111.328125
2315		105.468750
2316		111.328125
2317		103.515625
2318		111.328125
2319		103.515625
2320		109.375000
2321		101.562500
2322		109.375000
2323		99.609375
2324		107.421875
2325		99.609375
2326		107.421875
2327		97.656250
2328		103.515625
2329		97.656250
2330		101.562500
2331		95.703125
2332		99.609375
2333		91.796875
2334		99.609375
2335		91.796875
2336		97.656250
2337		87.890625
2338		97.656250
2339		87.890625
2340		93.750000
2341		83.984375
2342		91.796875
2343		82.031250
2344		89.843750
2345		82.031250
2346		85.937500
2347		80.078125
2348		83.984375
2349		76.171875
2350		82.031250
2351		74.218750
2352		82.031250
2353		70.312500
2354		78.125000
2355		68.359375
2356		76.171875
2357		66.406250
2358		72.265625
2359		62.500000
2360		70.312500
2361		62.500000
2362		68.359375
2363		58.593750
2364		64.453125
2365		54.687500
2366		60.546875
2367		52.734375
2368		60.546875
2369		48.828125
2370		56.640625
2371		44.921875
2372		54.687500
2373		42.968750
2374		50.781250
2375		39.062500
2376		46.875000
2377		37.109375
2378		44.921875
2379		35.156250
2380		41.015625
2381		31.250000
2382		37.109375
2383		27.343750
2384		35.156250
2385		25.390625
2386		31.250000
2387		19.531250
2388		29.296875
2389		17.578125
2390		25.390625
2391		13.671875
2392		21.484375
2393		11.718750
2394		17.578125
2395		7.812500
2396		15.625000
2397		5.859375
2398		11.718750
2399		0.000000
2400		7.812500
2401		-1.953125
2402		5.859375
2403		-7.812500
2404		0.000000
2405		-11.718750
2406		-1.953125
2407		-15.625000
2408		-5.859375
2409		-17.578125
2410		-7.812500
2411		-19.531250
2412		-11.718750
2413		-23.437500
2414		-17.578125
2415		-27.343750
2416		-21.484375
2417		-31.250000
2418		-23.437500
2419		-35.156250
2420		-25.390625
2421		-39.062500
2422		-31.250000
2423		-41.015625
2424		-35.156250
2425		-44.921875
2426		-37.109375
2427		-48.828125
2428		-39.062500
2429		-50.781250
2430		-44.921875
2431		-54.687500
2432		-48.828125
2433		-58.593750
2434		-52.734375
2435		-62.500000
2436		-52.734375
2437		-64.453125
2438		-56.640625
2439		-68.359375
2440		-60.546875
2441		-72.265625
2442		-64.453125
2443		-76.171875
2444		-66.406250
2445		-76.171875
2446		-70.312500
2447		-80.078125
2448		-74.218750
2449		-83.984375
2450		-78.125000
2451		-87.890625
2452		-80.078125
2453		-91.796875
2454		-82.031250
2455		-93.750000
2456		-85.937500
2457		-95.703125
2458		-87.890625
2459		-99.609375
2460		-91.796875
2461		-101.562500
2462		-93.750000
2463		-103.515625
2464		-97.656250
2465		-105.468750
2466		-99.609375
2467		-109.375000
2468		-101.562500
2469		-113.281250
2470		-103.515625
2471		-113.281250
2472		-105.468750
2473		-115.234375
2474		-107.421875
2475		-119.140625
2476		-111.328125
2477		-121.093750
2478		-113.281250
2479		-121.093750
2480		-115.234375
2481		-123.046875
2482		-119.140625
2483		-126.953125
2484		-121.093750
2485		-128.906250
2486		-121.093750
2487		-128.906250
2488		-123.046875
2489		-130.859375
2490		-123.046875
2491		-132.812500
2492		-126.953125
2493		-134.765625
2494		-126.953125
2495		-134.765625
2496		-128.906250
2497		-134.765625
2498		-130.859375
2499		-136.718750
2500		-132.812500
2501		-138.671875
2502		-132.812500
2503		-140.625000
2504		-132.812500
2505		-140.625000
2506		-134.765625
2507		-140.625000
2508		-134.765625
2509		-142.578125
2510		-134.765625
2511		-142.578125
2512		-134.765625
2513		-140.625000
2514		-136.718750
2515		-140.625000
2516		-138.671875
2517		-142.578125
2518		-136.718750
2519		-142.578125
2520		-136.718750
2521		-142.578125
2522		-136.718750
2523		-142.578125
2524		-136.718750
2525		-142.578125
2526		-136.718750
2527		-142.578125
2528		-136.718750
2529		-140.625000
2530		-136.718750
2531		-140.625000
2532		-136.718750
2533		-138.671875
2534		-134.765625
2535		-140.625000
2536		-132.812500
2537		-138.671875
2538		-132.812500
2539		-138.671875
2540		-130.859375
2541		-136.718750
2542		-130.859375
2543		-136.718750
2544		-128.906250
2545		-134.765625
2546		-126.953125
2547		-132.812500
2548		-126.953125
2549		-130.859375
2550		-126.953125
2551		-128.906250
2552		-123.046875
2553		-128.906250
2554		-121.093750
2555		-126.953125
2556		-119.140625
2557		-125.000000
2558		-117.187500
2559		-123.046875
2560		-115.234375
2561		-121.093750
2562		-115.234375
2563		-119.140625
2564		-113.281250
2565		-115.234375
2566		-111.328125
2567		-113.281250
2568		-107.421875
2569		-113.281250
2570		-103.515625
2571		-109.375000
2572		-101.562500
2573		-107.421875
2574		-99.609375
2575		-103.515625
2576		-95.703125
2577		-101.562500
2578		-93.750000
2579		-99.609375
2580		-91.796875
2581		-93.750000
2582		-89.843750
2583		-91.796875
2584		-87.890625
2585		-89.843750
2586		-82.031250
2587		-87.890625
2588		-80.078125
2589		-83.984375
2590		-76.171875
2591		-82.031250
2592		-74.218750
2593		-78.125000
2594		-70.312500
2595		-74.218750
2596		-66.406250
2597		-70.312500
2598		-64.453125
2599		-66.406250
2600		-60.546875
2601		-64.453125
2602		-58.593750
2603		-62.500000
2604		-54.687500
2605		-58.593750
2606		-50.781250
2607		-56.640625
2608		-46.875000
2609		-52.734375
2610		-42.968750
2611		-46.875000
2612		-39.062500
2613		-44.921875
2614		-37.109375
2615		-39.062500
2616		-33.203125
2617		-37.109375
2618		-31.250000
2619		-33.203125
2620		-25.390625
2621		-31.250000
2622		-21.484375
2623		-27.343750
2624		-19.531250
2625		-25.390625
2626		-15.625000
2627		-19.531250
2628		-11.718750
2629		-17.578125
2630		-7.812500
2631		-11.718750
2632		-5.859375
2633		-7.812500
2634		-1.953125
2635		-3.906250
2636		1.953125
2637		-1.953125
2638		5.859375
2639		0.000000
2640		9.765625
2641		3.906250
2642		11.718750
2643		7.812500
2644		15.625000
2645		9.765625
2646		19.531250
2647		15.625000
2648		21.484375
2649		19.531250
2650		25.390625
2651		21.484375
2652		29.296875
2653		23.437500
2654		31.250000
2655		27.343750
2656		37.109375
2657		31.250000
2658		39.062500
2659		33.203125
2660		41.015625
2661		37.109375
2662		44.921875
2663		39.062500
2664		48.828125
2665		44.921875
2666		48.828125
2667		46.875000
2668		52.734375
2669		48.828125
2670		56.640625
2671		52.734375
2672		60.546875
2673		54.687500
2674		62.500000
2675		56.640625
2676		64.453125
2677		60.546875
2678		68.359375
2679		62.500000
2680		70.312500
2681		64.453125
2682		72.265625
2683		70.312500
2684		74.218750
2685		72.265625
2686		78.125000
2687		72.265625
2688		80.078125
2689		76.171875
2690		82.031250
2691		76.171875
2692		83.984375
2693		80.078125
2694		87.890625
2695		82.031250
2696		89.843750
2697		83.984375
2698		89.843750
2699		87.890625
2700		91.796875
2701		89.843750
2702		93.750000
2703		89.843750
2704		97.656250
2705		91.796875
2706		97.656250
2707		93.750000
2708		99.609375
2709		93.750000
2710		101.562500
2711		97.656250
2712		103.515625
2713		97.656250
2714		105.468750
2715		101.562500
2716		105.468750
2717		103.515625
2718		107.421875
2719		103.515625
2720		109.375000
2721		103.515625
2722		111.328125
2723		105.468750
2724		111.328125
2725		105.468750
2726		113.281250
2727		107.421875
2728		113.281250
2729		109.375000
2730		115.234375
2731		111.328125
2732		115.234375
2733		111.328125
2734		115.234375
2735		111.328125
2736		117.187500
2737		111.328125
2738		117.187500
2739		111.328125
2740		119.140625
2741		113.281250
2742		119.140625
2743		113.281250
2744		119.140625
2745		113.281250
2746		119.140625
2747		113.281250
2748		121.093750
2749		115.234375
2750		119.140625
2751		117.187500
2752		119.140625
2753		115.234375
2754		121.093750
2755		113.281250
2756		121.093750
2757		115.234375
2758		121.093750
2759		115.234375
2760		121.093750
2761		115.234375
2762		121.093750
2763		113.281250
2764		119.140625
2765		113.281250
2766		119.140625
2767		115.234375
2768		117.187500
2769		113.281250
2770		119.140625
2771		113.281250
2772		117.187500
2773		111.328125
2774		117.187500
2775		111.328125
2776		117.187500
2777		111.328125
2778		115.234375
2779		109.375000
2780		115.234375
2781		109.375000
2782		113.281250
2783		109.375000
2784		113.281250
2785		107.421875
2786		111.328125
2787		105.468750
2788		111.328125
2789		103.515625
2790		111.328125
2791		101.562500
2792		109.375000
2793		101.562500
2794		109.375000
2795		99.609375
2796		107.421875
2797		97.656250
2798		105.468750
2799		97.656250
2800		103.515625
2801		95.703125
2802		101.562500
2803		93.750000
2804		101.562500
2805		91.796875
2806		99.609375
2807		89.843750
2808		97.656250
2809		87.890625
2810		95.703125
2811		85.937500
2812		93.750000
2813		83.984375
2814		91.796875
2815		82.031250
2816		87.890625
2817		80.078125
2818		85.937500
2819		78.125000
2820		83.984375
2821		74.218750
2822		82.031250
2823		72.265625
2824		80.078125
2825		68.359375
2826		78.125000
2827		66.406250
2828		76.171875
2829		64.453125
2830		72.265625
2831		60.546875
2832		68.359375
2833		60.546875
2834		66.406250
2835		56.640625
2836		62.500000
2837		52.734375
2838		60.546875
2839		50.781250
2840		58.593750
2841		48.828125
2842		56.640625
2843		42.968750
2844		52.734375
2845		41.015625
2846		50.781250
2847		37.109375
2848		44.921875
2849		35.156250
2850		42.968750
2851		33.203125
2852		39.062500
2853		27.343750
2854		35.156250
2855		25.390625
2856		33.203125
2857		21.484375
2858		31.250000
2859		17.578125
2860		27.343750
2861		15.625000
2862		23.437500
2863		11.718750
2864		19.531250
2865		9.765625
2866		17.578125
2867		5.859375
2868		11.718750
2869		1.953125
2870		9.765625
2871		-1.953125
2872		5.859375
2873		-5.859375
2874		3.906250
2875		-9.765625
2876		0.000000
2877		-11.718750
2878		-5.859375
2879		-15.625000
2880		-7.812500
2881		-19.531250
2882		-9.765625
2883		-21.484375
2884		-15.625000
2885		-25.390625
2886		-19.531250
2887		-29.296875
2888		-23.437500
2889		-33.203125
2890		-25.390625
2891		-37.109375
2892		-29.296875
2893		-41.015625
2894		-33.203125
2895		-44.921875
2896		-35.156250
2897		-48.828125
2898		-39.062500
2899		-48.828125
2900		-42.968750
2901		-52.734375
2902		-46.875000
2903		-56.640625
2904		-50.781250
2905		-60.546875
2906		-52.734375
2907		-64.453125
2908		-56.640625
2909		-68.359375
2910		-60.546875
2911		-70.312500
2912		-62.500000
2913		-74.218750
2914		-66.406250
2915		-78.125000
2916		-70.312500
2917		-78.125000
2918		-72.265625
2919		-82.031250
2920		-76.171875
2921		-85.937500
2922		-80.078125
2923		-89.843750
2924		-82.031250
2925		-91.796875
2926		-83.984375
2927		-95.703125
2928		-87.890625
2929		-99.609375
2930		-89.843750
2931		-99.609375
2932		-93.750000
2933		-101.562500
2934		-95.703125
2935		-103.515625
2936		-99.609375
2937		-109.375000
2938		-101.562500
2939		-111.328125
2940		-103.515625
2941		-113.281250
2942		-105.468750
2943		-115.234375
2944		-107.421875
2945		-119.140625
2946		-109.375000
2947		-121.093750
2948		-113.281250
2949		-121.093750
2950		-115.234375
2951		-123.046875
2952		-119.140625
2953		-125.000000
2954		-121.093750
2955		-128.906250
2956		-121.093750
2957		-128.906250
2958		-123.046875
2959		-130.859375
2960		-125.000000
2961		-132.812500
2962		-126.953125
2963		-134.765625
2964		-126.953125
2965		-136.718750
2966		-128.906250
2967		-134.765625
2968		-130.859375
2969		-136.718750
2970		-132.812500
2971		-138.671875
2972		-132.812500
2973		-140.625000
2974		-132.812500
2975		-142.578125
2976		-134.765625
2977		-142.578125
2978		-134.765625
2979		-142.578125
2980		-136.718750
2981		-144.531250
2982		-136.718750
2983		-144.531250
2984		-136.718750
2985		-142.578125
2986		-138.671875
2987		-142.578125
2988		-138.671875
2989		-144.531250
2990		-138.671875
2991		-144.531250
2992		-136.718750
2993		-144.531250
2994		-138.671875
2995		-144.531250
2996		-138.671875
2997		-144.531250
2998		-138.671875
2999		-144.531250
3000		-136.718750
3001		-142.578125
3002		-138.671875
3003		-140.625000
3004		-138.671875
3005		-142.578125
3006		-134.765625
3007		-140.625000
3008		-134.765625
3009		-140.625000
3010		-134.765625
3011		-140.625000
3012		-132.812500
3013		-138.671875
3014		-130.859375
3015		-136.718750
3016		-130.859375
3017		-134.765625
3018		-130.859375
3019		-132.812500
3020		-128.906250
3021		-130.859375
3022		-126.953125
3023		-130.859375
3024		-123.046875
3025		-128.906250
3026		-121.093750
3027		-128.906250
3028		-121.093750
3029		-126.953125
3030		-119.140625
3031		-125.000000
3032		-117.187500
3033		-123.046875
3034		-115.234375
3035		-119.140625
3036		-113.281250
3037		-117.187500
3038		-111.328125
3039		-115.234375
3040		-107.421875
3041		-113.281250
3042		-105.468750
3043		-111.328125
3044		-101.562500
3045		-107.421875
3046		-99.609375
3047		-105.468750
3048		-97.656250
3049		-103.515625
3050		-93.750000
3051		-99.609375
3052		-93.750000
3053		-95.703125
3054		-91.796875
3055		-93.750000
3056		-85.937500
3057		-91.796875
3058		-83.984375
3059		-87.890625
3060		-78.125000
3061		-83.984375
3062		-76.171875
3063		-83.984375
3064		-74.218750
3065		-78.125000
3066		-70.312500
3067		-74.218750
3068		-68.359375
3069		-70.312500
3070		-66.406250
3071		-68.359375
3072		-60.546875
3073		-66.406250
3074		-56.640625
3075		-60.546875
3076		-52.734375
3077		-58.593750
3078		-50.781250
3079		-54.687500
3080		-48.828125
3081		-52.734375
3082		-42.968750
3083		-48.828125
3084		-39.062500
3085		-42.968750
3086		-39.062500
3087		-41.015625
3088		-35.156250
3089		-37.109375
3090		-29.296875
3091		-35.156250
3092		-25.390625
3093		-31.250000
3094		-23.437500
3095		-27.343750
3096		-19.531250
3097		-23.437500
3098		-15.625000
3099		-21.484375
3100		-11.718750
3101		-17.578125
3102		-9.765625
3103		-11.718750
3104		-5.859375
3105		-7.812500
3106		-1.953125
3107		-5.859375
3108		1.953125
3109		-3.906250
3110		5.859375
3111		0.000000
3112		7.812500
3113		3.906250
3114		11.718750
3115		5.859375
3116		15.625000
3117		9.765625
3118		17.578125
3119		15.625000
3120		21.484375
3121		19.531250
3122		23.437500
3123		21.484375
3124		29.296875
3125		23.437500
3126		31.250000
3127		27.343750
3128		35.156250
3129		29.296875
3130		37.109375
3131		31.250000
3132		41.015625
3133		37.109375
3134		44.921875
3135		41.015625
3136		46.875000
3137		44.921875
3138		48.828125
3139		46.875000
3140		54.687500
3141		48.828125
3142		56.640625
3143		50.781250
3144		58.593750
3145		54.687500
3146		60.546875
3147		56.640625
3148		64.453125
3149		60.546875
3150		68.359375
3151		62.500000
3152		68.359375
3153		66.406250
3154		72.265625
3155		68.359375
3156		74.218750
3157		70.312500
3158		76.171875
3159		72.265625
3160		78.125000
3161		74.218750
3162		82.031250
3163		76.171875
3164		83.984375
3165		78.125000
3166		85.937500
3167		82.031250
3168		87.890625
3169		83.984375
3170		89.843750
3171		85.937500
3172		91.796875
3173		87.890625
3174		95.703125
3175		87.890625
3176		95.703125
3177		89.843750
3178		97.656250
3179		91.796875
3180		99.609375
3181		93.750000
3182		101.562500
3183		95.703125
3184		103.515625
3185		97.656250
3186		103.515625
3187		99.609375
3188		103.515625
3189		101.562500
3190		107.421875
3191		101.562500
3192		107.421875
3193		101.562500
3194		109.375000
3195		103.515625
3196		111.328125
3197		105.468750
3198		111.328125
3199		105.468750
3200		113.281250
3201		107.421875
3202		113.281250
3203		109.375000
3204		113.281250
3205		111.328125
3206		113.281250
3207		109.375000
3208		115.234375
3209		109.375000
3210		117.187500
3211		111.328125
3212		117.187500
3213		111.328125
3214		117.187500
3215		111.328125
3216		119.140625
3217		113.281250
3218		119.140625
3219		113.281250
3220		117.187500
3221		115.234375
3222		117.187500
3223		113.281250
3224		119.140625
3225		113.281250
3226		119.140625
3227		113.281250
3228		119.140625
3229		113.281250
3230		119.140625
3231		113.281250
3232		121.093750
3233		113.281250
3234		119.140625
3235		111.328125
3236		119.140625
3237		113.281250
3238		117.187500
3239		113.281250
3240		117.187500
3241		111.328125
3242		117.187500
3243		111.328125
3244		117.187500
3245		109.375000
3246		117.187500
3247		109.375000
3248		115.234375
3249		107.421875
3250		115.234375
3251		107.421875
3252		115.234375
3253		107.421875
3254		111.328125
3255		107.421875
3256		111.328125
3257		103.515625
3258		111.328125
3259		103.515625
3260		111.328125
3261		101.562500
3262		109.375000
3263		99.609375
3264		107.421875
3265		99.609375
3266		105.468750
3267		97.656250
3268		105.468750
3269		97.656250
3270		103.515625
3271		95.703125
3272		99.609375
3273		91.796875
3274		97.656250
3275		91.796875
3276		97.656250
3277		89.843750
3278		95.703125
3279		85.937500
3280		93.750000
3281		85.937500
3282		91.796875
3283		82.031250
3284		89.843750
3285		82.031250
3286		87.890625
3287		80.078125
3288		83.984375
3289		78.125000
3290		82.031250
3291		74.218750
3292		82.031250
3293		70.312500
3294		80.078125
3295		68.359375
3296		76.171875
3297		66.406250
3298		74.218750
3299		62.500000
3300		72.265625
3301		60.546875
3302		68.359375
3303		60.546875
3304		66.406250
3305		56.640625
3306		62.500000
3307		54.687500
3308		60.546875
3309		48.828125
3310		58.593750
3311		46.875000
3312		54.687500
3313		44.921875
3314		52.734375
3315		41.015625
3316		48.828125
3317		37.109375
3318		46.875000
3319		37.109375
3320		42.968750
3321		33.203125
3322		39.062500
3323		29.296875
3324		35.156250
3325		25.390625
3326		33.203125
3327		21.484375
3328		31.250000
3329		19.531250
3330		27.343750
3331		15.625000
3332		23.437500
3333		11.718750
3334		19.531250
3335		7.812500
3336		17.578125
3337		5.859375
3338		11.718750
3339		3.906250
3340		7.812500
3341		-1.953125
3342		5.859375
3343		-5.859375
3344		3.906250
3345		-9.765625
3346		0.000000
3347		-13.671875
3348		-3.906250
3349		-15.625000
3350		-7.812500
3351		-19.531250
3352		-11.718750
3353		-21.484375
3354		-13.671875
3355		-25.390625
3356		-19.531250
3357		-29.296875
3358		-23.437500
3359		-33.203125
3360		-25.390625
3361		-37.109375
3362		-29.296875
3363		-41.015625
3364		-33.203125
3365		-42.968750
3366		-35.156250
3367		-48.828125
3368		-39.062500
3369		-48.828125
3370		-42.968750
3371		-52.734375
3372		-46.875000
3373		-56.640625
3374		-48.828125
3375		-60.546875
3376		-52.734375
3377		-64.453125
3378		-56.640625
3379		-66.406250
3380		-60.546875
3381		-70.312500
3382		-62.500000
3383		-74.218750
3384		-64.453125
3385		-78.125000
3386		-68.359375
3387		-78.125000
3388		-72.265625
3389		-82.031250
3390		-76.171875
3391		-85.937500
3392		-80.078125
3393		-89.843750
3394		-82.031250
3395		-91.796875
3396		-83.984375
3397		-95.703125
3398		-87.890625
3399		-97.656250
3400		-89.843750
3401		-101.562500
3402		-93.750000
3403		-101.562500
3404		-95.703125
3405		-105.468750
3406		-99.609375
3407		-107.421875
3408		-103.515625
3409		-111.328125
3410		-103.515625
3411		-113.281250
3412		-105.468750
3413		-117.187500
3414		-107.421875
3415		-119.140625
3416		-111.328125
3417		-121.093750
3418		-113.281250
3419		-123.046875
3420		-115.234375
3421		-123.046875
3422		-119.140625
3423		-125.000000
3424		-121.093750
3425		-126.953125
3426		-121.093750
3427		-128.906250
3428		-123.046875
3429		-132.812500
3430		-125.000000
3431		-132.812500
3432		-126.953125
3433		-134.765625
3434		-126.953125
3435		-134.765625
3436		-128.906250
3437		-136.718750
3438		-130.859375
3439		-136.718750
3440		-132.812500
3441		-138.671875
3442		-134.765625
3443		-140.625000
3444		-134.765625
3445		-142.578125
3446		-134.765625
3447		-142.578125
3448		-136.718750
3449		-144.531250
3450		-136.718750
3451		-144.531250
3452		-136.718750
3453		-144.531250
3454		-138.671875
3455		-142.578125
3456		-140.625000
3457		-144.531250
3458		-140.625000
3459		-146.484375
3460		-138.671875
3461		-146.484375
3462		-138.671875
3463		-144.531250
3464		-138.671875
3465		-146.484375
3466		-138.671875
3467		-144.531250
3468		-138.671875
3469		-144.531250
3470		-138.671875
3471		-142.578125
3472		-138.671875
3473		-142.578125
3474		-138.671875
3475		-142.578125
3476		-136.718750
3477		-142.578125
3478		-134.765625
3479		-140.625000
3480		-134.765625
3481		-140.625000
3482		-132.812500
3483		-140.625000
3484		-132.812500
3485		-136.718750
3486		-132.812500
3487		-136.718750
3488		-130.859375
3489		-134.765625
3490		-130.859375
3491		-132.812500
3492		-128.906250
3493		-132.812500
3494		-126.953125
3495		-132.812500
3496		-125.000000
3497		-130.859375
3498		-121.093750
3499		-128.906250
3500		-121.093750
3501		-125.000000
3502		-119.140625
3503		-123.046875
3504		-117.187500
3505		-119.140625
3506		-115.234375
3507		-117.187500
3508		-113.281250
3509		-117.187500
3510		-109.375000
3511		-115.234375
3512		-107.421875
3513		-113.281250
3514		-103.515625
3515		-109.375000
3516		-103.515625
3517		-107.421875
3518		-101.562500
3519		-103.515625
3520		-99.609375
3521		-101.562500
3522		-95.703125
3523		-97.656250
3524		-93.750000
3525		-95.703125
3526		-89.843750
3527		-93.750000
3528		-85.937500
3529		-89.843750
3530		-82.031250
3531		-87.890625
3532		-80.078125
3533		-83.984375
3534		-78.125000
3535		-80.078125
3536		-74.218750
3537		-76.171875
3538		-70.312500
3539		-74.218750
3540		-68.359375
3541		-70.312500
3542		-64.453125
3543		-66.406250
3544		-60.546875
3545		-64.453125
3546		-54.687500
3547		-60.546875
3548		-54.687500
3549		-58.593750
3550		-50.781250
3551		-52.734375
3552		-48.828125
3553		-50.781250
3554		-44.921875
3555		-46.875000
3556		-41.015625
3557		-42.968750
3558		-37.109375
3559		-39.062500
3560		-31.250000
3561		-37.109375
3562		-29.296875
3563		-35.156250
3564		-25.390625
3565		-31.250000
3566		-23.437500
3567		-25.390625
3568		-19.531250
3569		-21.484375
3570		-15.625000
3571		-17.578125
3572		-11.718750
3573		-15.625000
3574		-9.765625
3575		-11.718750
3576		-5.859375
3577		-7.812500
3578		-1.953125
3579		-5.859375
3580		1.953125
3581		-1.953125
3582		7.812500
3583		1.953125
3584		7.812500
3585		5.859375
3586		11.718750
3587		9.765625
3588		15.625000
3589		13.671875
3590		17.578125
3591		15.625000
3592		21.484375
3593		19.531250
3594		25.390625
3595		21.484375
3596		29.296875
3597		25.390625
3598		33.203125
3599		29.296875
3600		35.156250
3601		33.203125
3602		37.109375
3603		35.156250
3604		41.015625
3605		39.062500
3606		42.968750
3607		41.015625
3608		46.875000
3609		44.921875
3610		50.781250
3611		46.875000
3612		52.734375
3613		50.781250
3614		56.640625
3615		52.734375
3616		58.593750
3617		56.640625
3618		60.546875
3619		58.593750
3620		64.453125
3621		62.500000
3622		66.406250
3623		64.453125
3624		68.359375
3625		66.406250
3626		72.265625
3627		68.359375
3628		76.171875
3629		70.312500
3630		78.125000
3631		72.265625
3632		80.078125
3633		76.171875
3634		82.031250
3635		78.125000
3636		83.984375
3637		80.078125
3638		85.937500
3639		82.031250
3640		87.890625
3641		83.984375
3642		89.843750
3643		87.890625
3644		93.750000
3645		87.890625
3646		93.750000
3647		89.843750
3648		95.703125
3649		91.796875
3650		97.656250
3651		93.750000
3652		99.609375
3653		95.703125
3654		99.609375
3655		97.656250
3656		101.562500
3657		99.609375
3658		103.515625
3659		101.562500
3660		105.468750
3661		101.562500
3662		109.375000
3663		101.562500
3664		109.375000
3665		103.515625
3666		109.375000
3667		105.468750
3668		109.375000
3669		107.421875
3670		111.328125
3671		107.421875
3672		113.281250
3673		109.375000
3674		113.281250
3675		109.375000
3676		113.281250
3677		109.375000
3678		117.187500
3679		109.375000
3680		117.187500
3681		109.375000
3682		117.187500
3683		111.328125
3684		117.187500
3685		113.281250
3686		117.187500
3687		113.281250
3688		117.187500
3689		115.234375
3690		117.187500
3691		115.234375
3692		117.187500
3693		115.234375
3694		119.140625
3695		113.281250
3696		119.140625
3697		113.281250
3698		119.140625
3699		115.234375
3700		119.140625
3701		115.234375
3702		119.140625
3703		115.234375
3704		119.140625
3705		115.234375
3706		119.140625
3707		115.234375
3708		117.187500
3709		113.281250
3710		117.187500
3711		111.328125
3712		119.140625
3713		111.328125
3714		117.187500
3715		111.328125
3716		117.187500
3717		111.328125
3718		115.234375
3719		111.328125
3720		115.234375
3721		109.375000
3722		113.281250
3723		109.375000
3724		113.281250
3725		107.421875
3726		111.328125
3727		105.468750
3728		111.328125
3729		105.468750
3730		111.328125
3731		103.515625
3732		109.375000
3733		103.515625
3734		107.421875
3735		101.562500
3736		107.421875
3737		101.562500
3738		105.468750
3739		99.609375
3740		103.515625
3741		97.656250
3742		101.562500
3743		95.703125
3744		99.609375
3745		93.750000
3746		99.609375
3747		91.796875
3748		99.609375
3749		91.796875
3750		95.703125
3751		87.890625
3752		93.750000
3753		87.890625
3754		91.796875
3755		83.984375
3756		89.843750
3757		82.031250
3758		87.890625
3759		80.078125
3760		83.984375
3761		78.125000
3762		82.031250
3763		76.171875
3764		80.078125
3765		72.265625
3766		78.125000
3767		70.312500
3768		76.171875
3769		68.359375
3770		72.265625
3771		64.453125
3772		70.312500
3773		62.500000
3774		68.359375
3775		60.546875
3776		64.453125
3777		56.640625
3778		62.500000
3779		54.687500
3780		60.546875
3781		50.781250
3782		56.640625
3783		48.828125
3784		52.734375
3785		44.921875
3786		50.781250
3787		42.968750
3788		48.828125
3789		39.062500
3790		44.921875
3791		37.109375
3792		41.015625
3793		33.203125
3794		39.062500
3795		29.296875
3796		35.156250
3797		27.343750
3798		33.203125
3799		23.437500
3800		29.296875
3801		19.531250
3802		25.390625
3803		15.625000
3804		23.437500
3805		13.671875
3806		19.531250
3807		9.765625
3808		15.625000
3809		5.859375
3810		11.718750
3811		1.953125
3812		7.812500
3813		0.000000
3814		5.859375
3815		-3.906250
3816		1.953125
3817		-7.812500
3818		-1.953125
3819		-11.718750
3820		-5.859375
3821		-13.671875
3822		-7.812500
3823		-17.578125
3824		-11.718750
3825		-21.484375
3826		-15.625000
3827		-25.390625
3828		-19.531250
3829		-29.296875
3830		-21.484375
3831		-31.250000
3832		-25.390625
3833		-35.156250
3834		-29.296875
3835		-39.062500
3836		-33.203125
3837		-42.968750
3838		-37.109375
3839		-46.875000
3840		-41.015625
3841		-48.828125
3842		-42.968750
3843		-52.734375
3844		-46.875000
3845		-56.640625
3846		-50.781250
3847		-60.546875
3848		-54.687500
3849		-62.500000
3850		-58.593750
3851		-66.406250
3852		-60.546875
3853		-70.312500
3854		-64.453125
3855		-72.265625
3856		-66.406250
3857		-76.171875
3858		-70.312500
3859		-80.078125
3860		-74.218750
3861		-82.031250
3862		-76.171875
3863		-85.937500
3864		-80.078125
3865		-87.890625
3866		-83.984375
3867		-91.796875
3868		-85.937500
3869		-93.750000
3870		-89.843750
3871		-97.656250
3872		-91.796875
3873		-99.609375
3874		-93.750000
3875		-103.515625
3876		-97.656250
3877		-105.468750
3878		-99.609375
3879		-107.421875
3880		-103.515625
3881		-109.375000
3882		-105.468750
3883		-113.281250
3884		-107.421875
3885		-115.234375
3886		-109.375000
3887		-117.187500
3888		-113.281250
3889		-119.140625
3890		-115.234375
3891		-121.093750
3892		-115.234375
3893		-123.046875
3894		-119.140625
3895		-126.953125
3896		-121.093750
3897		-126.953125
3898		-123.046875
3899		-128.906250
3900		-125.000000
3901		-130.859375
3902		-126.953125
3903		-132.812500
3904		-128.906250
3905		-132.812500
3906		-128.906250
3907		-134.765625
3908		-130.859375
3909		-136.718750
3910		-132.812500
3911		-138.671875
3912		-134.765625
3913		-138.671875
3914		-134.765625
3915		-140.625000
3916		-134.765625
3917		-140.625000
3918		-136.718750
3919		-140.625000
3920		-136.718750
3921		-142.578125
3922		-136.718750
3923		-142.578125
3924		-138.671875
3925		-142.578125
3926		-138.671875
3927		-144.531250
3928		-140.625000
3929		-144.531250
3930		-140.625000
3931		-144.531250
3932		-140.625000
3933		-144.531250
3934		-140.625000
3935		-144.531250
3936		-140.625000
3937		-144.531250
3938		-140.625000
3939		-144.531250
3940		-140.625000
3941		-144.531250
3942		-138.671875
3943		-142.578125
3944		-138.671875
3945		-142.578125
3946		-138.671875
3947		-142.578125
3948		-138.671875
3949		-140.625000
3950		-136.718750
3951		-140.625000
3952		-134.765625
3953		-138.671875
3954		-134.765625
3955		-138.671875
3956		-134.765625
3957		-136.718750
3958		-132.812500
3959		-134.765625
3960		-130.859375
3961		-134.765625
3962		-130.859375
3963		-132.812500
3964		-128.906250
3965		-130.859375
3966		-126.953125
3967		-128.906250
3968		-125.000000
3969		-126.953125
3970		-123.046875
3971		-125.000000
3972		-121.093750
3973		-123.046875
3974		-119.140625
3975		-121.093750
3976		-117.187500
3977		-119.140625
3978		-115.234375
3979		-117.187500
3980		-113.281250
3981		-115.234375
3982		-111.328125
3983		-113.281250
3984		-107.421875
3985		-109.375000
3986		-105.468750
3987		-107.421875
3988		-103.515625
3989		-105.468750
3990		-99.609375
3991		-103.515625
3992		-97.656250
3993		-99.609375
3994		-93.750000
3995		-97.656250
3996		-91.796875
3997		-95.703125
3998		-87.890625
3999		-91.796875
4000		-85.937500
4001		-87.890625
4002		-82.031250
4003		-85.937500
4004		-80.078125
4005		-82.031250
4006		-76.171875
4007		-78.125000
4008		-74.218750
4009		-76.171875
4010		-70.312500
4011		-72.265625
4012		-66.406250
4013		-68.359375
4014		-62.500000
4015		-66.406250
4016		-60.546875
4017		-62.500000
4018		-56.640625
4019		-58.593750
4020		-52.734375
4021		-56.640625
4022		-50.781250
4023		-52.734375
4024		-46.875000
4025		-48.828125
4026		-42.968750
4027		-44.921875
4028		-39.062500
4029		-41.015625
4030		-35.156250
4031		-39.062500
4032		-33.203125
4033		-35.156250
4034		-29.296875
4035		-31.250000
4036		-25.390625
4037		-27.343750
4038		-21.484375
4039		-23.437500
4040		-17.578125
4041		-19.531250
4042		-13.671875
4043		-17.578125
4044		-11.718750
4045		-13.671875
4046		-7.812500
4047		-9.765625
4048		-3.906250
4049		-5.859375
4050		0.000000
4051		-3.906250
4052		3.906250
4053		0.000000
4054		5.859375
4055		3.906250
4056		9.765625
4057		7.812500
4058		13.671875
4059		9.765625
4060		15.625000
4061		13.671875
4062		19.531250
4063		17.578125
4064		23.437500
4065		19.531250
4066		25.390625
4067		23.437500
4068		29.296875
4069		27.343750
4070		33.203125
4071		29.296875
4072		35.156250
4073		33.203125
4074		39.062500
4075		37.109375
4076		41.015625
4077		39.062500
4078		44.921875
4079		42.968750
4080		48.828125
4081		44.921875
4082		50.781250
4083		48.828125
4084		54.687500
4085		50.781250
4086		56.640625
4087		54.687500
4088		60.546875
4089		56.640625
4090		62.500000
4091		60.546875
4092		64.453125
4093		62.500000
4094		68.359375
4095		64.453125
4096		70.312500
4097		68.359375
4098		72.265625
4099		70.312500
4100		74.218750
4101		72.265625
4102		78.125000
4103		74.218750
4104		80.078125
4105		78.125000
4106		82.031250
4107		80.078125
4108		83.984375
4109		82.031250
4110		85.937500
4111		83.984375
4112		87.890625
4113		85.937500
4114		89.843750
4115		87.890625
4116		91.796875
4117		89.843750
4118		93.750000
4119		91.796875
4120		95.703125
4121		93.750000
4122		97.656250
4123		95.703125
4124		99.609375
4125		97.656250
4126		101.562500
4127		97.656250
4128		101.562500
4129		99.609375
4130		103.515625
4131		101.562500
4132		105.468750
4133		101.562500
4134		107.421875
4135		103.515625
4136		107.421875
4137		105.468750
4138		109.375000
4139		105.468750
4140		109.375000
4141		107.421875
4142		111.328125
4143		107.421875
4144		111.328125
4145		109.375000
4146		113.281250
4147		111.328125
4148		115.234375
4149		111.328125
4150		115.234375
4151		111.328125
4152		115.234375
4153		111.328125
4154		115.234375
4155		113.281250
4156		117.187500
4157		113.281250
4158		117.187500
4159		113.281250
4160		117.187500
4161		115.234375
4162		117.187500
4163		115.234375
4164		117.187500
4165		115.234375
4166		117.187500
4167		115.234375
4168		119.140625
4169		115.234375
4170		119.140625
4171		115.234375
4172		119.140625
4173		115.234375
4174		119.140625
4175		115.234375
4176		117.187500
4177		113.281250
4178		117.187500
4179		113.281250
4180		117.187500
4181		113.281250
4182		117.187500
4183		113.281250
4184		117.187500
4185		111.328125
4186		117.187500
4187		111.328125
4188		115.234375
4189		111.328125
4190		115.234375
4191		109.375000
4192		113.281250
4193		109.375000
4194		113.281250
4195		109.375000
4196		111.328125
4197		107.421875
4198		111.328125
4199		105.468750
4200		111.328125
4201		105.468750
4202		109.375000
4203		103.515625
4204		107.421875
4205		103.515625
4206		105.468750
4207		101.562500
4208		105.468750
4209		97.656250
4210		103.515625
4211		97.656250
4212		101.562500
4213		95.703125
4214		99.609375
4215		93.750000
4216		99.609375
4217		93.750000
4218		97.656250
4219		91.796875
4220		95.703125
4221		87.890625
4222		93.750000
4223		87.890625
4224		91.796875
4225		85.937500
4226		89.843750
4227		83.984375
4228		87.890625
4229		80.078125
4230		85.937500
4231		78.125000
4232		83.984375
4233		76.171875
4234		80.078125
4235		74.218750
4236		80.078125
4237		70.312500
4238		76.171875
4239		68.359375
4240		74.218750
4241		66.406250
4242		70.312500
4243		64.453125
4244		68.359375
4245		60.546875
4246		66.406250
4247		58.593750
4248		62.500000
4249		54.687500
4250		60.546875
4251		52.734375
4252		58.593750
4253		48.828125
4254		54.687500
4255		46.875000
4256		50.781250
4257		42.968750
4258		48.828125
4259		39.062500
4260		44.921875
4261		37.109375
4262		42.968750
4263		33.203125
4264		39.062500
4265		29.296875
4266		37.109375
4267		27.343750
4268		33.203125
4269		23.437500
4270		29.296875
4271		21.484375
4272		27.343750
4273		17.578125
4274		23.437500
4275		13.671875
4276		19.531250
4277		11.718750
4278		15.625000
4279		7.812500
4280		13.671875
4281		3.906250
4282		9.765625
4283		0.000000
4284		7.812500
4285		-3.906250
4286		1.953125
4287		-5.859375
4288		0.000000
4289		-9.765625
4290		-3.906250
4291		-13.671875
4292		-7.812500
4293		-17.578125
4294		-9.765625
4295		-19.531250
4296		-13.671875
4297		-23.437500
4298		-17.578125
4299		-27.343750
4300		-21.484375
4301		-31.250000
4302		-25.390625
4303		-35.156250
4304		-29.296875
4305		-39.062500
4306		-31.250000
4307		-41.015625
4308		-35.156250
4309		-44.921875
4310		-39.062500
4311		-48.828125
4312		-42.968750
4313		-52.734375
4314		-46.875000
4315		-56.640625
4316		-48.828125
4317		-58.593750
4318		-52.734375
4319		-62.500000
4320		-56.640625
4321		-66.406250
4322		-60.546875
4323		-68.359375
4324		-62.500000
4325		-72.265625
4326		-66.406250
4327		-74.218750
4328		-70.312500
4329		-78.125000
4330		-72.265625
4331		-82.031250
4332		-76.171875
4333		-83.984375
4334		-80.078125
4335		-87.890625
4336		-82.031250
4337		-89.843750
4338		-83.984375
4339		-93.750000
4340		-87.890625
4341		-95.703125
4342		-89.843750
4343		-99.609375
4344		-93.750000
4345		-101.562500
4346		-95.703125
4347		-103.515625
4348		-99.609375
4349		-107.421875
4350		-101.562500
4351		-109.375000
4352		-105.468750
4353		-113.281250
4354		-105.468750
4355		-113.281250
4356		-109.375000
4357		-117.187500
4358		-111.328125
4359		-119.140625
4360		-113.281250
4361		-121.093750
4362		-115.234375
4363		-123.046875
4364		-117.187500
4365		-125.000000
4366		-121.093750
4367		-126.953125
4368		-123.046875
4369		-128.906250
4370		-125.000000
4371		-130.859375
4372		-125.000000
4373		-132.812500
4374		-126.953125
4375		-132.812500
4376		-128.906250
4377		-134.765625
4378		-130.859375
4379		-136.718750
4380		-130.859375
4381		-136.718750
4382		-132.812500
4383		-138.671875
4384		-134.765625
4385		-140.625000
4386		-134.765625
4387		-142.578125
4388		-136.718750
4389		-142.578125
4390		-136.718750
4391		-142.578125
4392		-136.718750
4393		-144.531250
4394		-138.671875
4395		-144.531250
4396		-138.671875
4397		-144.531250
4398		-140.625000
4399		-144.531250
4400		-140.625000
4401		-144.531250
4402		-140.625000
4403		-146.484375
4404		-140.625000
4405		-146.484375
4406		-140.625000
4407		-144.531250
4408		-140.625000
4409		-144.531250
4410		-140.625000
4411		-144.531250
4412		-140.625000
4413		-144.531250
4414		-140.625000
4415		-144.531250
4416		-140.625000
4417		-144.531250
4418		-138.671875
4419		-144.531250
4420		-138.671875
4421		-142.578125
4422		-136.718750
4423		-140.625000
4424		-136.718750
4425		-140.625000
4426		-134.765625
4427		-138.671875
4428		-132.812500
4429		-138.671875
4430		-132.812500
4431		-136.718750
4432		-132.812500
4433		-134.765625
4434		-130.859375
4435		-134.765625
4436		-128.906250
4437		-132.812500
4438		-125.000000
4439		-130.859375
4440		-125.000000
4441		-128.906250
4442		-123.046875
4443		-126.953125
4444		-121.093750
4445		-125.000000
4446		-119.140625
4447		-123.046875
4448		-117.187500
4449		-119.140625
4450		-115.234375
4451		-117.187500
4452		-113.281250
4453		-115.234375
4454		-111.328125
4455		-113.281250
4456		-107.421875
4457		-111.328125
4458		-105.468750
4459		-107.421875
4460		-103.515625
4461		-105.468750
4462		-99.609375
4463		-103.515625
4464		-97.656250
4465		-99.609375
4466		-95.703125
4467		-97.656250
4468		-91.796875
4469		-93.750000
4470		-89.843750
4471		-91.796875
4472		-85.937500
4473		-87.890625
4474		-82.031250
4475		-83.984375
4476		-80.078125
4477		-82.031250
4478		-76.171875
4479		-78.125000
4480		-74.218750
4481		-76.171875
4482		-70.312500
4483		-72.265625
4484		-66.406250
4485		-68.359375
4486		-62.500000
4487		-66.406250
4488		-60.546875
4489		-62.500000
4490		-56.640625
4491		-58.593750
4492		-52.734375
4493		-54.687500
4494		-48.828125
4495		-52.734375
4496		-46.875000
4497		-48.828125
4498		-42.968750
4499		-44.921875
4500		-39.062500
4501		-41.015625
4502		-35.156250
4503		-39.062500
4504		-31.250000
4505		-35.156250
4506		-29.296875
4507		-31.250000
4508		-25.390625
4509		-27.343750
4510		-21.484375
4511		-23.437500
4512		-17.578125
4513		-19.531250
4514		-13.671875
4515		-17.578125
4516		-11.718750
4517		-13.671875
4518		-7.812500
4519		-9.765625
4520		-3.906250
4521		-5.859375
4522		0.000000
4523		-1.953125
4524		3.906250
4525		0.000000
4526		5.859375
4527		3.906250
4528		9.765625
4529		7.812500
4530		13.671875
4531		11.718750
4532		17.578125
4533		13.671875
4534		19.531250
4535		17.578125
4536		23.437500
4537		21.484375
4538		27.343750
4539		25.390625
4540		29.296875
4541		27.343750
4542		33.203125
4543		31.250000
4544		35.156250
4545		33.203125
4546		39.062500
4547		37.109375
4548		42.968750
4549		41.015625
4550		44.921875
4551		42.968750
4552		50.781250
4553		44.921875
4554		54.687500
4555		46.875000
4556		56.640625
4557		52.734375
4558		56.640625
4559		54.687500
4560		58.593750
4561		56.640625
4562		62.500000
4563		60.546875
4564		64.453125
4565		62.500000
4566		68.359375
4567		66.406250
4568		70.312500
4569		64.453125
4570		76.171875
4571		66.406250
4572		78.125000
4573		70.312500
4574		78.125000
4575		76.171875
4576		80.078125
4577		78.125000
4578		82.031250
4579		80.078125
4580		83.984375
4581		82.031250
4582		85.937500
4583		83.984375
4584		87.890625
4585		83.984375
4586		91.796875
4587		85.937500
4588		95.703125
4589		87.890625
4590		97.656250
4591		91.796875
4592		95.703125
4593		93.750000
4594		97.656250
4595		95.703125
4596		99.609375
4597		95.703125
4598		101.562500
4599		97.656250
4600		101.562500
4601		97.656250
4602		107.421875
4603		97.656250
4604		107.421875
4605		99.609375
4606		109.375000
4607		101.562500
4608		109.375000
4609		105.468750
4610		107.421875
4611		105.468750
4612		109.375000
4613		107.421875
4614		111.328125
4615		107.421875
4616		111.328125
4617		109.375000
4618		111.328125
4619		107.421875
4620		115.234375
4621		107.421875
4622		117.187500
4623		107.421875
4624		117.187500
4625		111.328125
4626		115.234375
4627		113.281250
4628		115.234375
4629		113.281250
4630		115.234375
4631		113.281250
4632		117.187500
4633		113.281250
4634		117.187500
4635		111.328125
4636		119.140625
4637		111.328125
4638		121.093750
4639		111.328125
4640		121.093750
4641		113.281250
4642		117.187500
4643		113.281250
4644		117.187500
4645		113.281250
4646		117.187500
4647		113.281250
4648		117.187500
4649		113.281250
4650		117.187500
4651		111.328125
4652		117.187500
4653		109.375000
4654		119.140625
4655		109.375000
4656		117.187500
4657		109.375000
4658		117.187500
4659		111.328125
4660		113.281250
4661		109.375000
4662		113.281250
4663		109.375000
4664		113.281250
4665		107.421875
4666		111.328125
4667		107.421875
4668		111.328125
4669		103.515625
4670		111.328125
4671		101.562500
4672		111.328125
4673		101.562500
4674		109.375000
4675		101.562500
4676		105.468750
4677		101.562500
4678		105.468750
4679		99.609375
4680		103.515625
4681		97.656250
4682		101.562500
4683		95.703125
4684		101.562500
4685		93.750000
4686		101.562500
4687		89.843750
4688		99.609375
4689		87.890625
4690		99.609375
4691		87.890625
4692		95.703125
4693		87.890625
4694		91.796875
4695		85.937500
4696		89.843750
4697		83.984375
4698		87.890625
4699		82.031250
4700		85.937500
4701		80.078125
4702		83.984375
4703		74.218750
4704		83.984375
4705		72.265625
4706		82.031250
4707		70.312500
4708		80.078125
4709		70.312500
4710		74.218750
4711		66.406250
4712		72.265625
4713		64.453125
4714		70.312500
4715		62.500000
4716		66.406250
4717		58.593750
4718		64.453125
4719		52.734375
4720		62.500000
4721		50.781250
4722		60.546875
4723		46.875000
4724		58.593750
4725		46.875000
4726		54.687500
4727		44.921875
4728		48.828125
4729		41.015625
4730		46.875000
4731		39.062500
4732		42.968750
4733		35.156250
4734		41.015625
4735		31.250000
4736		37.109375
4737		25.390625
4738		33.203125
4739		25.390625
4740		31.250000
4741		21.484375
4742		31.250000
4743		17.578125
4744		23.437500
4745		15.625000
4746		21.484375
4747		11.718750
4748		17.578125
4749		7.812500
4750		13.671875
4751		3.906250
4752		11.718750
4753		1.953125
4754		7.812500
4755		-5.859375
4756		3.906250
4757		-5.859375
4758		0.000000
4759		-7.812500
4760		-3.906250
4761		-11.718750
4762		-5.859375
4763		-15.625000
4764		-9.765625
4765		-19.531250
4766		-13.671875
4767		-23.437500
4768		-17.578125
4769		-25.390625
4770		-21.484375
4771		-31.250000
4772		-23.437500
4773		-35.156250
4774		-27.343750
4775		-37.109375
4776		-31.250000
4777		-41.015625
4778		-35.156250
4779		-44.921875
4780		-39.062500
4781		-46.875000
4782		-41.015625
4783		-50.781250
4784		-44.921875
4785		-54.687500
4786		-48.828125
4787		-58.593750
4788		-52.734375
4789		-60.546875
4790		-54.687500
4791		-64.453125
4792		-58.593750
4793		-68.359375
4794		-62.500000
4795		-70.312500
4796		-64.453125
4797		-74.218750
4798		-68.359375
4799		-78.125000
4800		-72.265625
4801		-80.078125
4802		-74.218750
4803		-83.984375
4804		-78.125000
4805		-85.937500
4806		-82.031250
4807		-89.843750
4808		-83.984375
4809		-93.750000
4810		-87.890625
4811		-95.703125
4812		-89.843750
4813		-97.656250
4814		-93.750000
4815		-101.562500
4816		-95.703125
4817		-103.515625
4818		-99.609375
4819		-105.468750
4820		-101.562500
4821		-109.375000
4822		-103.515625
4823		-111.328125
4824		-105.468750
4825		-113.281250
4826		-109.375000
4827		-115.234375
4828		-111.328125
4829		-117.187500
4830		-113.281250
4831		-121.093750
4832		-115.234375
4833		-123.046875
4834		-119.140625
4835		-125.000000
4836		-119.140625
4837		-126.953125
4838		-123.046875
4839		-128.906250
4840		-123.046875
4841		-130.859375
4842		-126.953125
4843		-132.812500
4844		-126.953125
4845		-132.812500
4846		-128.906250
4847		-134.765625
4848		-130.859375
4849		-136.718750
4850		-132.812500
4851		-138.671875
4852		-132.812500
4853		-138.671875
4854		-134.765625
4855		-140.625000
4856		-136.718750
4857		-140.625000
4858		-136.718750
4859		-142.578125
4860		-138.671875
4861		-142.578125
4862		-138.671875
4863		-142.578125
4864		-140.625000
4865		-144.531250
4866		-140.625000
4867		-144.531250
4868		-140.625000
4869		-144.531250
4870		-140.625000
4871		-146.484375
4872		-140.625000
4873		-144.531250
4874		-142.578125
4875		-144.531250
4876		-142.578125
4877		-146.484375
4878		-142.578125
4879		-146.484375
4880		-142.578125
4881		-144.531250
4882		-142.578125
4883		-144.531250
4884		-140.625000
4885		-144.531250
4886		-140.625000
4887		-144.531250
4888		-138.671875
4889		-142.578125
4890		-138.671875
4891		-142.578125
4892		-138.671875
4893		-140.625000
4894		-138.671875
4895		-140.625000
4896		-136.718750
4897		-138.671875
4898		-136.718750
4899		-138.671875
4900		-134.765625
4901		-136.718750
4902		-132.812500
4903		-136.718750
4904		-130.859375
4905		-134.765625
4906		-128.906250
4907		-132.812500
4908		-128.906250
4909		-132.812500
4910		-126.953125
4911		-128.906250
4912		-125.000000
4913		-126.953125
4914		-123.046875
4915		-125.000000
4916		-121.093750
4917		-123.046875
4918		-119.140625
4919		-121.093750
4920		-117.187500
4921		-119.140625
4922		-115.234375
4923		-117.187500
4924		-113.281250
4925		-115.234375
4926		-109.375000
4927		-111.328125
4928		-107.421875
4929		-111.328125
4930		-105.468750
4931		-107.421875
4932		-101.562500
4933		-103.515625
4934		-99.609375
4935		-101.562500
4936		-95.703125
4937		-99.609375
4938		-93.750000
4939		-95.703125
4940		-89.843750
4941		-93.750000
4942		-87.890625
4943		-89.843750
4944		-83.984375
4945		-87.890625
4946		-80.078125
4947		-85.937500
4948		-78.125000
4949		-80.078125
4950		-76.171875
4951		-78.125000
4952		-72.265625
4953		-74.218750
4954		-68.359375
4955		-72.265625
4956		-66.406250
4957		-68.359375
4958		-62.500000
4959		-64.453125
4960		-58.593750
4961		-60.546875
4962		-54.687500
4963		-58.593750
4964		-52.734375
4965		-54.687500
4966		-48.828125
4967		-50.781250
4968		-44.921875
4969		-46.875000
4970		-41.015625
4971		-42.968750
4972		-37.109375
4973		-41.015625
4974		-35.156250
4975		-37.109375
4976		-31.250000
4977		-33.203125
4978		-27.343750
4979		-29.296875
4980		-23.437500
4981		-25.390625
4982		-21.484375
4983		-23.437500
4984		-17.578125
4985		-19.531250
4986		-13.671875
4987		-15.625000
4988		-7.812500
4989		-13.671875
4990		-5.859375
4991		-7.812500
4992		-1.953125
4993		-5.859375
4994		0.000000
4995		-1.953125
4996		3.906250
4997		1.953125
4998		7.812500
4999		5.859375
5000		11.718750
5001		9.765625
5002		13.671875
5003		11.718750
5004		17.578125
5005		15.625000
5006		21.484375
5007		19.531250
5008		23.437500
5009		21.484375
5010		27.343750
5011		25.390625
5012		31.250000
5013		29.296875
5014		33.203125
5015		31.250000
5016		37.109375
5017		35.156250
5018		41.015625
5019		37.109375
5020		42.968750
5021		41.015625
5022		46.875000
5023		44.921875
5024		48.828125
5025		46.875000
5026		52.734375
5027		48.828125
5028		54.687500
5029		52.734375
5030		56.640625
5031		54.687500
5032		60.546875
5033		58.593750
5034		62.500000
5035		60.546875
5036		66.406250
5037		64.453125
5038		68.359375
5039		66.406250
5040		70.312500
5041		68.359375
5042		74.218750
5043		70.312500
5044		76.171875
5045		74.218750
5046		78.125000
5047		76.171875
5048		80.078125
5049		78.125000
5050		82.031250
5051		80.078125
5052		83.984375
5053		82.031250
5054		85.937500
5055		83.984375
5056		87.890625
5057		85.937500
5058		89.843750
5059		87.890625
5060		91.796875
5061		89.843750
5062		93.750000
5063		91.796875
5064		95.703125
5065		93.750000
5066		97.656250
5067		95.703125
5068		99.609375
5069		97.656250
5070		101.562500
5071		97.656250
5072		101.562500
5073		99.609375
5074		103.515625
5075		101.562500
5076		105.468750
5077		101.562500
5078		105.468750
5079		103.515625
5080		107.421875
5081		105.468750
5082		109.375000
5083		105.468750
5084		109.375000
5085		107.421875
5086		111.328125
5087		107.421875
5088		111.328125
5089		109.375000
5090		111.328125
5091		109.375000
5092		113.281250
5093		111.328125
5094		113.281250
5095		111.328125
5096		115.234375
5097		111.328125
5098		115.234375
5099		111.328125
5100		115.234375
5101		113.281250
5102		115.234375
5103		113.281250
5104		115.234375
5105		113.281250
5106		117.187500
5107		113.281250
5108		117.187500
5109		113.281250
5110		117.187500
5111		113.281250
5112		117.187500
5113		113.281250
5114		117.187500
5115		113.281250
5116		117.187500
5117		113.281250
5118		117.187500
5119		113.281250
5120		115.234375
5121		113.281250
5122		115.234375
5123		111.328125
5124		115.234375
5125		111.328125
5126		115.234375
5127		111.328125
5128		115.234375
5129		111.328125
5130		113.281250
5131		109.375000
5132		113.281250
5133		109.375000
5134		113.281250
5135		109.375000
5136		111.328125
5137		107.421875
5138		111.328125
5139		105.468750
5140		109.375000
5141		105.468750
5142		109.375000
5143		103.515625
5144		107.421875
5145		103.515625
5146		107.421875
5147		101.562500
5148		105.468750
5149		99.609375
5150		103.515625
5151		97.656250
5152		103.515625
5153		97.656250
5154		101.562500
5155		95.703125
5156		99.609375
5157		93.750000
5158		97.656250
5159		91.796875
5160		95.703125
5161		89.843750
5162		93.750000
5163		87.890625
5164		91.796875
5165		85.937500
5166		89.843750
5167		83.984375
5168		89.843750
5169		82.031250
5170		85.937500
5171		80.078125
5172		83.984375
5173		76.171875
5174		82.031250
5175		74.218750
5176		80.078125
5177		72.265625
5178		78.125000
5179		70.312500
5180		76.171875
5181		68.359375
5182		72.265625
5183		66.406250
5184		70.312500
5185		62.500000
5186		68.359375
5187		60.546875
5188		64.453125
5189		54.687500
5190		62.500000
5191		52.734375
5192		60.546875
5193		50.781250
5194		56.640625
5195		48.828125
5196		52.734375
5197		44.921875
5198		50.781250
5199		42.968750
5200		48.828125
5201		39.062500
5202		44.921875
5203		37.109375
5204		41.015625
5205		33.203125
5206		39.062500
5207		29.296875
5208		37.109375
5209		27.343750
5210		33.203125
5211		23.437500
5212		29.296875
5213		19.531250
5214		25.390625
5215		17.578125
5216		21.484375
5217		13.671875
5218		19.531250
5219		9.765625
5220		15.625000
5221		5.859375
5222		11.718750
5223		1.953125
5224		9.765625
5225		-1.953125
5226		5.859375
5227		-3.906250
5228		1.953125
5229		-7.812500
5230		-1.953125
5231		-11.718750
5232		-5.859375
5233		-13.671875
5234		-9.765625
5235		-17.578125
5236		-11.718750
5237		-21.484375
5238		-15.625000
5239		-25.390625
5240		-19.531250
5241		-29.296875
5242		-21.484375
5243		-31.250000
5244		-25.390625
5245		-35.156250
5246		-29.296875
5247		-39.062500
5248		-33.203125
5249		-42.968750
5250		-37.109375
5251		-46.875000
5252		-41.015625
5253		-50.781250
5254		-44.921875
5255		-52.734375
5256		-46.875000
5257		-58.593750
5258		-50.781250
5259		-60.546875
5260		-54.687500
5261		-62.500000
5262		-58.593750
5263		-66.406250
5264		-60.546875
5265		-70.312500
5266		-64.453125
5267		-72.265625
5268		-68.359375
5269		-76.171875
5270		-70.312500
5271		-80.078125
5272		-74.218750
5273		-83.984375
5274		-78.125000
5275		-85.937500
5276		-80.078125
5277		-87.890625
5278		-82.031250
5279		-91.796875
5280		-85.937500
5281		-95.703125
5282		-87.890625
5283		-97.656250
5284		-91.796875
5285		-99.609375
5286		-95.703125
5287		-103.515625
5288		-97.656250
5289		-105.468750
5290		-99.609375
5291		-109.375000
5292		-103.515625
5293		-111.328125
5294		-105.468750
5295		-113.281250
5296		-109.375000
5297		-115.234375
5298		-111.328125
5299		-119.140625
5300		-113.281250
5301		-121.093750
5302		-115.234375
5303		-123.046875
5304		-117.187500
5305		-125.000000
5306		-121.093750
5307		-128.906250
5308		-121.093750
5309		-128.906250
5310		-123.046875
5311		-130.859375
5312		-126.953125
5313		-132.812500
5314		-128.906250
5315		-134.765625
5316		-128.906250
5317		-134.765625
5318		-130.859375
5319		-136.718750
5320		-132.812500
5321		-138.671875
5322		-134.765625
5323		-138.671875
5324		-134.765625
5325		-142.578125
5326		-134.765625
5327		-142.578125
5328		-136.718750
5329		-142.578125
5330		-138.671875
5331		-144.531250
5332		-140.625000
5333		-144.531250
5334		-140.625000
5335		-144.531250
5336		-142.578125
5337		-146.484375
5338		-142.578125
5339		-146.484375
5340		-142.578125
5341		-148.437500
5342		-140.625000
5343		-146.484375
5344		-142.578125
5345		-146.484375
5346		-142.578125
5347		-146.484375
5348		-142.578125
5349		-146.484375
5350		-142.578125
5351		-146.484375
5352		-142.578125
5353		-146.484375
5354		-142.578125
5355		-146.484375
5356		-142.578125
5357		-146.484375
5358		-140.625000
5359		-144.531250
5360		-140.625000
5361		-144.531250
5362		-140.625000
5363		-142.578125
5364		-140.625000
5365		-142.578125
5366		-138.671875
5367		-140.625000
5368		-138.671875
5369		-140.625000
5370		-136.718750
5371		-138.671875
5372		-134.765625
5373		-138.671875
5374		-134.765625
5375		-136.718750
5376		-132.812500
5377		-134.765625
5378		-130.859375
5379		-132.812500
5380		-128.906250
5381		-132.812500
5382		-126.953125
5383		-130.859375
5384		-125.000000
5385		-128.906250
5386		-123.046875
5387		-126.953125
5388		-121.093750
5389		-125.000000
5390		-119.140625
5391		-123.046875
5392		-117.187500
5393		-121.093750
5394		-115.234375
5395		-117.187500
5396		-113.281250
5397		-115.234375
5398		-111.328125
5399		-113.281250
5400		-107.421875
5401		-109.375000
5402		-105.468750
5403		-107.421875
5404		-103.515625
5405		-105.468750
5406		-99.609375
5407		-101.562500
5408		-95.703125
5409		-99.609375
5410		-93.750000
5411		-95.703125
5412		-91.796875
5413		-93.750000
5414		-87.890625
5415		-89.843750
5416		-85.937500
5417		-87.890625
5418		-82.031250
5419		-83.984375
5420		-78.125000
5421		-80.078125
5422		-76.171875
5423		-78.125000
5424		-72.265625
5425		-74.218750
5426		-68.359375
5427		-72.265625
5428		-66.406250
5429		-68.359375
5430		-62.500000
5431		-64.453125
5432		-58.593750
5433		-60.546875
5434		-54.687500
5435		-58.593750
5436		-52.734375
5437		-54.687500
5438		-48.828125
5439		-50.781250
5440		-44.921875
5441		-46.875000
5442		-41.015625
5443		-42.968750
5444		-37.109375
5445		-41.015625
5446		-33.203125
5447		-37.109375
5448		-31.250000
5449		-33.203125
5450		-27.343750
5451		-29.296875
5452		-23.437500
5453		-25.390625
5454		-19.531250
5455		-21.484375
5456		-17.578125
5457		-19.531250
5458		-11.718750
5459		-15.625000
5460		-9.765625
5461		-11.718750
5462		-5.859375
5463		-7.812500
5464		-1.953125
5465		-3.906250
5466		0.000000
5467		-1.953125
5468		3.906250
5469		1.953125
5470		7.812500
5471		5.859375
5472		11.718750
5473		9.765625
5474		13.671875
5475		11.718750
5476		17.578125
5477		15.625000
5478		21.484375
5479		19.531250
5480		23.437500
5481		21.484375
5482		27.343750
5483		25.390625
5484		31.250000
5485		27.343750
5486		33.203125
5487		31.250000
5488		37.109375
5489		35.156250
5490		41.015625
5491		37.109375
5492		42.968750
5493		41.015625
5494		46.875000
5495		42.968750
5496		48.828125
5497		46.875000
5498		52.734375
5499		48.828125
5500		54.687500
5501		52.734375
5502		58.593750
5503		54.687500
5504		60.546875
5505		58.593750
5506		62.500000
5507		60.546875
5508		66.406250
5509		62.500000
5510		68.359375
5511		66.406250
5512		70.312500
5513		68.359375
5514		74.218750
5515		70.312500
5516		76.171875
5517		74.218750
5518		78.125000
5519		76.171875
5520		80.078125
5521		78.125000
5522		82.031250
5523		80.078125
5524		83.984375
5525		82.031250
5526		85.937500
5527		83.984375
5528		87.890625
5529		85.937500
5530		89.843750
5531		87.890625
5532		91.796875
5533		89.843750
5534		93.750000
5535		91.796875
5536		95.703125
5537		93.750000
5538		97.656250
5539		95.703125
5540		99.609375
5541		95.703125
5542		101.562500
5543		97.656250
5544		101.562500
5545		99.609375
5546		103.515625
5547		101.562500
5548		105.468750
5549		101.562500
5550		105.468750
5551		103.515625
5552		107.421875
5553		105.468750
5554		107.421875
5555		105.468750
5556		109.375000
5557		107.421875
5558		111.328125
5559		107.421875
5560		111.328125
5561		109.375000
5562		111.328125
5563		109.375000
5564		113.281250
5565		109.375000
5566		113.281250
5567		111.328125
5568		115.234375
5569		111.328125
5570		115.234375
5571		111.328125
5572		115.234375
5573		113.281250
5574		115.234375
5575		113.281250
5576		115.234375
5577		113.281250
5578		115.234375
5579		113.281250
5580		117.187500
5581		113.281250
5582		117.187500
5583		113.281250
5584		117.187500
5585		113.281250
5586		115.234375
5587		113.281250
5588		117.187500
5589		113.281250
5590		115.234375
5591		113.281250
5592		115.234375
5593		111.328125
5594		115.234375
5595		111.328125
5596		115.234375
5597		111.328125
5598		115.234375
5599		111.328125
5600		113.281250
5601		109.375000
5602		113.281250
5603		109.375000
5604		113.281250
5605		109.375000
5606		111.328125
5607		107.421875
5608		111.328125
5609		107.421875
5610		109.375000
5611		105.468750
5612		109.375000
5613		103.515625
5614		107.421875
5615		103.515625
5616		107.421875
5617		101.562500
5618		105.468750
5619		99.609375
5620		103.515625
5621		99.609375
5622		103.515625
5623		97.656250
5624		101.562500
5625		95.703125
5626		99.609375
5627		93.750000
5628		97.656250
5629		91.796875
5630		97.656250
5631		89.843750
5632		95.703125
5633		89.843750
5634		93.750000
5635		87.890625
5636		91.796875
5637		85.937500
5638		89.843750
5639		83.984375
5640		87.890625
5641		82.031250
5642		85.937500
5643		78.125000
5644		83.984375
5645		76.171875
5646		82.031250
5647		74.218750
5648		78.125000
5649		72.265625
5650		76.171875
5651		68.359375
5652		74.218750
5653		66.406250
5654		72.265625
5655		64.453125
5656		68.359375
5657		60.546875
5658		66.406250
5659		58.593750
5660		62.500000
5661		54.687500
5662		60.546875
5663		52.734375
5664		58.593750
5665		50.781250
5666		54.687500
5667		46.875000
5668		52.734375
5669		42.968750
5670		48.828125
5671		41.015625
5672		46.875000
5673		37.109375
5674		42.968750
5675		35.156250
5676		39.062500
5677		31.250000
5678		37.109375
5679		27.343750
5680		33.203125
5681		25.390625
5682		31.250000
5683		21.484375
5684		27.343750
5685		17.578125
5686		23.437500
5687		15.625000
5688		19.531250
5689		11.718750
5690		17.578125
5691		7.812500
5692		13.671875
5693		5.859375
5694		9.765625
5695		1.953125
5696		7.812500
5697		-1.953125
5698		3.906250
5699		-5.859375
5700		0.000000
5701		-9.765625
5702		-3.906250
5703		-11.718750
5704		-7.812500
5705		-15.625000
5706		-9.765625
5707		-19.531250
5708		-13.671875
5709		-23.437500
5710		-17.578125
5711		-27.343750
5712		-21.484375
5713		-31.250000
5714		-25.390625
5715		-33.203125
5716		-27.343750
5717		-37.109375
5718		-31.250000
5719		-41.015625
5720		-35.156250
5721		-44.921875
5722		-39.062500
5723		-46.875000
5724		-42.968750
5725		-50.781250
5726		-46.875000
5727		-54.687500
5728		-48.828125
5729		-58.593750
5730		-52.734375
5731		-60.546875
5732		-56.640625
5733		-64.453125
5734		-58.593750
5735		-68.359375
5736		-62.500000
5737		-72.265625
5738		-66.406250
5739		-74.218750
5740		-70.312500
5741		-78.125000
5742		-72.265625
5743		-82.031250
5744		-76.171875
5745		-83.984375
5746		-78.125000
5747		-87.890625
5748		-82.031250
5749		-89.843750
5750		-85.937500
5751		-93.750000
5752		-87.890625
5753		-95.703125
5754		-91.796875
5755		-99.609375
5756		-93.750000
5757		-101.562500
5758		-97.656250
5759		-103.515625
5760		-99.609375
5761		-107.421875
5762		-101.562500
5763		-109.375000
5764		-105.468750
5765		-111.328125
5766		-107.421875
5767		-113.281250
5768		-109.375000
5769		-117.187500
5770		-111.328125
5771		-119.140625
5772		-115.234375
5773		-121.093750
5774		-117.187500
5775		-123.046875
5776		-119.140625
5777		-125.000000
5778		-121.093750
5779		-126.953125
5780		-123.046875
5781		-128.906250
5782		-125.000000
5783		-130.859375
5784		-126.953125
5785		-132.812500
5786		-128.906250
5787		-134.765625
5788		-130.859375
5789		-136.718750
5790		-130.859375
5791		-136.718750
5792		-132.812500
5793		-138.671875
5794		-134.765625
5795		-138.671875
5796		-136.718750
5797		-140.625000
5798		-136.718750
5799		-142.578125
5800		-138.671875
5801		-142.578125
5802		-138.671875
5803		-144.531250
5804		-140.625000
5805		-144.531250
5806		-140.625000
5807		-144.531250
5808		-140.625000
5809		-144.531250
5810		-142.578125
5811		-146.484375
5812		-142.578125
5813		-146.484375
5814		-142.578125
5815		-146.484375
5816		-142.578125
5817		-146.484375
5818		-142.578125
5819		-146.484375
5820		-142.578125
5821		-146.484375
5822		-142.578125
5823		-146.484375
5824		-142.578125
5825		-146.484375
5826		-142.578125
5827		-144.531250
5828		-140.625000
5829		-144.531250
5830		-142.578125
5831		-144.531250
5832		-140.625000
5833		-142.578125
5834		-140.625000
5835		-142.578125
5836		-138.671875
5837		-142.578125
5838		-138.671875
5839		-140.625000
5840		-136.718750
5841		-140.625000
5842		-136.718750
5843		-138.671875
5844		-134.765625
5845		-136.718750
5846		-132.812500
5847		-136.718750
5848		-132.812500
5849		-134.765625
5850		-130.859375
5851		-132.812500
5852		-128.906250
5853		-130.859375
5854		-126.953125
5855		-128.906250
5856		-125.000000
5857		-126.953125
5858		-123.046875
5859		-125.000000
5860		-121.093750
5861		-123.046875
5862		-119.140625
5863		-121.093750
5864		-117.187500
5865		-119.140625
5866		-113.281250
5867		-117.187500
5868		-111.328125
5869		-113.281250
5870		-109.375000
5871		-111.328125
5872		-107.421875
5873		-109.375000
5874		-103.515625
5875		-105.468750
5876		-101.562500
5877		-103.515625
5878		-97.656250
5879		-101.562500
5880		-95.703125
5881		-97.656250
5882		-93.750000
5883		-95.703125
5884		-89.843750
5885		-91.796875
5886		-85.937500
5887		-89.843750
5888		-83.984375
5889		-85.937500
5890		-80.078125
5891		-83.984375
5892		-78.125000
5893		-80.078125
5894		-74.218750
5895		-76.171875
5896		-70.312500
5897		-72.265625
5898		-68.359375
5899		-70.312500
5900		-64.453125
5901		-66.406250
5902		-60.546875
5903		-62.500000
5904		-58.593750
5905		-58.593750
5906		-54.687500
5907		-56.640625
5908		-50.781250
5909		-52.734375
5910		-46.875000
5911		-48.828125
5912		-42.968750
5913		-44.921875
5914		-39.062500
5915		-42.968750
5916		-37.109375
5917		-39.062500
5918		-33.203125
5919		-35.156250
5920		-29.296875
5921		-31.250000
5922		-25.390625
5923		-27.343750
5924		-21.484375
5925		-25.390625
5926		-19.531250
5927		-21.484375
5928		-15.625000
5929		-17.578125
5930		-11.718750
5931		-13.671875
5932		-7.812500
5933		-9.765625
5934		-3.906250
5935		-7.812500
5936		-1.953125
5937		-3.906250
5938		1.953125
5939		0.000000
5940		5.859375
5941		3.906250
5942		9.765625
5943		7.812500
5944		13.671875
5945		9.765625
5946		15.625000
5947		13.671875
5948		19.531250
5949		17.578125
5950		23.437500
5951		21.484375
5952		25.390625
5953		23.437500
5954		29.296875
5955		27.343750
5956		33.203125
5957		29.296875
5958		35.156250
5959		33.203125
5960		39.062500
5961		37.109375
5962		41.015625
5963		39.062500
5964		44.921875
5965		42.968750
5966		46.875000
5967		44.921875
5968		50.781250
5969		48.828125
5970		52.734375
5971		50.781250
5972		56.640625
5973		52.734375
5974		58.593750
5975		56.640625
5976		62.500000
5977		58.593750
5978		64.453125
5979		62.500000
5980		66.406250
5981		64.453125
5982		70.312500
5983		66.406250
5984		72.265625
5985		70.312500
5986		74.218750
5987		72.265625
5988		76.171875
5989		74.218750
5990		78.125000
5991		76.171875
5992		82.031250
5993		78.125000
5994		83.984375
5995		82.031250
5996		85.937500
5997		83.984375
5998		87.890625
5999		85.937500
6000		89.843750
6001		87.890625
6002		91.796875
6003		89.843750
6004		93.750000
6005		91.796875
6006		95.703125
6007		91.796875
6008		97.656250
6009		93.750000
6010		99.609375
6011		95.703125
6012		99.609375
6013		97.656250
6014		101.562500
6015		99.609375
6016		103.515625
6017		101.562500
6018		103.515625
6019		101.562500
6020		105.468750
6021		101.562500
6022		107.421875
6023		103.515625
6024		107.421875
6025		105.468750
6026		109.375000
6027		107.421875
6028		109.375000
6029		107.421875
6030		111.328125
6031		107.421875
6032		113.281250
6033		109.375000
6034		113.281250
6035		109.375000
6036		113.281250
6037		111.328125
6038		113.281250
6039		111.328125
6040		115.234375
6041		111.328125
6042		115.234375
6043		111.328125
6044		115.234375
6045		113.281250
6046		115.234375
6047		113.281250
6048		115.234375
6049		113.281250
6050		115.234375
6051		113.281250
6052		117.187500
6053		113.281250
6054		117.187500
6055		113.281250
6056		117.187500
6057		113.281250
6058		117.187500
6059		113.281250
6060		117.187500
6061		113.281250
6062		115.234375
6063		113.281250
6064		115.234375
6065		111.328125
6066		115.234375
6067		111.328125
6068		115.234375
6069		111.328125
6070		115.234375
6071		111.328125
6072		113.281250
6073		109.375000
6074		113.281250
6075		109.375000
6076		113.281250
6077		107.421875
6078		111.328125
6079		107.421875
6080		111.328125
6081		107.421875
6082		109.375000
6083		105.468750
6084		109.375000
6085		103.515625
6086		107.421875
6087		103.515625
6088		107.421875
6089		101.562500
6090		105.468750
6091		99.609375
6092		105.468750
6093		99.609375
6094		103.515625
6095		97.656250
6096		101.562500
6097		95.703125
6098		99.609375
6099		93.750000
6100		97.656250
6101		91.796875
6102		95.703125
6103		89.843750
6104		95.703125
6105		89.843750
6106		93.750000
6107		87.890625
6108		91.796875
6109		83.984375
6110		89.843750
6111		82.031250
6112		87.890625
6113		80.078125
6114		85.937500
6115		78.125000
6116		83.984375
6117		76.171875
6118		80.078125
6119		74.218750
6120		78.125000
6121		72.265625
6122		76.171875
6123		68.359375
6124		74.218750
6125		66.406250
6126		70.312500
6127		62.500000
6128		68.359375
6129		60.546875
6130		66.406250
6131		58.593750
6132		62.500000
6133		54.687500
6134		60.546875
6135		52.734375
6136		56.640625
6137		48.828125
6138		54.687500
6139		46.875000
6140		52.734375
6141		42.968750
6142		48.828125
6143		41.015625
6144		44.921875
6145		37.109375
6146		42.968750
6147		33.203125
6148		39.062500
6149		31.250000
6150		37.109375
6151		27.343750
6152		33.203125
6153		23.437500
6154		29.296875
6155		21.484375
6156		27.343750
6157		17.578125
6158		23.437500
6159		13.671875
6160		19.531250
6161		11.718750
6162		15.625000
6163		7.812500
6164		13.671875
6165		3.906250
6166		9.765625
6167		0.000000
6168		5.859375
6169		-3.906250
6170		1.953125
6171		-5.859375
6172		0.000000
6173		-9.765625
6174		-3.906250
6175		-13.671875
6176		-7.812500
6177		-17.578125
6178		-11.718750
6179		-19.531250
6180		-15.625000
6181		-23.437500
6182		-17.578125
6183		-27.343750
6184		-21.484375
6185		-31.250000
6186		-25.390625
6187		-35.156250
6188		-29.296875
6189		-39.062500
6190		-33.203125
6191		-41.015625
6192		-35.156250
6193		-44.921875
6194		-39.062500
6195		-48.828125
6196		-42.968750
6197		-52.734375
6198		-46.875000
6199		-54.687500
6200		-48.828125
6201		-58.593750
6202		-52.734375
6203		-62.500000
6204		-56.640625
6205		-66.406250
6206		-60.546875
6207		-68.359375
6208		-62.500000
6209		-72.265625
6210		-66.406250
6211		-76.171875
6212		-70.312500
6213		-78.125000
6214		-72.265625
6215		-82.031250
6216		-76.171875
6217		-83.984375
6218		-80.078125
6219		-89.843750
6220		-82.031250
6221		-91.796875
6222		-85.937500
6223		-95.703125
6224		-89.843750
6225		-95.703125
6226		-91.796875
6227		-101.562500
6228		-93.750000
6229		-101.562500
6230		-97.656250
6231		-105.468750
6232		-99.609375
6233		-107.421875
6234		-101.562500
6235		-111.328125
6236		-105.468750
6237		-113.281250
6238		-107.421875
6239		-115.234375
6240		-109.375000
6241		-117.187500
6242		-111.328125
6243		-123.046875
6244		-113.281250
6245		-121.093750
6246		-117.187500
6247		-125.000000
6248		-119.140625
6249		-126.953125
6250		-121.093750
6251		-128.906250
6252		-123.046875
6253		-130.859375
6254		-125.000000
6255		-132.812500
6256		-126.953125
6257		-132.812500
6258		-128.906250
6259		-134.765625
6260		-130.859375
6261		-136.718750
6262		-130.859375
6263		-138.671875
6264		-134.765625
6265		-138.671875
6266		-134.765625
6267		-142.578125
6268		-134.765625
6269		-142.578125
6270		-134.765625
6271		-142.578125
6272		-138.671875
6273		-144.531250
6274		-138.671875
6275		-144.531250
6276		-140.625000
6277		-144.531250
6278		-140.625000
6279		-144.531250
6280		-142.578125
6281		-144.531250
6282		-142.578125
6283		-146.484375
6284		-142.578125
6285		-148.437500
6286		-140.625000
6287		-148.437500
6288		-142.578125
6289		-146.484375
6290		-142.578125
6291		-148.437500
6292		-140.625000
6293		-146.484375
6294		-142.578125
6295		-148.437500
6296		-140.625000
6297		-144.531250
6298		-142.578125
6299		-146.484375
6300		-140.625000
6301		-146.484375
6302		-138.671875
6303		-146.484375
6304		-138.671875
6305		-142.578125
6306		-138.671875
6307		-142.578125
6308		-136.718750
6309		-144.531250
6310		-134.765625
6311		-142.578125
6312		-134.765625
6313		-138.671875
6314		-134.765625
6315		-138.671875
6316		-134.765625
6317		-138.671875
6318		-130.859375
6319		-136.718750
6320		-128.906250
6321		-134.765625
6322		-128.906250
6323		-132.812500
6324		-126.953125
6325		-132.812500
6326		-123.046875
6327		-128.906250
6328		-121.093750
6329		-126.953125
6330		-121.093750
6331		-125.000000
6332		-119.140625
6333		-123.046875
6334		-117.187500
6335		-121.093750
6336		-113.281250
6337		-117.187500
6338		-113.281250
6339		-115.234375
6340		-111.328125
6341		-113.281250
6342		-105.468750
6343		-113.281250
6344		-103.515625
6345		-109.375000
6346		-101.562500
6347		-105.468750
6348		-99.609375
6349		-101.562500
6350		-95.703125
6351		-101.562500
6352		-91.796875
6353		-99.609375
6354		-91.796875
6355		-93.750000
6356		-87.890625
6357		-89.843750
6358		-85.937500
6359		-89.843750
6360		-80.078125
6361		-83.984375
6362		-76.171875
6363		-82.031250
6364		-76.171875
6365		-78.125000
6366		-72.265625
6367		-74.218750
6368		-68.359375
6369		-72.265625
6370		-66.406250
6371		-70.312500
6372		-62.500000
6373		-64.453125
6374		-58.593750
6375		-62.500000
6376		-52.734375
6377		-58.593750
6378		-52.734375
6379		-56.640625
6380		-48.828125
6381		-50.781250
6382		-44.921875
6383		-48.828125
6384		-41.015625
6385		-44.921875
6386		-37.109375
6387		-41.015625
6388		-33.203125
6389		-37.109375
6390		-31.250000
6391		-33.203125
6392		-25.390625
6393		-33.203125
6394		-23.437500
6395		-27.343750
6396		-19.531250
6397		-23.437500
6398		-17.578125
6399		-19.531250
6400		-13.671875
6401		-15.625000
6402		-7.812500
6403		-15.625000
6404		-3.906250
6405		-7.812500
6406		-3.906250
6407		-5.859375
6408		1.953125
6409		-3.906250
6410		5.859375
6411		1.953125
6412		9.765625
6413		5.859375
6414		11.718750
6415		7.812500
6416		13.671875
6417		11.718750
6418		19.531250
6419		13.671875
6420		23.437500
6421		17.578125
6422		23.437500
6423		21.484375
6424		27.343750
6425		25.390625
6426		33.203125
6427		25.390625
6428		35.156250
6429		29.296875
6430		37.109375
6431		35.156250
6432		39.062500
6433		37.109375
6434		42.968750
6435		41.015625
6436		48.828125
6437		41.015625
6438		48.828125
6439		46.875000
6440		52.734375
6441		48.828125
6442		54.687500
6443		50.781250
6444		58.593750
6445		54.687500
6446		62.500000
6447		56.640625
6448		62.500000
6449		60.546875
6450		64.453125
6451		64.453125
6452		68.359375
6453		64.453125
6454		70.312500
6455		66.406250
6456		74.218750
6457		70.312500
6458		76.171875
6459		70.312500
6460		80.078125
6461		72.265625
6462		82.031250
6463		76.171875
6464		83.984375
6465		80.078125
6466		83.984375
6467		82.031250
6468		87.890625
6469		82.031250
6470		91.796875
6471		85.937500
6472		91.796875
6473		87.890625
6474		91.796875
6475		89.843750
6476		95.703125
6477		91.796875
6478		95.703125
6479		93.750000
6480		99.609375
6481		95.703125
6482		99.609375
6483		95.703125
6484		101.562500
6485		97.656250
6486		101.562500
6487		95.703125
6488		105.468750
6489		101.562500
6490		105.468750
6491		101.562500
6492		107.421875
6493		103.515625
6494		109.375000
6495		105.468750
6496		109.375000
6497		105.468750
6498		109.375000
6499		107.421875
6500		111.328125
6501		107.421875
6502		111.328125
6503		109.375000
6504		111.328125
6505		107.421875
6506		113.281250
6507		109.375000
6508		113.281250
6509		109.375000
6510		115.234375
6511		111.328125
6512		115.234375
6513		111.328125
6514		115.234375
6515		113.281250
6516		115.234375
6517		113.281250
6518		115.234375
6519		113.281250
6520		117.187500
6521		113.281250
6522		117.187500
6523		113.281250
6524		117.187500
6525		113.281250
6526		115.234375
6527		113.281250
6528		117.187500
6529		113.281250
6530		117.187500
6531		113.281250
6532		117.187500
6533		113.281250
6534		117.187500
6535		113.281250
6536		115.234375
6537		111.328125
6538		115.234375
6539		111.328125
6540		115.234375
6541		111.328125
6542		115.234375
6543		111.328125
6544		113.281250
6545		109.375000
6546		113.281250
6547		109.375000
6548		113.281250
6549		107.421875
6550		111.328125
6551		105.468750
6552		111.328125
6553		105.468750
6554		111.328125
6555		103.515625
6556		109.375000
6557		101.562500
6558		107.421875
6559		101.562500
6560		107.421875
6561		101.562500
6562		105.468750
6563		99.609375
6564		103.515625
6565		97.656250
6566		101.562500
6567		95.703125
6568		101.562500
6569		93.750000
6570		99.609375
6571		91.796875
6572		97.656250
6573		89.843750
6574		95.703125
6575		87.890625
6576		95.703125
6577		87.890625
6578		93.750000
6579		83.984375
6580		91.796875
6581		83.984375
6582		87.890625
6583		82.031250
6584		85.937500
6585		80.078125
6586		83.984375
6587		76.171875
6588		83.984375
6589		74.218750
6590		80.078125
6591		72.265625
6592		78.125000
6593		68.359375
6594		76.171875
6595		66.406250
6596		72.265625
6597		64.453125
6598		70.312500
6599		62.500000
6600		68.359375
6601		58.593750
6602		64.453125
6603		56.640625
6604		62.500000
6605		52.734375
6606		60.546875
6607		48.828125
6608		56.640625
6609		46.875000
6610		54.687500
6611		44.921875
6612		50.781250
6613		41.015625
6614		48.828125
6615		39.062500
6616		44.921875
6617		35.156250
6618		41.015625
6619		33.203125
6620		37.109375
6621		29.296875
6622		35.156250
6623		25.390625
6624		31.250000
6625		23.437500
6626		29.296875
6627		19.531250
6628		25.390625
6629		15.625000
6630		21.484375
6631		13.671875
6632		17.578125
6633		9.765625
6634		15.625000
6635		5.859375
6636		11.718750
6637		1.953125
6638		9.765625
6639		0.000000
6640		5.859375
6641		-5.859375
6642		1.953125
6643		-7.812500
6644		-1.953125
6645		-11.718750
6646		-5.859375
6647		-15.625000
6648		-9.765625
6649		-19.531250
6650		-11.718750
6651		-21.484375
6652		-15.625000
6653		-25.390625
6654		-19.531250
6655		-29.296875
6656		-23.437500
6657		-31.250000
6658		-25.390625
6659		-37.109375
6660		-29.296875
6661		-41.015625
6662		-33.203125
6663		-42.968750
6664		-37.109375
6665		-46.875000
6666		-41.015625
6667		-50.781250
6668		-42.968750
6669		-54.687500
6670		-46.875000
6671		-56.640625
6672		-50.781250
6673		-60.546875
6674		-54.687500
6675		-64.453125
6676		-58.593750
6677		-66.406250
6678		-60.546875
6679		-70.312500
6680		-64.453125
6681		-74.218750
6682		-68.359375
6683		-76.171875
6684		-70.312500
6685		-80.078125
6686		-74.218750
6687		-83.984375
6688		-78.125000
6689		-85.937500
6690		-80.078125
6691		-89.843750
6692		-83.984375
6693		-91.796875
6694		-85.937500
6695		-95.703125
6696		-89.843750
6697		-97.656250
6698		-93.750000
6699		-101.562500
6700		-95.703125
6701		-103.515625
6702		-97.656250
6703		-105.468750
6704		-101.562500
6705		-109.375000
6706		-103.515625
6707		-111.328125
6708		-105.468750
6709		-113.281250
6710		-107.421875
6711		-117.187500
6712		-111.328125
6713		-119.140625
6714		-113.281250
6715		-121.093750
6716		-115.234375
6717		-123.046875
6718		-119.140625
6719		-125.000000
6720		-121.093750
6721		-126.953125
6722		-121.093750
6723		-128.906250
6724		-125.000000
6725		-130.859375
6726		-126.953125
6727		-132.812500
6728		-128.906250
6729		-134.765625
6730		-128.906250
6731		-136.718750
6732		-130.859375
6733		-136.718750
6734		-132.812500
6735		-138.671875
6736		-134.765625
6737		-140.625000
6738		-136.718750
6739		-140.625000
6740		-136.718750
6741		-142.578125
6742		-138.671875
6743		-144.531250
6744		-138.671875
6745		-144.531250
6746		-140.625000
6747		-144.531250
6748		-140.625000
6749		-144.531250
6750		-140.625000
6751		-144.531250
6752		-142.578125
6753		-146.484375
6754		-142.578125
6755		-146.484375
6756		-142.578125
6757		-146.484375
6758		-142.578125
6759		-146.484375
6760		-142.578125
6761		-146.484375
6762		-142.578125
6763		-146.484375
6764		-142.578125
6765		-146.484375
6766		-142.578125
6767		-146.484375
6768		-142.578125
6769		-146.484375
6770		-142.578125
6771		-146.484375
6772		-142.578125
6773		-144.531250
6774		-140.625000
6775		-144.531250
6776		-140.625000
6777		-144.531250
6778		-140.625000
6779		-142.578125
6780		-138.671875
6781		-142.578125
6782		-136.718750
6783		-140.625000
6784		-136.718750
6785		-138.671875
6786		-134.765625
6787		-138.671875
6788		-132.812500
6789		-136.718750
6790		-132.812500
6791		-134.765625
6792		-130.859375
6793		-134.765625
6794		-128.906250
6795		-132.812500
6796		-126.953125
6797		-130.859375
6798		-125.000000
6799		-128.906250
6800		-123.046875
6801		-126.953125
6802		-121.093750
6803		-125.000000
6804		-119.140625
6805		-123.046875
6806		-117.187500
6807		-119.140625
6808		-115.234375
6809		-117.187500
6810		-113.281250
6811		-115.234375
6812		-109.375000
6813		-113.281250
6814		-107.421875
6815		-109.375000
6816		-105.468750
6817		-107.421875
6818		-103.515625
6819		-105.468750
6820		-99.609375
6821		-101.562500
6822		-97.656250
6823		-99.609375
6824		-93.750000
6825		-95.703125
6826		-91.796875
6827		-93.750000
6828		-87.890625
6829		-89.843750
6830		-83.984375
6831		-87.890625
6832		-82.031250
6833		-83.984375
6834		-78.125000
6835		-80.078125
6836		-76.171875
6837		-78.125000
6838		-72.265625
6839		-74.218750
6840		-68.359375
6841		-70.312500
6842		-64.453125
6843		-68.359375
6844		-62.500000
6845		-64.453125
6846		-58.593750
6847		-60.546875
6848		-54.687500
6849		-58.593750
6850		-52.734375
6851		-54.687500
6852		-48.828125
6853		-50.781250
6854		-44.921875
6855		-48.828125
6856		-41.015625
6857		-44.921875
6858		-37.109375
6859		-39.062500
6860		-33.203125
6861		-37.109375
6862		-31.250000
6863		-33.203125
6864		-27.343750
6865		-29.296875
6866		-23.437500
6867		-27.343750
6868		-19.531250
6869		-21.484375
6870		-15.625000
6871		-17.578125
6872		-13.671875
6873		-15.625000
6874		-9.765625
6875		-11.718750
6876		-5.859375
6877		-9.765625
6878		-1.953125
6879		-5.859375
6880		1.953125
6881		-1.953125
6882		3.906250
6883		1.953125
6884		7.812500
6885		5.859375
6886		11.718750
6887		9.765625
6888		15.625000
6889		11.718750
6890		17.578125
6891		15.625000
6892		21.484375
6893		19.531250
6894		25.390625
6895		21.484375
6896		27.343750
6897		25.390625
6898		31.250000
6899		29.296875
6900		35.156250
6901		31.250000
6902		37.109375
6903		35.156250
6904		41.015625
6905		37.109375
6906		42.968750
6907		41.015625
6908		46.875000
6909		42.968750
6910		50.781250
6911		46.875000
6912		52.734375
6913		48.828125
6914		54.687500
6915		52.734375
6916		58.593750
6917		54.687500
6918		60.546875
6919		58.593750
6920		62.500000
6921		60.546875
6922		66.406250
6923		64.453125
6924		68.359375
6925		66.406250
6926		70.312500
6927		68.359375
6928		72.265625
6929		70.312500
6930		76.171875
6931		74.218750
6932		78.125000
6933		76.171875
6934		80.078125
6935		78.125000
6936		82.031250
6937		80.078125
6938		83.984375
6939		82.031250
6940		85.937500
6941		83.984375
6942		89.843750
6943		85.937500
6944		91.796875
6945		87.890625
6946		91.796875
6947		89.843750
6948		93.750000
6949		91.796875
6950		95.703125
6951		93.750000
6952		97.656250
6953		95.703125
6954		99.609375
6955		97.656250
6956		101.562500
6957		97.656250
6958		103.515625
6959		99.609375
6960		103.515625
6961		101.562500
6962		105.468750
6963		103.515625
6964		105.468750
6965		103.515625
6966		107.421875
6967		105.468750
6968		109.375000
6969		105.468750
6970		109.375000
6971		107.421875
6972		111.328125
6973		107.421875
6974		111.328125
6975		109.375000
6976		113.281250
6977		109.375000
6978		113.281250
6979		109.375000
6980		113.281250
6981		111.328125
6982		115.234375
6983		111.328125
6984		115.234375
6985		111.328125
6986		115.234375
6987		113.281250
6988		115.234375
6989		113.281250
6990		115.234375
6991		113.281250
6992		115.234375
6993		113.281250
6994		117.187500
6995		113.281250
6996		117.187500
6997		113.281250
6998		117.187500
6999		113.281250
7000		117.187500
7001		113.281250
7002		117.187500
7003		113.281250
7004		115.234375
7005		113.281250
7006		115.234375
7007		111.328125
7008		115.234375
7009		111.328125
7010		115.234375
7011		111.328125
7012		115.234375
7013		111.328125
7014		113.281250
7015		109.375000
7016		113.281250
7017		109.375000
7018		113.281250
7019		107.421875
7020		111.328125
7021		107.421875
7022		111.328125
7023		107.421875
7024		109.375000
7025		105.468750
7026		109.375000
7027		103.515625
7028		107.421875
7029		103.515625
7030		107.421875
7031		101.562500
7032		105.468750
7033		99.609375
7034		103.515625
7035		99.609375
7036		103.515625
7037		97.656250
7038		101.562500
7039		93.750000
7040		99.609375
7041		93.750000
7042		99.609375
7043		91.796875
7044		95.703125
7045		89.843750
7046		95.703125
7047		87.890625
7048		93.750000
7049		87.890625
7050		91.796875
7051		85.937500
7052		89.843750
7053		83.984375
7054		85.937500
7055		80.078125
7056		85.937500
7057		78.125000
7058		83.984375
7059		76.171875
7060		80.078125
7061		72.265625
7062		78.125000
7063		72.265625
7064		76.171875
7065		68.359375
7066		74.218750
7067		64.453125
7068		70.312500
7069		62.500000
7070		68.359375
7071		60.546875
7072		66.406250
7073		58.593750
7074		62.500000
7075		54.687500
7076		60.546875
7077		52.734375
7078		58.593750
7079		48.828125
7080		54.687500
7081		46.875000
7082		52.734375
7083		42.968750
7084		48.828125
7085		39.062500
7086		46.875000
7087		37.109375
7088		42.968750
7089		33.203125
7090		39.062500
7091		31.250000
7092		37.109375
7093		27.343750
7094		33.203125
7095		25.390625
7096		29.296875
7097		21.484375
7098		27.343750
7099		17.578125
7100		23.437500
7101		13.671875
7102		19.531250
7103		11.718750
7104		15.625000
7105		7.812500
7106		13.671875
7107		3.906250
7108		9.765625
7109		0.000000
7110		5.859375
7111		-1.953125
7112		3.906250
7113		-5.859375
7114		0.000000
7115		-9.765625
7116		-3.906250
7117		-13.671875
7118		-7.812500
7119		-17.578125
7120		-11.718750
7121		-21.484375
7122		-15.625000
7123		-23.437500
7124		-17.578125
7125		-27.343750
7126		-21.484375
7127		-31.250000
7128		-25.390625
7129		-35.156250
7130		-27.343750
7131		-37.109375
7132		-31.250000
7133		-41.015625
7134		-35.156250
7135		-44.921875
7136		-39.062500
7137		-48.828125
7138		-42.968750
7139		-52.734375
7140		-46.875000
7141		-54.687500
7142		-48.828125
7143		-58.593750
7144		-52.734375
7145		-62.500000
7146		-56.640625
7147		-64.453125
7148		-60.546875
7149		-68.359375
7150		-62.500000
7151		-72.265625
7152		-66.406250
7153		-76.171875
7154		-70.312500
7155		-78.125000
7156		-74.218750
7157		-82.031250
7158		-76.171875
7159		-85.937500
7160		-78.125000
7161		-87.890625
7162		-82.031250
7163		-91.796875
7164		-85.937500
7165		-93.750000
7166		-89.843750
7167		-97.656250
7168		-91.796875
7169		-99.609375
7170		-93.750000
7171		-103.515625
7172		-97.656250
7173		-105.468750
7174		-99.609375
7175		-107.421875
7176		-103.515625
7177		-111.328125
7178		-105.468750
7179		-113.281250
7180		-107.421875
7181		-115.234375
7182		-111.328125
7183		-117.187500
7184		-113.281250
7185		-119.140625
7186		-115.234375
7187		-123.046875
7188		-117.187500
7189		-125.000000
7190		-119.140625
7191		-125.000000
7192		-121.093750
7193		-128.906250
7194		-125.000000
7195		-130.859375
7196		-125.000000
7197		-132.812500
7198		-126.953125
7199		-132.812500
7200		-128.906250
7201		-134.765625
7202		-130.859375
7203		-136.718750
7204		-132.812500
7205		-138.671875
7206		-134.765625
7207		-140.625000
7208		-134.765625
7209		-140.625000
7210		-136.718750
7211		-142.578125
7212		-138.671875
7213		-142.578125
7214		-138.671875
7215		-144.531250
7216		-140.625000
7217		-144.531250
7218		-140.625000
7219		-146.484375
7220		-140.625000
7221		-146.484375
7222		-142.578125
7223		-146.484375
7224		-142.578125
7225		-148.437500
7226		-142.578125
7227		-146.484375
7228		-142.578125
7229		-148.437500
7230		-144.531250
7231		-148.437500
7232		-144.531250
7233		-146.484375
7234		-144.531250
7235		-148.437500
7236		-144.531250
7237		-146.484375
7238		-142.578125
7239		-146.484375
7240		-142.578125
7241		-146.484375
7242		-142.578125
7243		-146.484375
7244		-142.578125
7245		-144.531250
7246		-142.578125
7247		-144.531250
7248		-140.625000
7249		-144.531250
7250		-140.625000
7251		-142.578125
7252		-138.671875
7253		-140.625000
7254		-136.718750
7255		-140.625000
7256		-136.718750
7257		-138.671875
7258		-134.765625
7259		-138.671875
7260		-134.765625
7261		-136.718750
7262		-132.812500
7263		-134.765625
7264		-130.859375
7265		-132.812500
7266		-128.906250
7267		-130.859375
7268		-126.953125
7269		-130.859375
7270		-125.000000
7271		-128.906250
7272		-123.046875
7273		-125.000000
7274		-121.093750
7275		-125.000000
7276		-119.140625
7277		-121.093750
7278		-117.187500
7279		-119.140625
7280		-115.234375
7281		-117.187500
7282		-111.328125
7283		-115.234375
7284		-109.375000
7285		-111.328125
7286		-107.421875
7287		-111.328125
7288		-103.515625
7289		-107.421875
7290		-101.562500
7291		-103.515625
7292		-97.656250
7293		-101.562500
7294		-95.703125
7295		-97.656250
7296		-93.750000
7297		-95.703125
7298		-89.843750
7299		-93.750000
7300		-85.937500
7301		-89.843750
7302		-83.984375
7303		-85.937500
7304		-80.078125
7305		-82.031250
7306		-78.125000
7307		-80.078125
7308		-74.218750
7309		-76.171875
7310		-70.312500
7311		-74.218750
7312		-68.359375
7313		-70.312500
7314		-64.453125
7315		-66.406250
7316		-60.546875
7317		-62.500000
7318		-56.640625
7319		-60.546875
7320		-52.734375
7321		-56.640625
7322		-50.781250
7323		-52.734375
7324		-46.875000
7325		-48.828125
7326		-42.968750
7327		-44.921875
7328		-39.062500
7329		-42.968750
7330		-37.109375
7331		-39.062500
7332		-33.203125
7333		-35.156250
7334		-29.296875
7335		-31.250000
7336		-25.390625
7337		-27.343750
7338		-21.484375
7339		-23.437500
7340		-19.531250
7341		-21.484375
7342		-15.625000
7343		-17.578125
7344		-11.718750
7345		-13.671875
7346		-7.812500
7347		-9.765625
7348		-3.906250
7349		-7.812500
7350		0.000000
7351		-3.906250
7352		1.953125
7353		0.000000
7354		5.859375
7355		3.906250
7356		9.765625
7357		5.859375
7358		13.671875
7359		9.765625
7360		15.625000
7361		13.671875
7362		19.531250
7363		15.625000
7364		23.437500
7365		19.531250
7366		27.343750
7367		23.437500
7368		29.296875
7369		27.343750
7370		31.250000
7371		29.296875
7372		35.156250
7373		33.203125
7374		39.062500
7375		37.109375
7376		41.015625
7377		39.062500
7378		44.921875
7379		41.015625
7380		46.875000
7381		44.921875
7382		50.781250
7383		48.828125
7384		52.734375
7385		50.781250
7386		56.640625
7387		52.734375
7388		58.593750
7389		56.640625
7390		62.500000
7391		60.546875
7392		64.453125
7393		62.500000
7394		66.406250
7395		64.453125
7396		70.312500
7397		66.406250
7398		72.265625
7399		70.312500
7400		74.218750
7401		72.265625
7402		76.171875
7403		74.218750
7404		78.125000
7405		76.171875
7406		82.031250
7407		78.125000
7408		83.984375
7409		80.078125
7410		85.937500
7411		82.031250
7412		87.890625
7413		83.984375
7414		89.843750
7415		85.937500
7416		91.796875
7417		89.843750
7418		93.750000
7419		89.843750
7420		95.703125
7421		91.796875
7422		95.703125
7423		93.750000
7424		97.656250
7425		95.703125
7426		99.609375
7427		97.656250
7428		101.562500
7429		97.656250
7430		101.562500
7431		99.609375
7432		103.515625
7433		101.562500
7434		105.468750
7435		101.562500
7436		105.468750
7437		103.515625
7438		107.421875
7439		105.468750
7440		109.375000
7441		105.468750
7442		109.375000
7443		107.421875
7444		109.375000
7445		107.421875
7446		111.328125
7447		107.421875
7448		111.328125
7449		109.375000
7450		113.281250
7451		109.375000
7452		113.281250
7453		109.375000
7454		113.281250
7455		109.375000
7456		115.234375
7457		111.328125
7458		115.234375
7459		111.328125
7460		115.234375
7461		111.328125
7462		115.234375
7463		111.328125
7464		115.234375
7465		111.328125
7466		115.234375
7467		111.328125
7468		115.234375
7469		111.328125
7470		115.234375
7471		111.328125
7472		115.234375
7473		111.328125
7474		115.234375
7475		111.328125
7476		113.281250
7477		109.375000
7478		115.234375
7479		109.375000
7480		113.281250
7481		109.375000
7482		113.281250
7483		109.375000
7484		113.281250
7485		107.421875
7486		111.328125
7487		107.421875
7488		111.328125
7489		107.421875
7490		111.328125
7491		105.468750
7492		109.375000
7493		105.468750
7494		109.375000
7495		103.515625
7496		109.375000
7497		103.515625
7498		107.421875
7499		101.562500
7500		105.468750
7501		101.562500
7502		103.515625
7503		99.609375
7504		103.515625
7505		97.656250
7506		101.562500
7507		95.703125
7508		99.609375
7509		93.750000
7510		99.609375
7511		91.796875
7512		97.656250
7513		91.796875
7514		95.703125
7515		89.843750
7516		93.750000
7517		87.890625
7518		91.796875
7519		85.937500
7520		89.843750
7521		83.984375
7522		87.890625
7523		82.031250
7524		85.937500
7525		80.078125
7526		83.984375
7527		76.171875
7528		82.031250
7529		74.218750
7530		80.078125
7531		72.265625
7532		78.125000
7533		70.312500
7534		76.171875
7535		68.359375
7536		72.265625
7537		66.406250
7538		70.312500
7539		62.500000
7540		68.359375
7541		60.546875
7542		64.453125
7543		56.640625
7544		62.500000
7545		54.687500
7546		60.546875
7547		50.781250
7548		56.640625
7549		48.828125
7550		54.687500
7551		46.875000
7552		50.781250
7553		42.968750
7554		48.828125
7555		39.062500
7556		44.921875
7557		37.109375
7558		42.968750
7559		33.203125
7560		39.062500
7561		31.250000
7562		37.109375
7563		27.343750
7564		33.203125
7565		23.437500
7566		29.296875
7567		21.484375
7568		27.343750
7569		17.578125
7570		23.437500
7571		13.671875
7572		19.531250
7573		9.765625
7574		17.578125
7575		7.812500
7576		13.671875
7577		3.906250
7578		9.765625
7579		0.000000
7580		5.859375
7581		-3.906250
7582		1.953125
7583		-7.812500
7584		0.000000
7585		-9.765625
7586		-3.906250
7587		-13.671875
7588		-7.812500
7589		-17.578125
7590		-11.718750
7591		-21.484375
7592		-15.625000
7593		-25.390625
7594		-19.531250
7595		-27.343750
7596		-21.484375
7597		-31.250000
7598		-25.390625
7599		-35.156250
7600		-29.296875
7601		-39.062500
7602		-33.203125
7603		-41.015625
7604		-37.109375
7605		-44.921875
7606		-39.062500
7607		-48.828125
7608		-42.968750
7609		-52.734375
7610		-46.875000
7611		-56.640625
7612		-50.781250
7613		-58.593750
7614		-54.687500
7615		-62.500000
7616		-56.640625
7617		-66.406250
7618		-60.546875
7619		-70.312500
7620		-64.453125
7621		-72.265625
7622		-68.359375
7623		-76.171875
7624		-70.312500
7625		-78.125000
7626		-74.218750
7627		-82.031250
7628		-76.171875
7629		-85.937500
7630		-80.078125
7631		-87.890625
7632		-82.031250
7633		-91.796875
7634		-85.937500
7635		-93.750000
7636		-87.890625
7637		-97.656250
7638		-91.796875
7639		-99.609375
7640		-93.750000
7641		-103.515625
7642		-97.656250
7643		-105.468750
7644		-99.609375
7645		-109.375000
7646		-103.515625
7647		-111.328125
7648		-105.468750
7649		-113.281250
7650		-109.375000
7651		-115.234375
7652		-111.328125
7653		-119.140625
7654		-113.281250
7655		-121.093750
7656		-115.234375
7657		-123.046875
7658		-117.187500
7659		-125.000000
7660		-121.093750
7661		-128.906250
7662		-123.046875
7663		-128.906250
7664		-125.000000
7665		-130.859375
7666		-126.953125
7667		-132.812500
7668		-128.906250
7669		-134.765625
7670		-130.859375
7671		-136.718750
7672		-130.859375
7673		-138.671875
7674		-134.765625
7675		-138.671875
7676		-134.765625
7677		-142.578125
7678		-136.718750
7679		-142.578125
7680		-138.671875
7681		-142.578125
7682		-138.671875
7683		-144.531250
7684		-140.625000
7685		-144.531250
7686		-140.625000
7687		-146.484375
7688		-142.578125
7689		-146.484375
7690		-142.578125
7691		-146.484375
7692		-144.531250
7693		-148.437500
7694		-144.531250
7695		-148.437500
7696		-144.531250
7697		-148.437500
7698		-144.531250
7699		-148.437500
7700		-144.531250
7701		-148.437500
7702		-146.484375
7703		-150.390625
7704		-144.531250
7705		-150.390625
7706		-144.531250
7707		-148.437500
7708		-144.531250
7709		-148.437500
7710		-144.531250
7711		-148.437500
7712		-144.531250
7713		-148.437500
7714		-144.531250
7715		-146.484375
7716		-142.578125
7717		-146.484375
7718		-142.578125
7719		-146.484375
7720		-142.578125
7721		-144.531250
7722		-140.625000
7723		-144.531250
7724		-140.625000
7725		-142.578125
7726		-138.671875
7727		-140.625000
7728		-136.718750
7729		-140.625000
7730		-136.718750
7731		-138.671875
7732		-134.765625
7733		-136.718750
7734		-132.812500
7735		-136.718750
7736		-130.859375
7737		-132.812500
7738		-128.906250
7739		-132.812500
7740		-126.953125
7741		-130.859375
7742		-125.000000
7743		-128.906250
7744		-123.046875
7745		-126.953125
7746		-121.093750
7747		-123.046875
7748		-119.140625
7749		-121.093750
7750		-117.187500
7751		-119.140625
7752		-113.281250
7753		-117.187500
7754		-111.328125
7755		-115.234375
7756		-109.375000
7757		-111.328125
7758		-107.421875
7759		-109.375000
7760		-103.515625
7761		-105.468750
7762		-99.609375
7763		-103.515625
7764		-97.656250
7765		-101.562500
7766		-95.703125
7767		-97.656250
7768		-93.750000
7769		-95.703125
7770		-89.843750
7771		-91.796875
7772		-85.937500
7773		-87.890625
7774		-82.031250
7775		-85.937500
7776		-80.078125
7777		-82.031250
7778		-78.125000
7779		-78.125000
7780		-74.218750
7781		-76.171875
7782		-70.312500
7783		-74.218750
7784		-66.406250
7785		-68.359375
7786		-62.500000
7787		-66.406250
7788		-58.593750
7789		-62.500000
7790		-56.640625
7791		-58.593750
7792		-52.734375
7793		-54.687500
7794		-50.781250
7795		-52.734375
7796		-46.875000
7797		-48.828125
7798		-42.968750
7799		-44.921875
7800		-39.062500
7801		-41.015625
7802		-35.156250
7803		-37.109375
7804		-31.250000
7805		-35.156250
7806		-27.343750
7807		-31.250000
7808		-25.390625
7809		-27.343750
7810		-21.484375
7811		-23.437500
7812		-17.578125
7813		-19.531250
7814		-13.671875
7815		-17.578125
7816		-11.718750
7817		-13.671875
7818		-7.812500
7819		-9.765625
7820		-3.906250
7821		-5.859375
7822		0.000000
7823		-1.953125
7824		3.906250
7825		1.953125
7826		5.859375
7827		3.906250
7828		9.765625
7829		7.812500
7830		13.671875
7831		11.718750
7832		17.578125
7833		13.671875
7834		19.531250
7835		17.578125
7836		23.437500
7837		21.484375
7838		27.343750
7839		23.437500
7840		31.250000
7841		27.343750
7842		33.203125
7843		31.250000
7844		37.109375
7845		35.156250
7846		39.062500
7847		37.109375
7848		42.968750
7849		39.062500
7850		44.921875
7851		42.968750
7852		48.828125
7853		46.875000
7854		52.734375
7855		48.828125
7856		54.687500
7857		50.781250
7858		56.640625
7859		54.687500
7860		60.546875
7861		56.640625
7862		62.500000
7863		60.546875
7864		64.453125
7865		62.500000
7866		68.359375
7867		66.406250
7868		70.312500
7869		66.406250
7870		72.265625
7871		70.312500
7872		78.125000
7873		72.265625
7874		78.125000
7875		74.218750
7876		80.078125
7877		78.125000
7878		82.031250
7879		80.078125
7880		83.984375
7881		80.078125
7882		85.937500
7883		83.984375
7884		87.890625
7885		85.937500
7886		89.843750
7887		87.890625
7888		91.796875
7889		89.843750
7890		95.703125
7891		89.843750
7892		95.703125
7893		93.750000
7894		97.656250
7895		95.703125
7896		99.609375
7897		95.703125
7898		99.609375
7899		97.656250
7900		101.562500
7901		99.609375
7902		103.515625
7903		101.562500
7904		105.468750
7905		99.609375
7906		107.421875
7907		101.562500
7908		109.375000
7909		103.515625
7910		107.421875
7911		105.468750
7912		109.375000
7913		105.468750
7914		109.375000
7915		107.421875
7916		111.328125
7917		107.421875
7918		111.328125
7919		109.375000
7920		111.328125
7921		107.421875
7922		115.234375
7923		107.421875
7924		115.234375
7925		109.375000
7926		115.234375
7927		111.328125
7928		115.234375
7929		111.328125
7930		115.234375
7931		111.328125
7932		115.234375
7933		111.328125
7934		115.234375
7935		109.375000
7936		117.187500
7937		111.328125
7938		117.187500
7939		111.328125
7940		117.187500
7941		111.328125
7942		117.187500
7943		111.328125
7944		115.234375
7945		111.328125
7946		115.234375
7947		111.328125
7948		115.234375
7949		111.328125
7950		115.234375
7951		111.328125
7952		115.234375
7953		109.375000
7954		115.234375
7955		109.375000
7956		115.234375
7957		107.421875
7958		115.234375
7959		107.421875
7960		113.281250
7961		107.421875
7962		111.328125
7963		105.468750
7964		109.375000
7965		105.468750
7966		109.375000
7967		103.515625
7968		109.375000
7969		101.562500
7970		109.375000
7971		101.562500
7972		107.421875
7973		99.609375
7974		107.421875
7975		97.656250
7976		105.468750
7977		97.656250
7978		103.515625
7979		97.656250
7980		101.562500
7981		95.703125
7982		99.609375
7983		93.750000
7984		97.656250
7985		89.843750
7986		97.656250
7987		87.890625
7988		95.703125
7989		85.937500
7990		93.750000
7991		83.984375
7992		91.796875
7993		83.984375
7994		89.843750
7995		82.031250
7996		85.937500
7997		80.078125
7998		83.984375
7999		78.125000
8000		82.031250
8001		74.218750
8002		80.078125
8003		72.265625
8004		80.078125
8005		70.312500
8006		76.171875
8007		66.406250
8008		74.218750
8009		66.406250
8010		72.265625
8011		62.500000
8012		68.359375
8013		60.546875
8014		66.406250
8015		58.593750
8016		64.453125
8017		54.687500
8018		60.546875
8019		50.781250
8020		58.593750
8021		46.875000
8022		54.687500
8023		44.921875
8024		52.734375
8025		42.968750
8026		50.781250
8027		41.015625
8028		44.921875
8029		37.109375
8030		42.968750
8031		31.250000
8032		39.062500
8033		29.296875
8034		37.109375
8035		25.390625
8036		35.156250
8037		23.437500
8038		31.250000
8039		21.484375
8040		27.343750
8041		15.625000
8042		25.390625
8043		13.671875
8044		21.484375
8045		11.718750
8046		15.625000
8047		7.812500
8048		13.671875
8049		3.906250
8050		11.718750
8051		0.000000
8052		7.812500
8053		-5.859375
8054		3.906250
8055		-7.812500
8056		0.000000
8057		-11.718750
8058		-1.953125
8059		-13.671875
8060		-5.859375
8061		-17.578125
8062		-11.718750
8063		-19.531250
8064		-13.671875
8065		-23.437500
8066		-17.578125
8067		-29.296875
8068		-21.484375
8069		-31.250000
8070		-23.437500
8071		-37.109375
8072		-27.343750
8073		-39.062500
8074		-31.250000
8075		-42.968750
8076		-35.156250
8077		-44.921875
8078		-39.062500
8079		-48.828125
8080		-42.968750
8081		-54.687500
8082		-46.875000
8083		-56.640625
8084		-48.828125
8085		-60.546875
8086		-52.734375
8087		-64.453125
8088		-56.640625
8089		-66.406250
8090		-56.640625
8091		-70.312500
8092		-62.500000
8093		-72.265625
8094		-64.453125
8095		-76.171875
8096		-70.312500
8097		-78.125000
8098		-72.265625
8099		-83.984375
8100		-74.218750
8101		-85.937500
8102		-78.125000
8103		-87.890625
8104		-80.078125
8105		-91.796875
8106		-83.984375
8107		-95.703125
8108		-87.890625
8109		-97.656250
8110		-89.843750
8111		-99.609375
8112		-93.750000
8113		-101.562500
8114		-97.656250
8115		-107.421875
8116		-99.609375
8117		-109.375000
8118		-101.562500
8119		-111.328125
8120		-103.515625
8121		-115.234375
8122		-107.421875
8123		-115.234375
8124		-109.375000
8125		-119.140625
8126		-111.328125
8127		-121.093750
8128		-113.281250
8129		-121.093750
8130		-117.187500
8131		-125.000000
8132		-119.140625
8133		-126.953125
8134		-119.140625
8135		-130.859375
8136		-123.046875
8137		-132.812500
8138		-125.000000
8139		-132.812500
8140		-125.000000
8141		-134.765625
8142		-126.953125
8143		-136.718750
8144		-130.859375
8145		-136.718750
8146		-132.812500
8147		-138.671875
8148		-134.765625
8149		-140.625000
8150		-134.765625
8151		-142.578125
8152		-136.718750
8153		-144.531250
8154		-136.718750
8155		-144.531250
8156		-136.718750
8157		-144.531250
8158		-138.671875
8159		-146.484375
8160		-138.671875
8161		-144.531250
8162		-140.625000
8163		-146.484375
8164		-142.578125
8165		-148.437500
8166		-142.578125
8167		-148.437500
8168		-140.625000
8169		-148.437500
8170		-140.625000
8171		-148.437500
8172		-142.578125
8173		-148.437500
8174		-142.578125
8175		-148.437500
8176		-142.578125
8177		-148.437500
8178		-142.578125
8179		-146.484375
8180		-144.531250
8181		-146.484375
8182		-142.578125
8183		-148.437500
8184		-140.625000
8185		-146.484375
8186		-140.625000
8187		-146.484375
8188		-140.625000
8189		-146.484375
8190		-138.671875
8191		-144.531250
8192		-138.671875
8193		-144.531250
8194		-136.718750
8195		-142.578125
8196		-138.671875
8197		-140.625000
8198		-136.718750
8199		-140.625000
8200		-132.812500
8201		-138.671875
8202		-130.859375
8203		-138.671875
8204		-130.859375
8205		-136.718750
8206		-128.906250
8207		-134.765625
8208		-126.953125
8209		-132.812500
8210		-125.000000
8211		-132.812500
8212		-125.000000
8213		-126.953125
8214		-123.046875
8215		-125.000000
8216		-121.093750
8217		-125.000000
8218		-117.187500
8219		-123.046875
8220		-115.234375
8221		-121.093750
8222		-113.281250
8223		-117.187500
8224		-111.328125
8225		-115.234375
8226		-107.421875
8227		-113.281250
8228		-105.468750
8229		-109.375000
8230		-103.515625
8231		-107.421875
8232		-101.562500
8233		-103.515625
8234		-97.656250
8235		-101.562500
8236		-95.703125
8237		-99.609375
8238		-91.796875
8239		-97.656250
8240		-89.843750
8241		-91.796875
8242		-85.937500
8243		-89.843750
8244		-82.031250
8245		-87.890625
8246		-80.078125
8247		-83.984375
8248		-78.125000
8249		-80.078125
8250		-72.265625
8251		-78.125000
8252		-68.359375
8253		-76.171875
8254		-66.406250
8255		-72.265625
8256		-64.453125
8257		-68.359375
8258		-58.593750
8259		-64.453125
8260		-56.640625
8261		-60.546875
8262		-54.687500
8263		-56.640625
8264		-50.781250
8265		-52.734375
8266		-46.875000
8267		-50.781250
8268		-41.015625
8269		-48.828125
8270		-39.062500
8271		-44.921875
8272		-35.156250
8273		-41.015625
8274		-31.250000
8275		-37.109375
8276		-29.296875
8277		-33.203125
8278		-25.390625
8279		-29.296875
8280		-21.484375
8281		-25.390625
8282		-19.531250
8283		-21.484375
8284		-13.671875
8285		-19.531250
8286		-9.765625
8287		-15.625000
8288		-7.812500
8289		-11.718750
8290		-3.906250
8291		-7.812500
8292		0.000000
8293		-5.859375
8294		3.906250
8295		-1.953125
8296		5.859375
8297		3.906250
8298		9.765625
8299		7.812500
8300		13.671875
8301		7.812500
8302		17.578125
8303		11.718750
8304		19.531250
8305		15.625000
8306		25.390625
8307		19.531250
8308		27.343750
8309		23.437500
8310		31.250000
8311		25.390625
8312		33.203125
8313		31.250000
8314		35.156250
8315		33.203125
8316		39.062500
8317		35.156250
8318		42.968750
8319		37.109375
8320		46.875000
8321		41.015625
8322		48.828125
8323		42.968750
8324		50.781250
8325		46.875000
8326		56.640625
8327		48.828125
8328		58.593750
8329		52.734375
8330		58.593750
8331		56.640625
8332		62.500000
8333		60.546875
8334		66.406250
8335		60.546875
8336		68.359375
8337		62.500000
8338		70.312500
8339		64.453125
8340		72.265625
8341		68.359375
8342		76.171875
8343		72.265625
8344		78.125000
8345		72.265625
8346		80.078125
8347		76.171875
8348		82.031250
8349		80.078125
8350		83.984375
8351		80.078125
8352		85.937500
8353		80.078125
8354		87.890625
8355		83.984375
8356		91.796875
8357		85.937500
8358		93.750000
8359		85.937500
8360		93.750000
8361		89.843750
8362		97.656250
8363		91.796875
8364		97.656250
8365		93.750000
8366		99.609375
8367		95.703125
8368		101.562500
8369		95.703125
8370		103.515625
8371		97.656250
8372		105.468750
8373		99.609375
8374		105.468750
8375		99.609375
8376		107.421875
8377		101.562500
8378		109.375000
8379		103.515625
8380		109.375000
8381		105.468750
8382		109.375000
8383		107.421875
8384		111.328125
8385		105.468750
8386		113.281250
8387		107.421875
8388		115.234375
8389		107.421875
8390		115.234375
8391		109.375000
8392		115.234375
8393		109.375000
8394		115.234375
8395		109.375000
8396		117.187500
8397		111.328125
8398		115.234375
8399		113.281250
8400		115.234375
8401		111.328125
8402		117.187500
8403		111.328125
8404		119.140625
8405		111.328125
8406		117.187500
8407		111.328125
8408		119.140625
8409		113.281250
8410		119.140625
8411		111.328125
8412		117.187500
8413		113.281250
8414		117.187500
8415		113.281250
8416		117.187500
8417		111.328125
8418		117.187500
8419		111.328125
8420		119.140625
8421		111.328125
8422		119.140625
8423		109.375000
8424		117.187500
8425		109.375000
8426		117.187500
8427		109.375000
8428		115.234375
8429		109.375000
8430		115.234375
8431		109.375000
8432		113.281250
8433		109.375000
8434		111.328125
8435		105.468750
8436		113.281250
8437		105.468750
8438		111.328125
8439		103.515625
8440		111.328125
8441		103.515625
8442		111.328125
8443		101.562500
8444		107.421875
8445		99.609375
8446		107.421875
8447		101.562500
8448		105.468750
8449		99.609375
8450		103.515625
8451		95.703125
8452		101.562500
8453		95.703125
8454		101.562500
8455		91.796875
8456		99.609375
8457		91.796875
8458		99.609375
8459		89.843750
8460		97.656250
8461		85.937500
8462		95.703125
8463		87.890625
8464		91.796875
8465		85.937500
8466		89.843750
8467		83.984375
8468		87.890625
8469		78.125000
8470		87.890625
8471		78.125000
8472		83.984375
8473		74.218750
8474		82.031250
8475		72.265625
8476		82.031250
8477		70.312500
8478		78.125000
8479		66.406250
8480		74.218750
8481		66.406250
8482		72.265625
8483		64.453125
8484		68.359375
8485		60.546875
8486		66.406250
8487		56.640625
8488		64.453125
8489		54.687500
8490		62.500000
8491		50.781250
8492		60.546875
8493		46.875000
8494		56.640625
8495		46.875000
8496		52.734375
8497		44.921875
8498		50.781250
8499		41.015625
8500		46.875000
8501		35.156250
8502		42.968750
8503		35.156250
8504		41.015625
8505		29.296875
8506		39.062500
8507		25.390625
8508		35.156250
8509		23.437500
8510		31.250000
8511		21.484375
8512		27.343750
8513		17.578125
8514		25.390625
8515		15.625000
8516		21.484375
8517		11.718750
8518		17.578125
8519		7.812500
8520		13.671875
8521		3.906250
8522		11.718750
8523		0.000000
8524		7.812500
8525		-3.906250
8526		3.906250
8527		-5.859375
8528		1.953125
8529		-9.765625
8530		-1.953125
8531		-11.718750
8532		-7.812500
8533		-15.625000
8534		-9.765625
8535		-21.484375
8536		-13.671875
8537		-23.437500
8538		-17.578125
8539		-29.296875
8540		-19.531250
8541		-31.250000
8542		-23.437500
8543		-35.156250
8544		-27.343750
8545		-39.062500
8546		-29.296875
8547		-41.015625
8548		-33.203125
8549		-44.921875
8550		-39.062500
8551		-48.828125
8552		-42.968750
8553		-52.734375
8554		-44.921875
8555		-54.687500
8556		-48.828125
8557		-58.593750
8558		-50.781250
8559		-62.500000
8560		-54.687500
8561		-66.406250
8562		-58.593750
8563		-68.359375
8564		-60.546875
8565		-70.312500
8566		-64.453125
8567		-74.218750
8568		-68.359375
8569		-80.078125
8570		-70.312500
8571		-82.031250
8572		-76.171875
8573		-85.937500
8574		-76.171875
8575		-87.890625
8576		-80.078125
8577		-91.796875
8578		-83.984375
8579		-93.750000
8580		-85.937500
8581		-95.703125
8582		-89.843750
8583		-97.656250
8584		-93.750000
8585		-103.515625
8586		-95.703125
8587		-105.468750
8588		-97.656250
8589		-109.375000
8590		-99.609375
8591		-111.328125
8592		-101.562500
8593		-113.281250
8594		-105.468750
8595		-115.234375
8596		-107.421875
8597		-117.187500
8598		-109.375000
8599		-119.140625
8600		-113.281250
8601		-121.093750
8602		-117.187500
8603		-125.000000
8604		-117.187500
8605		-126.953125
8606		-119.140625
8607		-128.906250
8608		-121.093750
8609		-128.906250
8610		-121.093750
8611		-132.812500
8612		-125.000000
8613		-134.765625
8614		-126.953125
8615		-134.765625
8616		-128.906250
8617		-134.765625
8618		-130.859375
8619		-136.718750
8620		-132.812500
8621		-138.671875
8622		-132.812500
8623		-140.625000
8624		-132.812500
8625		-140.625000
8626		-134.765625
8627		-142.578125
8628		-136.718750
8629		-144.531250
8630		-136.718750
8631		-144.531250
8632		-138.671875
8633		-142.578125
8634		-140.625000
8635		-144.531250
8636		-140.625000
8637		-146.484375
8638		-138.671875
8639		-146.484375
8640		-140.625000
8641		-146.484375
8642		-140.625000
8643		-148.437500
8644		-140.625000
8645		-148.437500
8646		-140.625000
8647		-148.437500
8648		-140.625000
8649		-146.484375
8650		-142.578125
8651		-146.484375
8652		-142.578125
8653		-146.484375
8654		-140.625000
8655		-146.484375
8656		-140.625000
8657		-146.484375
8658		-138.671875
8659		-144.531250
8660		-138.671875
8661		-144.531250
8662		-136.718750
8663		-144.531250
8664		-136.718750
8665		-142.578125
8666		-136.718750
8667		-140.625000
8668		-136.718750
8669		-138.671875
8670		-132.812500
8671		-138.671875
8672		-130.859375
8673		-136.718750
8674		-130.859375
8675		-136.718750
8676		-128.906250
8677		-134.765625
8678		-126.953125
8679		-132.812500
8680		-125.000000
8681		-130.859375
8682		-125.000000
8683		-128.906250
8684		-123.046875
8685		-126.953125
8686		-121.093750
8687		-125.000000
8688		-119.140625
8689		-125.000000
8690		-115.234375
8691		-121.093750
8692		-113.281250
8693		-117.187500
8694		-111.328125
8695		-117.187500
8696		-107.421875
8697		-113.281250
8698		-105.468750
8699		-109.375000
8700		-105.468750
8701		-107.421875
8702		-101.562500
8703		-105.468750
8704		-99.609375
8705		-103.515625
8706		-95.703125
8707		-99.609375
8708		-91.796875
8709		-97.656250
8710		-89.843750
8711		-93.750000
8712		-87.890625
8713		-91.796875
8714		-83.984375
8715		-87.890625
8716		-82.031250
8717		-83.984375
8718		-78.125000
8719		-80.078125
8720		-76.171875
8721		-78.125000
8722		-72.265625
8723		-74.218750
8724		-68.359375
8725		-72.265625
8726		-64.453125
8727		-68.359375
8728		-60.546875
8729		-66.406250
8730		-58.593750
8731		-62.500000
8732		-54.687500
8733		-58.593750
8734		-52.734375
8735		-54.687500
8736		-48.828125
8737		-50.781250
8738		-42.968750
8739		-48.828125
8740		-41.015625
8741		-44.921875
8742		-37.109375
8743		-41.015625
8744		-33.203125
8745		-37.109375
8746		-29.296875
8747		-33.203125
8748		-25.390625
8749		-31.250000
8750		-23.437500
8751		-25.390625
8752		-19.531250
8753		-21.484375
8754		-13.671875
8755		-19.531250
8756		-11.718750
8757		-15.625000
8758		-7.812500
8759		-13.671875
8760		-5.859375
8761		-9.765625
8762		-1.953125
8763		-5.859375
8764		1.953125
8765		-1.953125
8766		5.859375
8767		1.953125
8768		7.812500
8769		5.859375
8770		11.718750
8771		9.765625
8772		15.625000
8773		11.718750
8774		19.531250
8775		15.625000
8776		21.484375
8777		17.578125
8778		25.390625
8779		19.531250
8780		29.296875
8781		23.437500
8782		33.203125
8783		27.343750
8784		33.203125
8785		33.203125
8786		37.109375
8787		35.156250
8788		42.968750
8789		37.109375
8790		44.921875
8791		41.015625
8792		48.828125
8793		42.968750
8794		50.781250
8795		44.921875
8796		54.687500
8797		48.828125
8798		56.640625
8799		50.781250
8800		58.593750
8801		56.640625
8802		60.546875
8803		58.593750
8804		62.500000
8805		60.546875
8806		66.406250
8807		62.500000
8808		70.312500
8809		64.453125
8810		72.265625
8811		68.359375
8812		74.218750
8813		70.312500
8814		78.125000
8815		72.265625
8816		80.078125
8817		74.218750
8818		80.078125
8819		78.125000
8820		82.031250
8821		80.078125
8822		87.890625
8823		80.078125
8824		87.890625
8825		83.984375
8826		89.843750
8827		83.984375
8828		91.796875
8829		87.890625
8830		93.750000
8831		89.843750
8832		95.703125
8833		91.796875
8834		97.656250
8835		93.750000
8836		97.656250
8837		95.703125
8838		99.609375
8839		95.703125
8840		103.515625
8841		97.656250
8842		105.468750
8843		99.609375
8844		105.468750
8845		99.609375
8846		107.421875
8847		101.562500
8848		107.421875
8849		103.515625
8850		109.375000
8851		105.468750
8852		109.375000
8853		107.421875
8854		109.375000
8855		105.468750
8856		113.281250
8857		105.468750
8858		115.234375
8859		107.421875
8860		113.281250
8861		109.375000
8862		115.234375
8863		109.375000
8864		115.234375
8865		109.375000
8866		115.234375
8867		111.328125
8868		117.187500
8869		113.281250
8870		115.234375
8871		111.328125
8872		119.140625
8873		111.328125
8874		119.140625
8875		111.328125
8876		117.187500
8877		111.328125
8878		119.140625
8879		111.328125
8880		119.140625
8881		111.328125
8882		119.140625
8883		113.281250
8884		119.140625
8885		113.281250
8886		117.187500
8887		113.281250
8888		117.187500
8889		111.328125
8890		119.140625
8891		111.328125
8892		119.140625
8893		111.328125
8894		117.187500
8895		109.375000
8896		117.187500
8897		109.375000
8898		115.234375
8899		107.421875
8900		115.234375
8901		109.375000
8902		115.234375
8903		109.375000
8904		113.281250
8905		107.421875
8906		113.281250
8907		105.468750
8908		111.328125
8909		103.515625
8910		111.328125
8911		103.515625
8912		111.328125
8913		103.515625
8914		109.375000
8915		101.562500
8916		107.421875
8917		101.562500
8918		107.421875
8919		99.609375
8920		103.515625
8921		97.656250
8922		103.515625
8923		95.703125
8924		103.515625
8925		93.750000
8926		101.562500
8927		91.796875
8928		99.609375
8929		89.843750
8930		97.656250
8931		87.890625
8932		95.703125
8933		85.937500
8934		93.750000
8935		85.937500
8936		89.843750
8937		83.984375
8938		87.890625
8939		80.078125
8940		87.890625
8941		78.125000
8942		85.937500
8943		76.171875
8944		83.984375
8945		72.265625
8946		82.031250
8947		72.265625
8948		78.125000
8949		68.359375
8950		76.171875
8951		68.359375
8952		74.218750
8953		64.453125
8954		70.312500
8955		60.546875
8956		66.406250
8957		58.593750
8958		64.453125
8959		54.687500
8960		62.500000
8961		52.734375
8962		60.546875
8963		50.781250
8964		56.640625
8965		44.921875
8966		54.687500
8967		44.921875
8968		50.781250
8969		42.968750
8970		46.875000
8971		39.062500
8972		44.921875
8973		35.156250
8974		42.968750
8975		31.250000
8976		39.062500
8977		29.296875
8978		35.156250
8979		25.390625
8980		33.203125
8981		21.484375
8982		29.296875
8983		19.531250
8984		27.343750
8985		15.625000
8986		23.437500
8987		13.671875
8988		17.578125
8989		7.812500
8990		15.625000
8991		3.906250
8992		13.671875
8993		0.000000
8994		9.765625
8995		-1.953125
8996		5.859375
8997		-5.859375
8998		1.953125
8999		-7.812500
9000		0.000000
9001		-11.718750
9002		-3.906250
9003		-13.671875
9004		-9.765625
9005		-19.531250
9006		-13.671875
9007		-23.437500
9008		-15.625000
9009		-27.343750
9010		-17.578125
9011		-31.250000
9012		-21.484375
9013		-33.203125
9014		-25.390625
9015		-37.109375
9016		-29.296875
9017		-41.015625
9018		-33.203125
9019		-42.968750
9020		-37.109375
9021		-46.875000
9022		-41.015625
9023		-52.734375
9024		-44.921875
9025		-54.687500
9026		-46.875000
9027		-56.640625
9028		-48.828125
9029		-60.546875
9030		-52.734375
9031		-64.453125
9032		-56.640625
9033		-68.359375
9034		-60.546875
9035		-70.312500
9036		-62.500000
9037		-72.265625
9038		-68.359375
9039		-78.125000
9040		-70.312500
9041		-80.078125
9042		-72.265625
9043		-83.984375
9044		-76.171875
9045		-87.890625
9046		-78.125000
9047		-91.796875
9048		-82.031250
9049		-91.796875
9050		-85.937500
9051		-95.703125
9052		-87.890625
9053		-97.656250
9054		-91.796875
9055		-99.609375
9056		-95.703125
9057		-103.515625
9058		-95.703125
9059		-107.421875
9060		-99.609375
9061		-111.328125
9062		-101.562500
9063		-111.328125
9064		-105.468750
9065		-115.234375
9066		-107.421875
9067		-117.187500
9068		-109.375000
9069		-117.187500
9070		-111.328125
9071		-119.140625
9072		-115.234375
9073		-123.046875
9074		-117.187500
9075		-125.000000
9076		-119.140625
9077		-126.953125
9078		-121.093750
9079		-128.906250
9080		-123.046875
9081		-130.859375
9082		-125.000000
9083		-132.812500
9084		-126.953125
9085		-132.812500
9086		-128.906250
9087		-134.765625
9088		-130.859375
9089		-134.765625
9090		-132.812500
9091		-138.671875
9092		-132.812500
9093		-140.625000
9094		-132.812500
9095		-140.625000
9096		-134.765625
9097		-142.578125
9098		-136.718750
9099		-142.578125
9100		-136.718750
9101		-144.531250
9102		-138.671875
9103		-142.578125
9104		-140.625000
9105		-142.578125
9106		-140.625000
9107		-146.484375
9108		-140.625000
9109		-146.484375
9110		-138.671875
9111		-146.484375
9112		-140.625000
9113		-146.484375
9114		-140.625000
9115		-146.484375
9116		-140.625000
9117		-148.437500
9118		-140.625000
9119		-146.484375
9120		-140.625000
9121		-146.484375
9122		-142.578125
9123		-146.484375
9124		-140.625000
9125		-146.484375
9126		-140.625000
9127		-146.484375
9128		-138.671875
9129		-144.531250
9130		-138.671875
9131		-144.531250
9132		-136.718750
9133		-144.531250
9134		-136.718750
9135		-142.578125
9136		-136.718750
9137		-140.625000
9138		-136.718750
9139		-138.671875
9140		-134.765625
9141		-138.671875
9142		-132.812500
9143		-138.671875
9144		-130.859375
9145		-136.718750
9146		-128.906250
9147		-136.718750
9148		-126.953125
9149		-132.812500
9150		-126.953125
9151		-130.859375
9152		-125.000000
9153		-128.906250
9154		-125.000000
9155		-126.953125
9156		-123.046875
9157		-125.000000
9158		-119.140625
9159		-123.046875
9160		-117.187500
9161		-121.093750
9162		-113.281250
9163		-119.140625
9164		-111.328125
9165		-117.187500
9166		-109.375000
9167		-115.234375
9168		-107.421875
9169		-111.328125
9170		-105.468750
9171		-107.421875
9172		-103.515625
9173		-105.468750
9174		-99.609375
9175		-105.468750
9176		-95.703125
9177		-101.562500
9178		-91.796875
9179		-99.609375
9180		-91.796875
9181		-93.750000
9182		-87.890625
9183		-91.796875
9184		-83.984375
9185		-89.843750
9186		-82.031250
9187		-85.937500
9188		-80.078125
9189		-82.031250
9190		-76.171875
9191		-78.125000
9192		-72.265625
9193		-76.171875
9194		-68.359375
9195		-74.218750
9196		-64.453125
9197		-70.312500
9198		-62.500000
9199		-66.406250
9200		-58.593750
9201		-64.453125
9202		-56.640625
9203		-60.546875
9204		-52.734375
9205		-54.687500
9206		-50.781250
9207		-50.781250
9208		-42.968750
9209		-48.828125
9210		-41.015625
9211		-46.875000
9212		-39.062500
9213		-42.968750
9214		-33.203125
9215		-39.062500
9216		-29.296875
9217		-35.156250
9218		-27.343750
9219		-31.250000
9220		-23.437500
9221		-27.343750
9222		-21.484375
9223		-23.437500
9224		-17.578125
9225		-21.484375
9226		-13.671875
9227		-17.578125
9228		-9.765625
9229		-13.671875
9230		-5.859375
9231		-9.765625
9232		-1.953125
9233		-7.812500
9234		0.000000
9235		-3.906250
9236		3.906250
9237		0.000000
9238		5.859375
9239		3.906250
9240		9.765625
9241		7.812500
9242		13.671875
9243		9.765625
9244		19.531250
9245		11.718750
9246		21.484375
9247		17.578125
9248		23.437500
9249		19.531250
9250		29.296875
9251		23.437500
9252		31.250000
9253		27.343750
9254		33.203125
9255		31.250000
9256		37.109375
9257		35.156250
9258		39.062500
9259		35.156250
9260		44.921875
9261		37.109375
9262		46.875000
9263		41.015625
9264		48.828125
9265		44.921875
9266		52.734375
9267		46.875000
9268		54.687500
9269		50.781250
9270		58.593750
9271		52.734375
9272		60.546875
9273		58.593750
9274		62.500000
9275		60.546875
9276		66.406250
9277		60.546875
9278		68.359375
9279		64.453125
9280		72.265625
9281		66.406250
9282		74.218750
9283		68.359375
9284		76.171875
9285		70.312500
9286		78.125000
9287		74.218750
9288		80.078125
9289		78.125000
9290		82.031250
9291		80.078125
9292		85.937500
9293		80.078125
9294		87.890625
9295		82.031250
9296		89.843750
9297		85.937500
9298		91.796875
9299		85.937500
9300		93.750000
9301		87.890625
9302		95.703125
9303		89.843750
9304		97.656250
9305		93.750000
9306		97.656250
9307		95.703125
9308		99.609375
9309		95.703125
9310		101.562500
9311		97.656250
9312		103.515625
9313		97.656250
9314		105.468750
9315		99.609375
9316		105.468750
9317		101.562500
9318		109.375000
9319		103.515625
9320		109.375000
9321		103.515625
9322		109.375000
9323		107.421875
9324		109.375000
9325		105.468750
9326		111.328125
9327		107.421875
9328		113.281250
9329		107.421875
9330		115.234375
9331		109.375000
9332		115.234375
9333		109.375000
9334		115.234375
9335		109.375000
9336		117.187500
9337		111.328125
9338		117.187500
9339		113.281250
9340		115.234375
9341		113.281250
9342		117.187500
9343		111.328125
9344		117.187500
9345		111.328125
9346		119.140625
9347		113.281250
9348		119.140625
9349		111.328125
9350		119.140625
9351		113.281250
9352		119.140625
9353		113.281250
9354		119.140625
9355		113.281250
9356		119.140625
9357		115.234375
9358		117.187500
9359		111.328125
9360		119.140625
9361		111.328125
9362		119.140625
9363		111.328125
9364		119.140625
9365		111.328125
9366		119.140625
9367		111.328125
9368		117.187500
9369		111.328125
9370		117.187500
9371		109.375000
9372		117.187500
9373		111.328125
9374		113.281250
9375		107.421875
9376		113.281250
9377		107.421875
9378		113.281250
9379		105.468750
9380		113.281250
9381		105.468750
9382		113.281250
9383		103.515625
9384		111.328125
9385		103.515625
9386		111.328125
9387		101.562500
9388		107.421875
9389		101.562500
9390		105.468750
9391		101.562500
9392		103.515625
9393		97.656250
9394		105.468750
9395		95.703125
9396		103.515625
9397		93.750000
9398		101.562500
9399		91.796875
9400		99.609375
9401		89.843750
9402		97.656250
9403		89.843750
9404		95.703125
9405		87.890625
9406		95.703125
9407		87.890625
9408		91.796875
9409		82.031250
9410		89.843750
9411		82.031250
9412		87.890625
9413		78.125000
9414		85.937500
9415		76.171875
9416		83.984375
9417		74.218750
9418		82.031250
9419		72.265625
9420		78.125000
9421		70.312500
9422		76.171875
9423		68.359375
9424		72.265625
9425		64.453125
9426		70.312500
9427		62.500000
9428		68.359375
9429		58.593750
9430		66.406250
9431		56.640625
9432		62.500000
9433		52.734375
9434		60.546875
9435		48.828125
9436		58.593750
9437		46.875000
9438		54.687500
9439		44.921875
9440		50.781250
9441		42.968750
9442		46.875000
9443		37.109375
9444		44.921875
9445		35.156250
9446		42.968750
9447		31.250000
9448		39.062500
9449		29.296875
9450		35.156250
9451		25.390625
9452		33.203125
9453		23.437500
9454		29.296875
9455		19.531250
9456		25.390625
9457		17.578125
9458		21.484375
9459		11.718750
9460		17.578125
9461		7.812500
9462		15.625000
9463		3.906250
9464		13.671875
9465		1.953125
9466		9.765625
9467		-1.953125
9468		5.859375
9469		-5.859375
9470		1.953125
9471		-9.765625
9472		0.000000
9473		-11.718750
9474		-5.859375
9475		-13.671875
9476		-9.765625
9477		-19.531250
9478		-11.718750
9479		-23.437500
9480		-13.671875
9481		-27.343750
9482		-19.531250
9483		-29.296875
9484		-21.484375
9485		-33.203125
9486		-25.390625
9487		-37.109375
9488		-29.296875
9489		-39.062500
9490		-33.203125
9491		-42.968750
9492		-37.109375
9493		-46.875000
9494		-41.015625
9495		-52.734375
9496		-42.968750
9497		-52.734375
9498		-46.875000
9499		-58.593750
9500		-48.828125
9501		-60.546875
9502		-52.734375
9503		-64.453125
9504		-56.640625
9505		-68.359375
9506		-60.546875
9507		-70.312500
9508		-64.453125
9509		-72.265625
9510		-68.359375
9511		-78.125000
9512		-70.312500
9513		-80.078125
9514		-72.265625
9515		-82.031250
9516		-76.171875
9517		-87.890625
9518		-80.078125
9519		-89.843750
9520		-82.031250
9521		-93.750000
9522		-85.937500
9523		-93.750000
9524		-87.890625
9525		-97.656250
9526		-91.796875
9527		-99.609375
9528		-93.750000
9529		-103.515625
9530		-95.703125
9531		-105.468750
9532		-99.609375
9533		-109.375000
9534		-101.562500
9535		-111.328125
9536		-103.515625
9537		-113.281250
9538		-107.421875
9539		-115.234375
9540		-109.375000
9541		-117.187500
9542		-113.281250
9543		-121.093750
9544		-115.234375
9545		-123.046875
9546		-115.234375
9547		-125.000000
9548		-117.187500
9549		-126.953125
9550		-119.140625
9551		-128.906250
9552		-121.093750
9553		-130.859375
9554		-123.046875
9555		-132.812500
9556		-125.000000
9557		-132.812500
9558		-128.906250
9559		-132.812500
9560		-130.859375
9561		-136.718750
9562		-130.859375
9563		-138.671875
9564		-130.859375
9565		-138.671875
9566		-132.812500
9567		-140.625000
9568		-134.765625
9569		-142.578125
9570		-134.765625
9571		-142.578125
9572		-136.718750
9573		-142.578125
9574		-136.718750
9575		-142.578125
9576		-138.671875
9577		-144.531250
9578		-138.671875
9579		-144.531250
9580		-138.671875
9581		-146.484375
9582		-138.671875
9583		-146.484375
9584		-140.625000
9585		-146.484375
9586		-138.671875
9587		-146.484375
9588		-140.625000
9589		-146.484375
9590		-140.625000
9591		-144.531250
9592		-140.625000
9593		-144.531250
9594		-140.625000
9595		-146.484375
9596		-138.671875
9597		-144.531250
9598		-138.671875
9599		-144.531250
9600		-138.671875
9601		-144.531250
9602		-136.718750
9603		-142.578125
9604		-136.718750
9605		-142.578125
9606		-134.765625
9607		-142.578125
9608		-136.718750
9609		-138.671875
9610		-134.765625
9611		-138.671875
9612		-132.812500
9613		-136.718750
9614		-130.859375
9615		-136.718750
9616		-130.859375
9617		-134.765625
9618		-126.953125
9619		-132.812500
9620		-126.953125
9621		-132.812500
9622		-125.000000
9623		-130.859375
9624		-123.046875
9625		-126.953125
9626		-123.046875
9627		-125.000000
9628		-119.140625
9629		-125.000000
9630		-117.187500
9631		-121.093750
9632		-115.234375
9633		-121.093750
9634		-113.281250
9635		-117.187500
9636		-111.328125
9637		-115.234375
9638		-107.421875
9639		-111.328125
9640		-105.468750
9641		-109.375000
9642		-105.468750
9643		-105.468750
9644		-101.562500
9645		-105.468750
9646		-97.656250
9647		-101.562500
9648		-95.703125
9649		-99.609375
9650		-91.796875
9651		-97.656250
9652		-87.890625
9653		-93.750000
9654		-85.937500
9655		-91.796875
9656		-82.031250
9657		-87.890625
9658		-82.031250
9659		-83.984375
9660		-78.125000
9661		-80.078125
9662		-72.265625
9663		-78.125000
9664		-70.312500
9665		-76.171875
9666		-66.406250
9667		-70.312500
9668		-62.500000
9669		-68.359375
9670		-60.546875
9671		-66.406250
9672		-56.640625
9673		-62.500000
9674		-54.687500
9675		-56.640625
9676		-50.781250
9677		-52.734375
9678		-48.828125
9679		-50.781250
9680		-42.968750
9681		-48.828125
9682		-41.015625
9683		-44.921875
9684		-35.156250
9685		-39.062500
9686		-31.250000
9687		-37.109375
9688		-29.296875
9689		-35.156250
9690		-25.390625
9691		-31.250000
9692		-23.437500
9693		-25.390625
9694		-19.531250
9695		-21.484375
9696		-13.671875
9697		-19.531250
9698		-11.718750
9699		-15.625000
9700		-7.812500
9701		-13.671875
9702		-3.906250
9703		-7.812500
9704		0.000000
9705		-3.906250
9706		3.906250
9707		-1.953125
9708		5.859375
9709		3.906250
9710		7.812500
9711		5.859375
9712		11.718750
9713		7.812500
9714		15.625000
9715		11.718750
9716		19.531250
9717		15.625000
9718		21.484375
9719		17.578125
9720		25.390625
9721		21.484375
9722		29.296875
9723		25.390625
9724		33.203125
9725		29.296875
9726		35.156250
9727		33.203125
9728		37.109375
9729		35.156250
9730		42.968750
9731		37.109375
9732		44.921875
9733		41.015625
9734		48.828125
9735		42.968750
9736		50.781250
9737		46.875000
9738		54.687500
9739		48.828125
9740		58.593750
9741		52.734375
9742		58.593750
9743		56.640625
9744		60.546875
9745		58.593750
9746		64.453125
9747		60.546875
9748		68.359375
9749		64.453125
9750		72.265625
9751		66.406250
9752		74.218750
9753		68.359375
9754		76.171875
9755		70.312500
9756		78.125000
9757		72.265625
9758		80.078125
9759		76.171875
9760		82.031250
9761		80.078125
9762		83.984375
9763		80.078125
9764		85.937500
9765		82.031250
9766		89.843750
9767		83.984375
9768		89.843750
9769		85.937500
9770		93.750000
9771		87.890625
9772		93.750000
9773		89.843750
9774		97.656250
9775		91.796875
9776		97.656250
9777		95.703125
9778		99.609375
9779		95.703125
9780		101.562500
9781		95.703125
9782		103.515625
9783		97.656250
9784		105.468750
9785		99.609375
9786		105.468750
9787		101.562500
9788		107.421875
9789		101.562500
9790		109.375000
9791		103.515625
9792		111.328125
9793		107.421875
9794		109.375000
9795		107.421875
9796		111.328125
9797		105.468750
9798		113.281250
9799		107.421875
9800		115.234375
9801		107.421875
9802		115.234375
9803		109.375000
9804		115.234375
9805		109.375000
9806		117.187500
9807		109.375000
9808		117.187500
9809		113.281250
9810		117.187500
9811		113.281250
9812		117.187500
9813		113.281250
9814		119.140625
9815		111.328125
9816		119.140625
9817		113.281250
9818		119.140625
9819		113.281250
9820		119.140625
9821		113.281250
9822		119.140625
9823		113.281250
9824		119.140625
9825		113.281250
9826		119.140625
9827		115.234375
9828		117.187500
9829		113.281250
9830		119.140625
9831		113.281250
9832		119.140625
9833		113.281250
9834		119.140625
9835		111.328125
9836		119.140625
9837		111.328125
9838		117.187500
9839		111.328125
9840		117.187500
9841		109.375000
9842		117.187500
9843		111.328125
9844		115.234375
9845		109.375000
9846		113.281250
9847		107.421875
9848		115.234375
9849		107.421875
9850		113.281250
9851		105.468750
9852		113.281250
9853		105.468750
9854		111.328125
9855		103.515625
9856		111.328125
9857		103.515625
9858		109.375000
9859		103.515625
9860		107.421875
9861		101.562500
9862		105.468750
9863		97.656250
9864		105.468750
9865		97.656250
9866		105.468750
9867		95.703125
9868		101.562500
9869		93.750000
9870		99.609375
9871		91.796875
9872		99.609375
9873		89.843750
9874		97.656250
9875		89.843750
9876		95.703125
9877		87.890625
9878		91.796875
9879		85.937500
9880		89.843750
9881		82.031250
9882		89.843750
9883		80.078125
9884		87.890625
9885		78.125000
9886		83.984375
9887		76.171875
9888		82.031250
9889		74.218750
9890		80.078125
9891		70.312500
9892		78.125000
9893		70.312500
9894		76.171875
9895		66.406250
9896		72.265625
9897		62.500000
9898		68.359375
9899		60.546875
9900		68.359375
9901		56.640625
9902		66.406250
9903		54.687500
9904		62.500000
9905		50.781250
9906		60.546875
9907		48.828125
9908		56.640625
9909		46.875000
9910		54.687500
9911		44.921875
9912		48.828125
9913		39.062500
9914		46.875000
9915		35.156250
9916		44.921875
9917		33.203125
9918		41.015625
9919		29.296875
9920		37.109375
9921		25.390625
9922		35.156250
9923		23.437500
9924		31.250000
9925		21.484375
9926		29.296875
9927		17.578125
9928		23.437500
9929		15.625000
9930		19.531250
9931		9.765625
9932		17.578125
9933		7.812500
9934		15.625000
9935		3.906250
9936		11.718750
9937		0.000000
9938		7.812500
9939		-3.906250
9940		5.859375
9941		-7.812500
9942		1.953125
9943		-9.765625
9944		-1.953125
9945		-11.718750
9946		-7.812500
9947		-17.578125
9948		-9.765625
9949		-21.484375
9950		-11.718750
9951		-23.437500
9952		-15.625000
9953		-27.343750
9954		-19.531250
9955		-33.203125
9956		-23.437500
9957		-37.109375
9958		-27.343750
9959		-39.062500
9960		-29.296875
9961		-41.015625
9962		-35.156250
9963		-44.921875
9964		-39.062500
9965		-48.828125
9966		-39.062500
9967		-52.734375
9968		-44.921875
9969		-56.640625
9970		-46.875000
9971		-58.593750
9972		-50.781250
9973		-64.453125
9974		-54.687500
9975		-66.406250
9976		-56.640625
9977		-68.359375
9978		-60.546875
9979		-70.312500
9980		-66.406250
9981		-76.171875
9982		-68.359375
9983		-80.078125
9984		-70.312500
9985		-82.031250
9986		-74.218750
9987		-85.937500
9988		-78.125000
9989		-87.890625
9990		-80.078125
9991		-89.843750
9992		-83.984375
9993		-91.796875
9994		-85.937500
9995		-95.703125
9996		-89.843750
9997		-99.609375
9998		-93.750000
9999		-101.562500
10000		-95.703125
