Channel              :		CH1
Frequency            :		1.975kHz
Period               :		0.506ms
PK-PK                :		152.3mV
Probe attenuation    :		1X
Voltage per ADC value:		0.122070mV
Time interval        :		2.00000us

index		CH1_Voltage(mV)
1		83.984375
2		83.984375
3		78.125000
4		83.984375
5		78.125000
6		83.984375
7		78.125000
8		82.031250
9		76.171875
10		82.031250
11		74.218750
12		82.031250
13		74.218750
14		82.031250
15		72.265625
16		80.078125
17		72.265625
18		80.078125
19		70.312500
20		78.125000
21		68.359375
22		76.171875
23		68.359375
24		72.265625
25		66.406250
26		70.312500
27		62.500000
28		70.312500
29		60.546875
30		68.359375
31		58.593750
32		66.406250
33		56.640625
34		64.453125
35		52.734375
36		60.546875
37		48.828125
38		58.593750
39		48.828125
40		56.640625
41		46.875000
42		50.781250
43		41.015625
44		48.828125
45		39.062500
46		46.875000
47		35.156250
48		42.968750
49		31.250000
50		41.015625
51		29.296875
52		37.109375
53		25.390625
54		33.203125
55		23.437500
56		29.296875
57		21.484375
58		25.390625
59		17.578125
60		21.484375
61		11.718750
62		19.531250
63		7.812500
64		17.578125
65		3.906250
66		13.671875
67		0.000000
68		9.765625
69		-3.906250
70		5.859375
71		-5.859375
72		1.953125
73		-7.812500
74		0.000000
75		-11.718750
76		-5.859375
77		-15.625000
78		-9.765625
79		-19.531250
80		-11.718750
81		-21.484375
82		-15.625000
83		-25.390625
84		-19.531250
85		-29.296875
86		-21.484375
87		-31.250000
88		-25.390625
89		-33.203125
90		-27.343750
91		-37.109375
92		-31.250000
93		-41.015625
94		-35.156250
95		-42.968750
96		-35.156250
97		-46.875000
98		-37.109375
99		-48.828125
100		-41.015625
101		-50.781250
102		-42.968750
103		-52.734375
104		-44.921875
105		-54.687500
106		-46.875000
107		-54.687500
108		-50.781250
109		-54.687500
110		-52.734375
111		-58.593750
112		-50.781250
113		-60.546875
114		-52.734375
115		-60.546875
116		-54.687500
117		-62.500000
118		-54.687500
119		-62.500000
120		-56.640625
121		-62.500000
122		-56.640625
123		-62.500000
124		-56.640625
125		-60.546875
126		-58.593750
127		-64.453125
128		-56.640625
129		-62.500000
130		-56.640625
131		-62.500000
132		-54.687500
133		-62.500000
134		-54.687500
135		-62.500000
136		-54.687500
137		-60.546875
138		-52.734375
139		-58.593750
140		-52.734375
141		-54.687500
142		-52.734375
143		-54.687500
144		-50.781250
145		-54.687500
146		-46.875000
147		-52.734375
148		-44.921875
149		-50.781250
150		-42.968750
151		-48.828125
152		-41.015625
153		-46.875000
154		-37.109375
155		-44.921875
156		-35.156250
157		-41.015625
158		-35.156250
159		-37.109375
160		-33.203125
161		-35.156250
162		-27.343750
163		-33.203125
164		-25.390625
165		-31.250000
166		-21.484375
167		-27.343750
168		-17.578125
169		-25.390625
170		-13.671875
171		-21.484375
172		-11.718750
173		-17.578125
174		-9.765625
175		-11.718750
176		-7.812500
177		-7.812500
178		-3.906250
179		-7.812500
180		1.953125
181		-3.906250
182		5.859375
183		0.000000
184		9.765625
185		3.906250
186		13.671875
187		7.812500
188		17.578125
189		9.765625
190		19.531250
191		15.625000
192		21.484375
193		19.531250
194		25.390625
195		21.484375
196		29.296875
197		23.437500
198		33.203125
199		27.343750
200		37.109375
201		31.250000
202		39.062500
203		35.156250
204		42.968750
205		37.109375
206		46.875000
207		41.015625
208		46.875000
209		44.921875
210		50.781250
211		48.828125
212		54.687500
213		48.828125
214		56.640625
215		52.734375
216		60.546875
217		54.687500
218		62.500000
219		56.640625
220		66.406250
221		58.593750
222		68.359375
223		60.546875
224		68.359375
225		66.406250
226		70.312500
227		68.359375
228		72.265625
229		68.359375
230		76.171875
231		68.359375
232		76.171875
233		70.312500
234		78.125000
235		72.265625
236		80.078125
237		74.218750
238		80.078125
239		74.218750
240		82.031250
241		76.171875
242		82.031250
243		78.125000
244		82.031250
245		76.171875
246		83.984375
247		78.125000
248		83.984375
249		76.171875
250		85.937500
251		78.125000
252		85.937500
253		78.125000
254		85.937500
255		78.125000
256		83.984375
257		78.125000
258		83.984375
259		80.078125
260		82.031250
261		78.125000
262		82.031250
263		76.171875
264		82.031250
265		74.218750
266		82.031250
267		74.218750
268		82.031250
269		72.265625
270		80.078125
271		70.312500
272		78.125000
273		68.359375
274		76.171875
275		70.312500
276		74.218750
277		68.359375
278		72.265625
279		64.453125
280		72.265625
281		62.500000
282		70.312500
283		60.546875
284		68.359375
285		56.640625
286		64.453125
287		54.687500
288		62.500000
289		52.734375
290		60.546875
291		50.781250
292		58.593750
293		48.828125
294		52.734375
295		42.968750
296		50.781250
297		41.015625
298		48.828125
299		37.109375
300		46.875000
301		33.203125
302		42.968750
303		31.250000
304		41.015625
305		27.343750
306		37.109375
307		25.390625
308		33.203125
309		23.437500
310		27.343750
311		19.531250
312		23.437500
313		13.671875
314		21.484375
315		11.718750
316		19.531250
317		7.812500
318		15.625000
319		3.906250
320		11.718750
321		0.000000
322		9.765625
323		-3.906250
324		5.859375
325		-5.859375
326		1.953125
327		-7.812500
328		-3.906250
329		-13.671875
330		-7.812500
331		-17.578125
332		-9.765625
333		-21.484375
334		-11.718750
335		-25.390625
336		-15.625000
337		-27.343750
338		-19.531250
339		-29.296875
340		-21.484375
341		-33.203125
342		-23.437500
343		-35.156250
344		-29.296875
345		-37.109375
346		-33.203125
347		-41.015625
348		-33.203125
349		-44.921875
350		-35.156250
351		-46.875000
352		-39.062500
353		-48.828125
354		-41.015625
355		-50.781250
356		-42.968750
357		-52.734375
358		-44.921875
359		-52.734375
360		-48.828125
361		-54.687500
362		-50.781250
363		-58.593750
364		-50.781250
365		-58.593750
366		-50.781250
367		-60.546875
368		-52.734375
369		-60.546875
370		-54.687500
371		-62.500000
372		-54.687500
373		-62.500000
374		-54.687500
375		-62.500000
376		-56.640625
377		-60.546875
378		-58.593750
379		-62.500000
380		-56.640625
381		-62.500000
382		-56.640625
383		-62.500000
384		-56.640625
385		-62.500000
386		-54.687500
387		-62.500000
388		-54.687500
389		-60.546875
390		-54.687500
391		-60.546875
392		-52.734375
393		-56.640625
394		-52.734375
395		-54.687500
396		-50.781250
397		-54.687500
398		-48.828125
399		-54.687500
400		-46.875000
401		-52.734375
402		-44.921875
403		-50.781250
404		-42.968750
405		-48.828125
406		-41.015625
407		-46.875000
408		-37.109375
409		-42.968750
410		-37.109375
411		-39.062500
412		-35.156250
413		-35.156250
414		-29.296875
415		-35.156250
416		-25.390625
417		-31.250000
418		-23.437500
419		-29.296875
420		-19.531250
421		-25.390625
422		-17.578125
423		-21.484375
424		-13.671875
425		-19.531250
426		-11.718750
427		-13.671875
428		-9.765625
429		-9.765625
430		-3.906250
431		-9.765625
432		0.000000
433		-5.859375
434		3.906250
435		-1.953125
436		5.859375
437		1.953125
438		9.765625
439		3.906250
440		13.671875
441		7.812500
442		17.578125
443		13.671875
444		19.531250
445		17.578125
446		21.484375
447		21.484375
448		29.296875
449		23.437500
450		31.250000
451		27.343750
452		35.156250
453		29.296875
454		39.062500
455		33.203125
456		41.015625
457		37.109375
458		44.921875
459		39.062500
460		44.921875
461		42.968750
462		48.828125
463		46.875000
464		54.687500
465		46.875000
466		56.640625
467		50.781250
468		58.593750
469		52.734375
470		60.546875
471		56.640625
472		64.453125
473		58.593750
474		66.406250
475		60.546875
476		68.359375
477		64.453125
478		68.359375
479		66.406250
480		70.312500
481		66.406250
482		74.218750
483		68.359375
484		76.171875
485		70.312500
486		78.125000
487		72.265625
488		80.078125
489		72.265625
490		80.078125
491		74.218750
492		80.078125
493		74.218750
494		82.031250
495		78.125000
496		80.078125
497		76.171875
498		83.984375
499		78.125000
500		83.984375
501		78.125000
502		83.984375
503		78.125000
504		83.984375
505		78.125000
506		85.937500
507		78.125000
508		85.937500
509		78.125000
510		85.937500
511		80.078125
512		82.031250
513		80.078125
514		82.031250
515		76.171875
516		83.984375
517		76.171875
518		82.031250
519		74.218750
520		82.031250
521		74.218750
522		80.078125
523		72.265625
524		80.078125
525		70.312500
526		78.125000
527		70.312500
528		76.171875
529		70.312500
530		74.218750
531		66.406250
532		72.265625
533		64.453125
534		72.265625
535		60.546875
536		68.359375
537		58.593750
538		66.406250
539		56.640625
540		64.453125
541		52.734375
542		62.500000
543		52.734375
544		58.593750
545		50.781250
546		54.687500
547		46.875000
548		52.734375
549		42.968750
550		50.781250
551		41.015625
552		48.828125
553		37.109375
554		44.921875
555		33.203125
556		41.015625
557		29.296875
558		39.062500
559		27.343750
560		35.156250
561		25.390625
562		31.250000
563		21.484375
564		27.343750
565		15.625000
566		23.437500
567		11.718750
568		21.484375
569		9.765625
570		19.531250
571		5.859375
572		15.625000
573		1.953125
574		11.718750
575		-1.953125
576		7.812500
577		-1.953125
578		3.906250
579		-5.859375
580		-1.953125
581		-11.718750
582		-3.906250
583		-15.625000
584		-5.859375
585		-17.578125
586		-9.765625
587		-21.484375
588		-13.671875
589		-25.390625
590		-17.578125
591		-27.343750
592		-19.531250
593		-29.296875
594		-23.437500
595		-31.250000
596		-27.343750
597		-37.109375
598		-31.250000
599		-39.062500
600		-31.250000
601		-42.968750
602		-33.203125
603		-44.921875
604		-37.109375
605		-46.875000
606		-39.062500
607		-48.828125
608		-41.015625
609		-50.781250
610		-42.968750
611		-50.781250
612		-46.875000
613		-52.734375
614		-48.828125
615		-56.640625
616		-50.781250
617		-58.593750
618		-50.781250
619		-58.593750
620		-52.734375
621		-60.546875
622		-52.734375
623		-62.500000
624		-54.687500
625		-62.500000
626		-54.687500
627		-62.500000
628		-56.640625
629		-60.546875
630		-58.593750
631		-62.500000
632		-56.640625
633		-64.453125
634		-56.640625
635		-62.500000
636		-56.640625
637		-62.500000
638		-56.640625
639		-62.500000
640		-54.687500
641		-62.500000
642		-54.687500
643		-60.546875
644		-52.734375
645		-56.640625
646		-54.687500
647		-56.640625
648		-52.734375
649		-56.640625
650		-48.828125
651		-56.640625
652		-46.875000
653		-52.734375
654		-44.921875
655		-50.781250
656		-42.968750
657		-50.781250
658		-41.015625
659		-46.875000
660		-39.062500
661		-44.921875
662		-39.062500
663		-41.015625
664		-35.156250
665		-37.109375
666		-31.250000
667		-37.109375
668		-29.296875
669		-35.156250
670		-25.390625
671		-31.250000
672		-23.437500
673		-27.343750
674		-19.531250
675		-25.390625
676		-15.625000
677		-21.484375
678		-13.671875
679		-15.625000
680		-11.718750
681		-11.718750
682		-7.812500
683		-11.718750
684		-1.953125
685		-7.812500
686		1.953125
687		-3.906250
688		3.906250
689		0.000000
690		7.812500
691		1.953125
692		11.718750
693		5.859375
694		15.625000
695		9.765625
696		17.578125
697		15.625000
698		19.531250
699		19.531250
700		25.390625
701		19.531250
702		29.296875
703		23.437500
704		33.203125
705		27.343750
706		35.156250
707		29.296875
708		39.062500
709		33.203125
710		42.968750
711		37.109375
712		42.968750
713		41.015625
714		46.875000
715		44.921875
716		50.781250
717		46.875000
718		54.687500
719		48.828125
720		56.640625
721		50.781250
722		58.593750
723		54.687500
724		62.500000
725		54.687500
726		64.453125
727		58.593750
728		66.406250
729		62.500000
730		66.406250
731		66.406250
732		68.359375
733		66.406250
734		74.218750
735		66.406250
736		74.218750
737		68.359375
738		76.171875
739		70.312500
740		78.125000
741		72.265625
742		80.078125
743		74.218750
744		80.078125
745		74.218750
746		80.078125
747		78.125000
748		80.078125
749		78.125000
750		83.984375
751		78.125000
752		83.984375
753		78.125000
754		83.984375
755		78.125000
756		85.937500
757		78.125000
758		85.937500
759		78.125000
760		85.937500
761		78.125000
762		85.937500
763		80.078125
764		82.031250
765		80.078125
766		82.031250
767		78.125000
768		83.984375
769		76.171875
770		83.984375
771		76.171875
772		82.031250
773		74.218750
774		82.031250
775		74.218750
776		82.031250
777		72.265625
778		80.078125
779		72.265625
780		78.125000
781		70.312500
782		74.218750
783		66.406250
784		74.218750
785		66.406250
786		74.218750
787		62.500000
788		70.312500
789		60.546875
790		68.359375
791		58.593750
792		66.406250
793		56.640625
794		64.453125
795		54.687500
796		62.500000
797		52.734375
798		56.640625
799		50.781250
800		54.687500
801		44.921875
802		54.687500
803		42.968750
804		50.781250
805		39.062500
806		46.875000
807		35.156250
808		44.921875
809		33.203125
810		41.015625
811		29.296875
812		39.062500
813		29.296875
814		33.203125
815		25.390625
816		29.296875
817		19.531250
818		27.343750
819		15.625000
820		25.390625
821		11.718750
822		21.484375
823		9.765625
824		17.578125
825		5.859375
826		13.671875
827		1.953125
828		9.765625
829		0.000000
830		7.812500
831		-3.906250
832		1.953125
833		-9.765625
834		-1.953125
835		-11.718750
836		-3.906250
837		-15.625000
838		-5.859375
839		-19.531250
840		-9.765625
841		-23.437500
842		-13.671875
843		-25.390625
844		-15.625000
845		-27.343750
846		-19.531250
847		-29.296875
848		-25.390625
849		-33.203125
850		-27.343750
851		-37.109375
852		-29.296875
853		-41.015625
854		-31.250000
855		-42.968750
856		-35.156250
857		-44.921875
858		-37.109375
859		-46.875000
860		-39.062500
861		-50.781250
862		-41.015625
863		-48.828125
864		-42.968750
865		-50.781250
866		-48.828125
867		-54.687500
868		-48.828125
869		-56.640625
870		-48.828125
871		-58.593750
872		-50.781250
873		-58.593750
874		-50.781250
875		-60.546875
876		-52.734375
877		-60.546875
878		-54.687500
879		-62.500000
880		-54.687500
881		-58.593750
882		-58.593750
883		-60.546875
884		-58.593750
885		-62.500000
886		-54.687500
887		-62.500000
888		-54.687500
889		-62.500000
890		-54.687500
891		-62.500000
892		-54.687500
893		-62.500000
894		-54.687500
895		-60.546875
896		-52.734375
897		-58.593750
898		-54.687500
899		-56.640625
900		-52.734375
901		-56.640625
902		-48.828125
903		-56.640625
904		-48.828125
905		-54.687500
906		-46.875000
907		-52.734375
908		-44.921875
909		-50.781250
910		-42.968750
911		-48.828125
912		-39.062500
913		-46.875000
914		-39.062500
915		-41.015625
916		-37.109375
917		-39.062500
918		-33.203125
919		-37.109375
920		-29.296875
921		-35.156250
922		-27.343750
923		-33.203125
924		-23.437500
925		-31.250000
926		-21.484375
927		-25.390625
928		-17.578125
929		-23.437500
930		-15.625000
931		-17.578125
932		-13.671875
933		-15.625000
934		-9.765625
935		-11.718750
936		-3.906250
937		-9.765625
938		0.000000
939		-7.812500
940		1.953125
941		-3.906250
942		5.859375
943		0.000000
944		9.765625
945		3.906250
946		13.671875
947		7.812500
948		13.671875
949		11.718750
950		17.578125
951		17.578125
952		23.437500
953		17.578125
954		27.343750
955		21.484375
956		31.250000
957		25.390625
958		33.203125
959		27.343750
960		37.109375
961		31.250000
962		41.015625
963		35.156250
964		42.968750
965		41.015625
966		44.921875
967		42.968750
968		46.875000
969		44.921875
970		52.734375
971		46.875000
972		56.640625
973		48.828125
974		58.593750
975		52.734375
976		60.546875
977		54.687500
978		62.500000
979		56.640625
980		66.406250
981		60.546875
982		66.406250
983		64.453125
984		68.359375
985		66.406250
986		72.265625
987		66.406250
988		74.218750
989		68.359375
990		76.171875
991		70.312500
992		78.125000
993		70.312500
994		78.125000
995		72.265625
996		80.078125
997		74.218750
998		80.078125
999		78.125000
1000		80.078125
1001		78.125000
1002		83.984375
1003		78.125000
1004		83.984375
1005		78.125000
1006		83.984375
1007		78.125000
1008		85.937500
1009		78.125000
1010		85.937500
1011		78.125000
1012		85.937500
1013		78.125000
1014		85.937500
1015		82.031250
1016		83.984375
1017		80.078125
1018		83.984375
1019		78.125000
1020		85.937500
1021		78.125000
1022		85.937500
1023		76.171875
1024		83.984375
1025		76.171875
1026		83.984375
1027		74.218750
1028		82.031250
1029		74.218750
1030		80.078125
1031		74.218750
1032		80.078125
1033		72.265625
1034		76.171875
1035		68.359375
1036		76.171875
1037		66.406250
1038		74.218750
1039		64.453125
1040		72.265625
1041		62.500000
1042		70.312500
1043		60.546875
1044		68.359375
1045		58.593750
1046		66.406250
1047		56.640625
1048		64.453125
1049		54.687500
1050		60.546875
1051		52.734375
1052		56.640625
1053		46.875000
1054		56.640625
1055		44.921875
1056		52.734375
1057		42.968750
1058		50.781250
1059		39.062500
1060		46.875000
1061		35.156250
1062		44.921875
1063		33.203125
1064		41.015625
1065		31.250000
1066		37.109375
1067		27.343750
1068		33.203125
1069		21.484375
1070		29.296875
1071		17.578125
1072		27.343750
1073		15.625000
1074		23.437500
1075		11.718750
1076		19.531250
1077		7.812500
1078		17.578125
1079		3.906250
1080		13.671875
1081		1.953125
1082		9.765625
1083		0.000000
1084		3.906250
1085		-5.859375
1086		1.953125
1087		-9.765625
1088		0.000000
1089		-13.671875
1090		-1.953125
1091		-15.625000
1092		-7.812500
1093		-19.531250
1094		-11.718750
1095		-21.484375
1096		-13.671875
1097		-25.390625
1098		-17.578125
1099		-27.343750
1100		-21.484375
1101		-29.296875
1102		-25.390625
1103		-35.156250
1104		-27.343750
1105		-37.109375
1106		-29.296875
1107		-41.015625
1108		-31.250000
1109		-42.968750
1110		-35.156250
1111		-44.921875
1112		-37.109375
1113		-48.828125
1114		-39.062500
1115		-48.828125
1116		-41.015625
1117		-48.828125
1118		-46.875000
1119		-52.734375
1120		-46.875000
1121		-54.687500
1122		-46.875000
1123		-56.640625
1124		-48.828125
1125		-58.593750
1126		-50.781250
1127		-58.593750
1128		-50.781250
1129		-60.546875
1130		-52.734375
1131		-60.546875
1132		-52.734375
1133		-58.593750
1134		-56.640625
1135		-58.593750
1136		-56.640625
1137		-62.500000
1138		-54.687500
1139		-62.500000
1140		-54.687500
1141		-62.500000
1142		-54.687500
1143		-62.500000
1144		-54.687500
1145		-60.546875
1146		-54.687500
1147		-60.546875
1148		-52.734375
1149		-58.593750
1150		-54.687500
1151		-56.640625
1152		-52.734375
1153		-56.640625
1154		-50.781250
1155		-56.640625
1156		-48.828125
1157		-54.687500
1158		-46.875000
1159		-52.734375
1160		-46.875000
1161		-50.781250
1162		-42.968750
1163		-48.828125
1164		-41.015625
1165		-46.875000
1166		-41.015625
1167		-42.968750
1168		-39.062500
1169		-41.015625
1170		-35.156250
1171		-39.062500
1172		-31.250000
1173		-37.109375
1174		-29.296875
1175		-35.156250
1176		-25.390625
1177		-31.250000
1178		-23.437500
1179		-29.296875
1180		-19.531250
1181		-25.390625
1182		-15.625000
1183		-19.531250
1184		-15.625000
1185		-17.578125
1186		-11.718750
1187		-13.671875
1188		-5.859375
1189		-11.718750
1190		-3.906250
1191		-7.812500
1192		0.000000
1193		-5.859375
1194		3.906250
1195		-1.953125
1196		7.812500
1197		1.953125
1198		11.718750
1199		3.906250
1200		11.718750
1201		11.718750
1202		15.625000
1203		15.625000
1204		21.484375
1205		15.625000
1206		25.390625
1207		19.531250
1208		29.296875
1209		23.437500
1210		31.250000
1211		27.343750
1212		35.156250
1213		29.296875
1214		39.062500
1215		33.203125
1216		41.015625
1217		39.062500
1218		42.968750
1219		41.015625
1220		46.875000
1221		42.968750
1222		50.781250
1223		44.921875
1224		54.687500
1225		48.828125
1226		56.640625
1227		50.781250
1228		58.593750
1229		52.734375
1230		60.546875
1231		54.687500
1232		64.453125
1233		58.593750
1234		64.453125
1235		62.500000
1236		66.406250
1237		64.453125
1238		70.312500
1239		64.453125
1240		72.265625
1241		66.406250
1242		74.218750
1243		68.359375
1244		76.171875
1245		70.312500
1246		78.125000
1247		72.265625
1248		80.078125
1249		74.218750
1250		80.078125
1251		78.125000
1252		80.078125
1253		78.125000
1254		82.031250
1255		76.171875
1256		83.984375
1257		76.171875
1258		83.984375
1259		78.125000
1260		83.984375
1261		78.125000
1262		85.937500
1263		78.125000
1264		85.937500
1265		78.125000
1266		85.937500
1267		82.031250
1268		83.984375
1269		82.031250
1270		83.984375
1271		78.125000
1272		85.937500
1273		78.125000
1274		85.937500
1275		78.125000
1276		83.984375
1277		76.171875
1278		83.984375
1279		76.171875
1280		83.984375
1281		74.218750
1282		82.031250
1283		74.218750
1284		80.078125
1285		74.218750
1286		76.171875
1287		70.312500
1288		76.171875
1289		68.359375
1290		76.171875
1291		66.406250
1292		74.218750
1293		64.453125
1294		72.265625
1295		62.500000
1296		70.312500
1297		60.546875
1298		68.359375
1299		58.593750
1300		66.406250
1301		56.640625
1302		60.546875
1303		54.687500
1304		58.593750
1305		50.781250
1306		58.593750
1307		46.875000
1308		54.687500
1309		42.968750
1310		52.734375
1311		41.015625
1312		50.781250
1313		37.109375
1314		46.875000
1315		33.203125
1316		42.968750
1317		33.203125
1318		41.015625
1319		29.296875
1320		35.156250
1321		23.437500
1322		31.250000
1323		21.484375
1324		29.296875
1325		17.578125
1326		27.343750
1327		13.671875
1328		23.437500
1329		11.718750
1330		19.531250
1331		7.812500
1332		15.625000
1333		3.906250
1334		11.718750
1335		1.953125
1336		7.812500
1337		-1.953125
1338		3.906250
1339		-7.812500
1340		1.953125
1341		-9.765625
1342		-1.953125
1343		-13.671875
1344		-3.906250
1345		-17.578125
1346		-7.812500
1347		-19.531250
1348		-11.718750
1349		-23.437500
1350		-15.625000
1351		-25.390625
1352		-19.531250
1353		-27.343750
1354		-23.437500
1355		-33.203125
1356		-25.390625
1357		-35.156250
1358		-27.343750
1359		-39.062500
1360		-29.296875
1361		-41.015625
1362		-33.203125
1363		-42.968750
1364		-35.156250
1365		-46.875000
1366		-39.062500
1367		-46.875000
1368		-41.015625
1369		-48.828125
1370		-44.921875
1371		-52.734375
1372		-44.921875
1373		-54.687500
1374		-46.875000
1375		-54.687500
1376		-48.828125
1377		-56.640625
1378		-48.828125
1379		-58.593750
1380		-50.781250
1381		-58.593750
1382		-52.734375
1383		-60.546875
1384		-52.734375
1385		-58.593750
1386		-56.640625
1387		-58.593750
1388		-56.640625
1389		-62.500000
1390		-54.687500
1391		-62.500000
1392		-54.687500
1393		-62.500000
1394		-54.687500
1395		-62.500000
1396		-54.687500
1397		-60.546875
1398		-54.687500
1399		-60.546875
1400		-52.734375
1401		-60.546875
1402		-54.687500
1403		-58.593750
1404		-54.687500
1405		-58.593750
1406		-50.781250
1407		-56.640625
1408		-48.828125
1409		-56.640625
1410		-48.828125
1411		-54.687500
1412		-46.875000
1413		-52.734375
1414		-44.921875
1415		-50.781250
1416		-42.968750
1417		-48.828125
1418		-41.015625
1419		-44.921875
1420		-41.015625
1421		-42.968750
1422		-37.109375
1423		-41.015625
1424		-33.203125
1425		-39.062500
1426		-31.250000
1427		-35.156250
1428		-27.343750
1429		-33.203125
1430		-25.390625
1431		-31.250000
1432		-21.484375
1433		-27.343750
1434		-19.531250
1435		-21.484375
1436		-17.578125
1437		-19.531250
1438		-13.671875
1439		-15.625000
1440		-7.812500
1441		-15.625000
1442		-5.859375
1443		-11.718750
1444		-1.953125
1445		-7.812500
1446		1.953125
1447		-3.906250
1448		5.859375
1449		0.000000
1450		9.765625
1451		1.953125
1452		9.765625
1453		7.812500
1454		13.671875
1455		11.718750
1456		19.531250
1457		13.671875
1458		23.437500
1459		15.625000
1460		25.390625
1461		21.484375
1462		29.296875
1463		23.437500
1464		33.203125
1465		27.343750
1466		37.109375
1467		31.250000
1468		39.062500
1469		35.156250
1470		41.015625
1471		39.062500
1472		42.968750
1473		41.015625
1474		48.828125
1475		42.968750
1476		52.734375
1477		46.875000
1478		54.687500
1479		48.828125
1480		56.640625
1481		50.781250
1482		60.546875
1483		54.687500
1484		62.500000
1485		56.640625
1486		62.500000
1487		62.500000
1488		66.406250
1489		62.500000
1490		68.359375
1491		64.453125
1492		72.265625
1493		66.406250
1494		74.218750
1495		68.359375
1496		76.171875
1497		70.312500
1498		78.125000
1499		70.312500
1500		78.125000
1501		72.265625
1502		80.078125
1503		76.171875
1504		78.125000
1505		76.171875
1506		82.031250
1507		76.171875
1508		83.984375
1509		76.171875
1510		83.984375
1511		78.125000
1512		85.937500
1513		78.125000
1514		85.937500
1515		78.125000
1516		85.937500
1517		78.125000
1518		85.937500
1519		80.078125
1520		83.984375
1521		82.031250
1522		83.984375
1523		78.125000
1524		85.937500
1525		78.125000
1526		85.937500
1527		78.125000
1528		85.937500
1529		76.171875
1530		83.984375
1531		76.171875
1532		83.984375
1533		76.171875
1534		82.031250
1535		74.218750
1536		82.031250
1537		74.218750
1538		78.125000
1539		72.265625
1540		78.125000
1541		70.312500
1542		76.171875
1543		68.359375
1544		76.171875
1545		66.406250
1546		74.218750
1547		64.453125
1548		72.265625
1549		60.546875
1550		70.312500
1551		58.593750
1552		68.359375
1553		58.593750
1554		62.500000
1555		56.640625
1556		60.546875
1557		50.781250
1558		58.593750
1559		48.828125
1560		56.640625
1561		46.875000
1562		54.687500
1563		42.968750
1564		52.734375
1565		39.062500
1566		48.828125
1567		37.109375
1568		44.921875
1569		35.156250
1570		42.968750
1571		33.203125
1572		37.109375
1573		27.343750
1574		33.203125
1575		23.437500
1576		33.203125
1577		19.531250
1578		29.296875
1579		15.625000
1580		25.390625
1581		11.718750
1582		21.484375
1583		9.765625
1584		19.531250
1585		7.812500
1586		15.625000
1587		3.906250
1588		9.765625
1589		0.000000
1590		5.859375
1591		-3.906250
1592		3.906250
1593		-7.812500
1594		0.000000
1595		-11.718750
1596		-1.953125
1597		-13.671875
1598		-5.859375
1599		-17.578125
1600		-9.765625
1601		-21.484375
1602		-11.718750
1603		-23.437500
1604		-17.578125
1605		-25.390625
1606		-21.484375
1607		-31.250000
1608		-23.437500
1609		-33.203125
1610		-25.390625
1611		-37.109375
1612		-27.343750
1613		-39.062500
1614		-31.250000
1615		-42.968750
1616		-33.203125
1617		-44.921875
1618		-35.156250
1619		-44.921875
1620		-39.062500
1621		-46.875000
1622		-42.968750
1623		-48.828125
1624		-44.921875
1625		-52.734375
1626		-44.921875
1627		-54.687500
1628		-46.875000
1629		-56.640625
1630		-48.828125
1631		-58.593750
1632		-50.781250
1633		-58.593750
1634		-50.781250
1635		-60.546875
1636		-52.734375
1637		-58.593750
1638		-54.687500
1639		-58.593750
1640		-56.640625
1641		-62.500000
1642		-54.687500
1643		-62.500000
1644		-54.687500
1645		-62.500000
1646		-54.687500
1647		-62.500000
1648		-54.687500
1649		-62.500000
1650		-54.687500
1651		-62.500000
1652		-52.734375
1653		-60.546875
1654		-54.687500
1655		-58.593750
1656		-54.687500
1657		-58.593750
1658		-52.734375
1659		-58.593750
1660		-50.781250
1661		-56.640625
1662		-48.828125
1663		-56.640625
1664		-48.828125
1665		-54.687500
1666		-46.875000
1667		-52.734375
1668		-42.968750
1669		-50.781250
1670		-42.968750
1671		-46.875000
1672		-42.968750
1673		-42.968750
1674		-39.062500
1675		-42.968750
1676		-35.156250
1677		-41.015625
1678		-33.203125
1679		-39.062500
1680		-29.296875
1681		-35.156250
1682		-27.343750
1683		-33.203125
1684		-23.437500
1685		-29.296875
1686		-21.484375
1687		-27.343750
1688		-19.531250
1689		-21.484375
1690		-15.625000
1691		-17.578125
1692		-11.718750
1693		-17.578125
1694		-7.812500
1695		-13.671875
1696		-3.906250
1697		-9.765625
1698		0.000000
1699		-5.859375
1700		1.953125
1701		-3.906250
1702		5.859375
1703		0.000000
1704		7.812500
1705		5.859375
1706		11.718750
1707		9.765625
1708		15.625000
1709		11.718750
1710		19.531250
1711		13.671875
1712		23.437500
1713		17.578125
1714		27.343750
1715		21.484375
1716		31.250000
1717		23.437500
1718		33.203125
1719		27.343750
1720		37.109375
1721		33.203125
1722		39.062500
1723		37.109375
1724		41.015625
1725		39.062500
1726		46.875000
1727		41.015625
1728		50.781250
1729		42.968750
1730		52.734375
1731		46.875000
1732		54.687500
1733		48.828125
1734		58.593750
1735		52.734375
1736		60.546875
1737		54.687500
1738		60.546875
1739		60.546875
1740		64.453125
1741		62.500000
1742		68.359375
1743		62.500000
1744		70.312500
1745		64.453125
1746		72.265625
1747		66.406250
1748		74.218750
1749		68.359375
1750		76.171875
1751		70.312500
1752		78.125000
1753		70.312500
1754		78.125000
1755		76.171875
1756		78.125000
1757		76.171875
1758		80.078125
1759		76.171875
1760		82.031250
1761		78.125000
1762		82.031250
1763		78.125000
1764		83.984375
1765		78.125000
1766		83.984375
1767		78.125000
1768		83.984375
1769		80.078125
1770		85.937500
1771		80.078125
1772		85.937500
1773		82.031250
1774		83.984375
1775		80.078125
1776		85.937500
1777		80.078125
1778		85.937500
1779		78.125000
1780		85.937500
1781		78.125000
1782		85.937500
1783		76.171875
1784		83.984375
1785		76.171875
1786		83.984375
1787		76.171875
1788		82.031250
1789		76.171875
1790		78.125000
1791		74.218750
1792		78.125000
1793		70.312500
1794		78.125000
1795		68.359375
1796		76.171875
1797		66.406250
1798		76.171875
1799		66.406250
1800		74.218750
1801		64.453125
1802		70.312500
1803		60.546875
1804		68.359375
1805		60.546875
1806		64.453125
1807		58.593750
1808		62.500000
1809		52.734375
1810		60.546875
1811		50.781250
1812		58.593750
1813		48.828125
1814		56.640625
1815		44.921875
1816		52.734375
1817		42.968750
1818		50.781250
1819		39.062500
1820		46.875000
1821		37.109375
1822		44.921875
1823		35.156250
1824		39.062500
1825		29.296875
1826		37.109375
1827		25.390625
1828		35.156250
1829		21.484375
1830		31.250000
1831		19.531250
1832		27.343750
1833		15.625000
1834		25.390625
1835		11.718750
1836		21.484375
1837		9.765625
1838		17.578125
1839		7.812500
1840		11.718750
1841		3.906250
1842		7.812500
1843		-1.953125
1844		5.859375
1845		-5.859375
1846		3.906250
1847		-7.812500
1848		0.000000
1849		-11.718750
1850		-3.906250
1851		-15.625000
1852		-7.812500
1853		-19.531250
1854		-9.765625
1855		-19.531250
1856		-13.671875
1857		-23.437500
1858		-19.531250
1859		-29.296875
1860		-21.484375
1861		-31.250000
1862		-23.437500
1863		-35.156250
1864		-25.390625
1865		-37.109375
1866		-29.296875
1867		-39.062500
1868		-31.250000
1869		-41.015625
1870		-33.203125
1871		-44.921875
1872		-37.109375
1873		-44.921875
1874		-41.015625
1875		-48.828125
1876		-42.968750
1877		-50.781250
1878		-42.968750
1879		-52.734375
1880		-44.921875
1881		-54.687500
1882		-46.875000
1883		-56.640625
1884		-48.828125
1885		-56.640625
1886		-50.781250
1887		-60.546875
1888		-50.781250
1889		-56.640625
1890		-54.687500
1891		-58.593750
1892		-54.687500
1893		-62.500000
1894		-54.687500
1895		-62.500000
1896		-54.687500
1897		-62.500000
1898		-54.687500
1899		-62.500000
1900		-54.687500
1901		-62.500000
1902		-54.687500
1903		-62.500000
1904		-54.687500
1905		-60.546875
1906		-54.687500
1907		-58.593750
1908		-56.640625
1909		-58.593750
1910		-52.734375
1911		-58.593750
1912		-52.734375
1913		-56.640625
1914		-50.781250
1915		-56.640625
1916		-48.828125
1917		-54.687500
1918		-46.875000
1919		-54.687500
1920		-44.921875
1921		-50.781250
1922		-44.921875
1923		-46.875000
1924		-42.968750
1925		-44.921875
1926		-41.015625
1927		-44.921875
1928		-37.109375
1929		-42.968750
1930		-35.156250
1931		-41.015625
1932		-31.250000
1933		-37.109375
1934		-29.296875
1935		-35.156250
1936		-25.390625
1937		-31.250000
1938		-23.437500
1939		-27.343750
1940		-21.484375
1941		-23.437500
1942		-19.531250
1943		-19.531250
1944		-13.671875
1945		-19.531250
1946		-9.765625
1947		-15.625000
1948		-5.859375
1949		-11.718750
1950		-3.906250
1951		-9.765625
1952		0.000000
1953		-5.859375
1954		3.906250
1955		-1.953125
1956		5.859375
1957		3.906250
1958		7.812500
1959		7.812500
1960		13.671875
1961		7.812500
1962		17.578125
1963		11.718750
1964		21.484375
1965		15.625000
1966		25.390625
1967		19.531250
1968		27.343750
1969		23.437500
1970		31.250000
1971		25.390625
1972		35.156250
1973		31.250000
1974		35.156250
1975		35.156250
1976		39.062500
1977		37.109375
1978		44.921875
1979		39.062500
1980		48.828125
1981		42.968750
1982		50.781250
1983		44.921875
1984		52.734375
1985		46.875000
1986		54.687500
1987		50.781250
1988		58.593750
1989		54.687500
1990		58.593750
1991		58.593750
1992		62.500000
1993		60.546875
1994		66.406250
1995		60.546875
1996		68.359375
1997		62.500000
1998		70.312500
1999		64.453125
2000		72.265625
2001		68.359375
2002		74.218750
2003		70.312500
2004		76.171875
2005		70.312500
2006		76.171875
2007		74.218750
2008		78.125000
2009		76.171875
2010		78.125000
2011		76.171875
2012		82.031250
2013		76.171875
2014		82.031250
2015		76.171875
2016		83.984375
2017		78.125000
2018		85.937500
2019		78.125000
2020		85.937500
2021		80.078125
2022		85.937500
2023		82.031250
2024		83.984375
2025		82.031250
2026		83.984375
2027		80.078125
2028		83.984375
2029		78.125000
2030		85.937500
2031		78.125000
2032		85.937500
2033		78.125000
2034		85.937500
2035		76.171875
2036		83.984375
2037		76.171875
2038		83.984375
2039		76.171875
2040		82.031250
2041		76.171875
2042		80.078125
2043		76.171875
2044		78.125000
2045		74.218750
2046		78.125000
2047		70.312500
2048		78.125000
2049		68.359375
2050		74.218750
2051		68.359375
2052		74.218750
2053		66.406250
2054		70.312500
2055		62.500000
2056		68.359375
2057		62.500000
2058		66.406250
2059		60.546875
2060		64.453125
2061		56.640625
2062		62.500000
2063		52.734375
2064		60.546875
2065		50.781250
2066		58.593750
2067		48.828125
2068		54.687500
2069		46.875000
2070		52.734375
2071		42.968750
2072		46.875000
2073		41.015625
2074		44.921875
2075		37.109375
2076		42.968750
2077		33.203125
2078		39.062500
2079		29.296875
2080		35.156250
2081		27.343750
2082		31.250000
2083		23.437500
2084		29.296875
2085		19.531250
2086		25.390625
2087		15.625000
2088		21.484375
2089		13.671875
2090		17.578125
2091		9.765625
2092		15.625000
2093		5.859375
2094		11.718750
2095		1.953125
2096		9.765625
2097		0.000000
2098		3.906250
2099		-5.859375
2100		1.953125
2101		-7.812500
2102		-1.953125
2103		-11.718750
2104		-5.859375
2105		-15.625000
2106		-9.765625
2107		-17.578125
2108		-11.718750
2109		-21.484375
2110		-15.625000
2111		-25.390625
2112		-19.531250
2113		-27.343750
2114		-23.437500
2115		-31.250000
2116		-25.390625
2117		-33.203125
2118		-29.296875
2119		-35.156250
2120		-31.250000
2121		-39.062500
2122		-33.203125
2123		-41.015625
2124		-37.109375
2125		-42.968750
2126		-39.062500
2127		-44.921875
2128		-42.968750
2129		-48.828125
2130		-42.968750
2131		-50.781250
2132		-44.921875
2133		-50.781250
2134		-48.828125
2135		-54.687500
2136		-48.828125
2137		-54.687500
2138		-50.781250
2139		-56.640625
2140		-52.734375
2141		-56.640625
2142		-52.734375
2143		-58.593750
2144		-54.687500
2145		-60.546875
2146		-54.687500
2147		-60.546875
2148		-56.640625
2149		-58.593750
2150		-56.640625
2151		-60.546875
2152		-56.640625
2153		-60.546875
2154		-56.640625
2155		-60.546875
2156		-56.640625
2157		-60.546875
2158		-56.640625
2159		-58.593750
2160		-56.640625
2161		-58.593750
2162		-54.687500
2163		-58.593750
2164		-54.687500
2165		-56.640625
2166		-52.734375
2167		-54.687500
2168		-52.734375
2169		-54.687500
2170		-50.781250
2171		-52.734375
2172		-48.828125
2173		-50.781250
2174		-46.875000
2175		-48.828125
2176		-44.921875
2177		-46.875000
2178		-42.968750
2179		-44.921875
2180		-41.015625
2181		-42.968750
2182		-39.062500
2183		-41.015625
2184		-35.156250
2185		-37.109375
2186		-33.203125
2187		-35.156250
2188		-29.296875
2189		-31.250000
2190		-25.390625
2191		-29.296875
2192		-23.437500
2193		-25.390625
2194		-21.484375
2195		-21.484375
2196		-17.578125
2197		-19.531250
2198		-13.671875
2199		-15.625000
2200		-11.718750
2201		-11.718750
2202		-7.812500
2203		-9.765625
2204		-3.906250
2205		-5.859375
2206		0.000000
2207		-1.953125
2208		1.953125
2209		1.953125
2210		5.859375
2211		3.906250
2212		9.765625
2213		7.812500
2214		13.671875
2215		11.718750
2216		17.578125
2217		15.625000
2218		19.531250
2219		19.531250
2220		23.437500
2221		21.484375
2222		27.343750
2223		25.390625
2224		31.250000
2225		29.296875
2226		33.203125
2227		33.203125
2228		37.109375
2229		35.156250
2230		41.015625
2231		39.062500
2232		42.968750
2233		42.968750
2234		46.875000
2235		44.921875
2236		48.828125
2237		48.828125
2238		52.734375
2239		50.781250
2240		54.687500
2241		52.734375
2242		58.593750
2243		56.640625
2244		60.546875
2245		58.593750
2246		64.453125
2247		60.546875
2248		66.406250
2249		62.500000
2250		68.359375
2251		64.453125
2252		70.312500
2253		68.359375
2254		70.312500
2255		68.359375
2256		74.218750
2257		72.265625
2258		76.171875
2259		72.265625
2260		76.171875
2261		74.218750
2262		78.125000
2263		74.218750
2264		80.078125
2265		78.125000
2266		80.078125
2267		78.125000
2268		82.031250
2269		78.125000
2270		82.031250
2271		80.078125
2272		82.031250
2273		80.078125
2274		83.984375
2275		80.078125
2276		83.984375
2277		82.031250
2278		83.984375
2279		80.078125
2280		83.984375
2281		80.078125
2282		83.984375
2283		80.078125
2284		83.984375
2285		80.078125
2286		83.984375
2287		80.078125
2288		83.984375
2289		78.125000
2290		82.031250
2291		78.125000
2292		82.031250
2293		78.125000
2294		80.078125
2295		76.171875
2296		80.078125
2297		74.218750
2298		80.078125
2299		72.265625
2300		76.171875
2301		72.265625
2302		76.171875
2303		70.312500
2304		74.218750
2305		68.359375
2306		72.265625
2307		66.406250
2308		70.312500
2309		64.453125
2310		68.359375
2311		62.500000
2312		66.406250
2313		58.593750
2314		62.500000
2315		56.640625
2316		60.546875
2317		54.687500
2318		58.593750
2319		50.781250
2320		56.640625
2321		48.828125
2322		52.734375
2323		44.921875
2324		50.781250
2325		42.968750
2326		46.875000
2327		39.062500
2328		42.968750
2329		35.156250
2330		41.015625
2331		31.250000
2332		37.109375
2333		29.296875
2334		33.203125
2335		25.390625
2336		31.250000
2337		23.437500
2338		27.343750
2339		19.531250
2340		25.390625
2341		13.671875
2342		19.531250
2343		11.718750
2344		17.578125
2345		7.812500
2346		13.671875
2347		3.906250
2348		9.765625
2349		1.953125
2350		5.859375
2351		-1.953125
2352		3.906250
2353		-5.859375
2354		0.000000
2355		-9.765625
2356		-3.906250
2357		-11.718750
2358		-7.812500
2359		-15.625000
2360		-9.765625
2361		-19.531250
2362		-13.671875
2363		-23.437500
2364		-17.578125
2365		-25.390625
2366		-21.484375
2367		-29.296875
2368		-23.437500
2369		-31.250000
2370		-27.343750
2371		-35.156250
2372		-29.296875
2373		-37.109375
2374		-31.250000
2375		-39.062500
2376		-35.156250
2377		-41.015625
2378		-37.109375
2379		-44.921875
2380		-41.015625
2381		-46.875000
2382		-42.968750
2383		-48.828125
2384		-44.921875
2385		-50.781250
2386		-46.875000
2387		-52.734375
2388		-48.828125
2389		-52.734375
2390		-50.781250
2391		-54.687500
2392		-50.781250
2393		-56.640625
2394		-52.734375
2395		-56.640625
2396		-54.687500
2397		-58.593750
2398		-54.687500
2399		-58.593750
2400		-54.687500
2401		-60.546875
2402		-56.640625
2403		-60.546875
2404		-56.640625
2405		-60.546875
2406		-56.640625
2407		-60.546875
2408		-56.640625
2409		-60.546875
2410		-56.640625
2411		-58.593750
2412		-56.640625
2413		-58.593750
2414		-54.687500
2415		-58.593750
2416		-54.687500
2417		-56.640625
2418		-54.687500
2419		-56.640625
2420		-52.734375
2421		-54.687500
2422		-50.781250
2423		-52.734375
2424		-48.828125
2425		-50.781250
2426		-46.875000
2427		-48.828125
2428		-44.921875
2429		-46.875000
2430		-44.921875
2431		-46.875000
2432		-41.015625
2433		-42.968750
2434		-39.062500
2435		-41.015625
2436		-37.109375
2437		-39.062500
2438		-35.156250
2439		-37.109375
2440		-31.250000
2441		-33.203125
2442		-29.296875
2443		-31.250000
2444		-25.390625
2445		-27.343750
2446		-23.437500
2447		-23.437500
2448		-19.531250
2449		-21.484375
2450		-17.578125
2451		-17.578125
2452		-11.718750
2453		-15.625000
2454		-9.765625
2455		-11.718750
2456		-5.859375
2457		-7.812500
2458		-1.953125
2459		-3.906250
2460		0.000000
2461		-1.953125
2462		3.906250
2463		1.953125
2464		7.812500
2465		5.859375
2466		11.718750
2467		9.765625
2468		15.625000
2469		13.671875
2470		17.578125
2471		17.578125
2472		21.484375
2473		19.531250
2474		25.390625
2475		23.437500
2476		29.296875
2477		25.390625
2478		31.250000
2479		31.250000
2480		35.156250
2481		33.203125
2482		39.062500
2483		37.109375
2484		42.968750
2485		39.062500
2486		44.921875
2487		42.968750
2488		48.828125
2489		46.875000
2490		50.781250
2491		48.828125
2492		54.687500
2493		52.734375
2494		56.640625
2495		54.687500
2496		58.593750
2497		56.640625
2498		62.500000
2499		60.546875
2500		64.453125
2501		62.500000
2502		66.406250
2503		64.453125
2504		68.359375
2505		66.406250
2506		70.312500
2507		68.359375
2508		72.265625
2509		70.312500
2510		74.218750
2511		72.265625
2512		76.171875
2513		74.218750
2514		76.171875
2515		74.218750
2516		80.078125
2517		76.171875
2518		80.078125
2519		78.125000
2520		82.031250
2521		78.125000
2522		82.031250
2523		80.078125
2524		82.031250
2525		80.078125
2526		83.984375
2527		80.078125
2528		83.984375
2529		82.031250
2530		83.984375
2531		80.078125
2532		85.937500
2533		82.031250
2534		83.984375
2535		82.031250
2536		83.984375
2537		82.031250
2538		83.984375
2539		80.078125
2540		83.984375
2541		80.078125
2542		83.984375
2543		78.125000
2544		82.031250
2545		78.125000
2546		82.031250
2547		78.125000
2548		80.078125
2549		76.171875
2550		80.078125
2551		74.218750
2552		80.078125
2553		74.218750
2554		76.171875
2555		72.265625
2556		76.171875
2557		70.312500
2558		74.218750
2559		68.359375
2560		72.265625
2561		66.406250
2562		70.312500
2563		64.453125
2564		68.359375
2565		60.546875
2566		64.453125
2567		58.593750
2568		62.500000
2569		56.640625
2570		60.546875
2571		54.687500
2572		58.593750
2573		50.781250
2574		54.687500
2575		46.875000
2576		52.734375
2577		44.921875
2578		48.828125
2579		42.968750
2580		46.875000
2581		37.109375
2582		42.968750
2583		35.156250
2584		41.015625
2585		31.250000
2586		37.109375
2587		29.296875
2588		33.203125
2589		25.390625
2590		31.250000
2591		21.484375
2592		27.343750
2593		17.578125
2594		23.437500
2595		15.625000
2596		19.531250
2597		11.718750
2598		17.578125
2599		7.812500
2600		13.671875
2601		3.906250
2602		9.765625
2603		1.953125
2604		5.859375
2605		-1.953125
2606		1.953125
2607		-5.859375
2608		-1.953125
2609		-9.765625
2610		-3.906250
2611		-11.718750
2612		-7.812500
2613		-15.625000
2614		-11.718750
2615		-19.531250
2616		-13.671875
2617		-23.437500
2618		-17.578125
2619		-25.390625
2620		-21.484375
2621		-29.296875
2622		-23.437500
2623		-31.250000
2624		-27.343750
2625		-35.156250
2626		-29.296875
2627		-37.109375
2628		-33.203125
2629		-39.062500
2630		-35.156250
2631		-41.015625
2632		-39.062500
2633		-44.921875
2634		-39.062500
2635		-46.875000
2636		-42.968750
2637		-48.828125
2638		-44.921875
2639		-50.781250
2640		-46.875000
2641		-52.734375
2642		-48.828125
2643		-54.687500
2644		-50.781250
2645		-54.687500
2646		-50.781250
2647		-56.640625
2648		-52.734375
2649		-58.593750
2650		-54.687500
2651		-58.593750
2652		-54.687500
2653		-58.593750
2654		-54.687500
2655		-58.593750
2656		-54.687500
2657		-60.546875
2658		-56.640625
2659		-60.546875
2660		-56.640625
2661		-60.546875
2662		-56.640625
2663		-58.593750
2664		-56.640625
2665		-58.593750
2666		-56.640625
2667		-58.593750
2668		-54.687500
2669		-58.593750
2670		-54.687500
2671		-56.640625
2672		-52.734375
2673		-54.687500
2674		-52.734375
2675		-54.687500
2676		-48.828125
2677		-52.734375
2678		-46.875000
2679		-50.781250
2680		-46.875000
2681		-50.781250
2682		-44.921875
2683		-46.875000
2684		-42.968750
2685		-44.921875
2686		-41.015625
2687		-42.968750
2688		-39.062500
2689		-41.015625
2690		-37.109375
2691		-37.109375
2692		-33.203125
2693		-35.156250
2694		-31.250000
2695		-33.203125
2696		-27.343750
2697		-29.296875
2698		-25.390625
2699		-27.343750
2700		-21.484375
2701		-25.390625
2702		-19.531250
2703		-19.531250
2704		-15.625000
2705		-17.578125
2706		-11.718750
2707		-13.671875
2708		-7.812500
2709		-9.765625
2710		-5.859375
2711		-7.812500
2712		-1.953125
2713		-3.906250
2714		1.953125
2715		0.000000
2716		5.859375
2717		3.906250
2718		9.765625
2719		7.812500
2720		11.718750
2721		9.765625
2722		15.625000
2723		13.671875
2724		19.531250
2725		17.578125
2726		23.437500
2727		21.484375
2728		27.343750
2729		23.437500
2730		29.296875
2731		27.343750
2732		33.203125
2733		31.250000
2734		37.109375
2735		35.156250
2736		39.062500
2737		37.109375
2738		42.968750
2739		41.015625
2740		46.875000
2741		42.968750
2742		48.828125
2743		46.875000
2744		52.734375
2745		50.781250
2746		54.687500
2747		52.734375
2748		56.640625
2749		54.687500
2750		58.593750
2751		58.593750
2752		62.500000
2753		60.546875
2754		64.453125
2755		62.500000
2756		66.406250
2757		64.453125
2758		68.359375
2759		68.359375
2760		70.312500
2761		70.312500
2762		74.218750
2763		70.312500
2764		74.218750
2765		72.265625
2766		76.171875
2767		74.218750
2768		78.125000
2769		76.171875
2770		80.078125
2771		78.125000
2772		82.031250
2773		78.125000
2774		82.031250
2775		78.125000
2776		82.031250
2777		80.078125
2778		83.984375
2779		80.078125
2780		83.984375
2781		80.078125
2782		83.984375
2783		80.078125
2784		83.984375
2785		82.031250
2786		83.984375
2787		82.031250
2788		83.984375
2789		82.031250
2790		83.984375
2791		80.078125
2792		83.984375
2793		80.078125
2794		83.984375
2795		80.078125
2796		83.984375
2797		80.078125
2798		82.031250
2799		78.125000
2800		82.031250
2801		76.171875
2802		82.031250
2803		76.171875
2804		78.125000
2805		74.218750
2806		78.125000
2807		72.265625
2808		76.171875
2809		70.312500
2810		74.218750
2811		68.359375
2812		72.265625
2813		66.406250
2814		72.265625
2815		64.453125
2816		68.359375
2817		62.500000
2818		66.406250
2819		60.546875
2820		64.453125
2821		58.593750
2822		62.500000
2823		54.687500
2824		60.546875
2825		52.734375
2826		56.640625
2827		48.828125
2828		54.687500
2829		46.875000
2830		52.734375
2831		42.968750
2832		48.828125
2833		41.015625
2834		44.921875
2835		37.109375
2836		42.968750
2837		33.203125
2838		39.062500
2839		31.250000
2840		35.156250
2841		27.343750
2842		33.203125
2843		23.437500
2844		29.296875
2845		21.484375
2846		25.390625
2847		17.578125
2848		23.437500
2849		13.671875
2850		17.578125
2851		9.765625
2852		15.625000
2853		5.859375
2854		11.718750
2855		3.906250
2856		7.812500
2857		0.000000
2858		5.859375
2859		-3.906250
2860		1.953125
2861		-7.812500
2862		-1.953125
2863		-11.718750
2864		-5.859375
2865		-13.671875
2866		-9.765625
2867		-19.531250
2868		-11.718750
2869		-21.484375
2870		-15.625000
2871		-23.437500
2872		-19.531250
2873		-27.343750
2874		-21.484375
2875		-31.250000
2876		-25.390625
2877		-33.203125
2878		-27.343750
2879		-37.109375
2880		-31.250000
2881		-39.062500
2882		-35.156250
2883		-41.015625
2884		-37.109375
2885		-44.921875
2886		-39.062500
2887		-44.921875
2888		-41.015625
2889		-48.828125
2890		-42.968750
2891		-50.781250
2892		-46.875000
2893		-52.734375
2894		-46.875000
2895		-52.734375
2896		-50.781250
2897		-54.687500
2898		-50.781250
2899		-56.640625
2900		-52.734375
2901		-56.640625
2902		-54.687500
2903		-58.593750
2904		-54.687500
2905		-58.593750
2906		-56.640625
2907		-58.593750
2908		-56.640625
2909		-60.546875
2910		-56.640625
2911		-60.546875
2912		-56.640625
2913		-60.546875
2914		-56.640625
2915		-60.546875
2916		-56.640625
2917		-60.546875
2918		-56.640625
2919		-60.546875
2920		-56.640625
2921		-58.593750
2922		-54.687500
2923		-58.593750
2924		-54.687500
2925		-56.640625
2926		-52.734375
2927		-56.640625
2928		-52.734375
2929		-54.687500
2930		-50.781250
2931		-54.687500
2932		-48.828125
2933		-50.781250
2934		-46.875000
2935		-48.828125
2936		-44.921875
2937		-46.875000
2938		-42.968750
2939		-44.921875
2940		-41.015625
2941		-42.968750
2942		-39.062500
2943		-41.015625
2944		-35.156250
2945		-39.062500
2946		-33.203125
2947		-35.156250
2948		-31.250000
2949		-31.250000
2950		-27.343750
2951		-29.296875
2952		-23.437500
2953		-25.390625
2954		-21.484375
2955		-23.437500
2956		-17.578125
2957		-19.531250
2958		-15.625000
2959		-15.625000
2960		-11.718750
2961		-13.671875
2962		-7.812500
2963		-9.765625
2964		-3.906250
2965		-5.859375
2966		-1.953125
2967		-1.953125
2968		1.953125
2969		0.000000
2970		5.859375
2971		3.906250
2972		9.765625
2973		7.812500
2974		13.671875
2975		11.718750
2976		15.625000
2977		13.671875
2978		19.531250
2979		17.578125
2980		23.437500
2981		21.484375
2982		27.343750
2983		25.390625
2984		29.296875
2985		29.296875
2986		35.156250
2987		31.250000
2988		37.109375
2989		35.156250
2990		41.015625
2991		39.062500
2992		42.968750
2993		41.015625
2994		46.875000
2995		44.921875
2996		48.828125
2997		46.875000
2998		52.734375
2999		50.781250
3000		54.687500
3001		52.734375
3002		56.640625
3003		54.687500
3004		60.546875
3005		58.593750
3006		62.500000
3007		60.546875
3008		64.453125
3009		62.500000
3010		66.406250
3011		66.406250
3012		68.359375
3013		68.359375
3014		72.265625
3015		68.359375
3016		74.218750
3017		70.312500
3018		74.218750
3019		72.265625
3020		76.171875
3021		74.218750
3022		78.125000
3023		76.171875
3024		80.078125
3025		78.125000
3026		80.078125
3027		78.125000
3028		80.078125
3029		78.125000
3030		82.031250
3031		78.125000
3032		83.984375
3033		80.078125
3034		83.984375
3035		82.031250
3036		83.984375
3037		80.078125
3038		83.984375
3039		82.031250
3040		83.984375
3041		82.031250
3042		83.984375
3043		80.078125
3044		83.984375
3045		80.078125
3046		83.984375
3047		78.125000
3048		83.984375
3049		80.078125
3050		82.031250
3051		78.125000
3052		82.031250
3053		76.171875
3054		80.078125
3055		76.171875
3056		80.078125
3057		74.218750
3058		78.125000
3059		74.218750
3060		76.171875
3061		72.265625
3062		76.171875
3063		70.312500
3064		74.218750
3065		68.359375
3066		72.265625
3067		66.406250
3068		70.312500
3069		64.453125
3070		68.359375
3071		62.500000
3072		66.406250
3073		58.593750
3074		64.453125
3075		56.640625
3076		60.546875
3077		52.734375
3078		58.593750
3079		50.781250
3080		56.640625
3081		48.828125
3082		52.734375
3083		44.921875
3084		50.781250
3085		42.968750
3086		46.875000
3087		39.062500
3088		44.921875
3089		35.156250
3090		41.015625
3091		33.203125
3092		37.109375
3093		29.296875
3094		35.156250
3095		27.343750
3096		31.250000
3097		21.484375
3098		27.343750
3099		19.531250
3100		25.390625
3101		15.625000
3102		21.484375
3103		11.718750
3104		17.578125
3105		7.812500
3106		13.671875
3107		5.859375
3108		9.765625
3109		1.953125
3110		7.812500
3111		-1.953125
3112		3.906250
3113		-5.859375
3114		0.000000
3115		-9.765625
3116		-3.906250
3117		-11.718750
3118		-7.812500
3119		-17.578125
3120		-9.765625
3121		-19.531250
3122		-13.671875
3123		-21.484375
3124		-17.578125
3125		-25.390625
3126		-19.531250
3127		-27.343750
3128		-23.437500
3129		-31.250000
3130		-27.343750
3131		-35.156250
3132		-29.296875
3133		-37.109375
3134		-33.203125
3135		-39.062500
3136		-35.156250
3137		-41.015625
3138		-37.109375
3139		-44.921875
3140		-39.062500
3141		-46.875000
3142		-42.968750
3143		-48.828125
3144		-44.921875
3145		-50.781250
3146		-46.875000
3147		-52.734375
3148		-48.828125
3149		-54.687500
3150		-48.828125
3151		-54.687500
3152		-52.734375
3153		-56.640625
3154		-52.734375
3155		-58.593750
3156		-54.687500
3157		-58.593750
3158		-54.687500
3159		-58.593750
3160		-56.640625
3161		-60.546875
3162		-56.640625
3163		-60.546875
3164		-56.640625
3165		-60.546875
3166		-56.640625
3167		-60.546875
3168		-58.593750
3169		-60.546875
3170		-56.640625
3171		-60.546875
3172		-56.640625
3173		-60.546875
3174		-56.640625
3175		-58.593750
3176		-54.687500
3177		-56.640625
3178		-54.687500
3179		-56.640625
3180		-52.734375
3181		-54.687500
3182		-52.734375
3183		-54.687500
3184		-50.781250
3185		-52.734375
3186		-48.828125
3187		-50.781250
3188		-46.875000
3189		-48.828125
3190		-44.921875
3191		-46.875000
3192		-42.968750
3193		-44.921875
3194		-39.062500
3195		-41.015625
3196		-37.109375
3197		-39.062500
3198		-35.156250
3199		-37.109375
3200		-33.203125
3201		-33.203125
3202		-29.296875
3203		-31.250000
3204		-25.390625
3205		-29.296875
3206		-23.437500
3207		-25.390625
3208		-19.531250
3209		-21.484375
3210		-17.578125
3211		-19.531250
3212		-13.671875
3213		-15.625000
3214		-9.765625
3215		-11.718750
3216		-5.859375
3217		-7.812500
3218		-3.906250
3219		-5.859375
3220		0.000000
3221		-1.953125
3222		3.906250
3223		1.953125
3224		5.859375
3225		5.859375
3226		11.718750
3227		7.812500
3228		13.671875
3229		11.718750
3230		17.578125
3231		15.625000
3232		21.484375
3233		19.531250
3234		23.437500
3235		23.437500
3236		27.343750
3237		25.390625
3238		31.250000
3239		29.296875
3240		35.156250
3241		33.203125
3242		37.109375
3243		35.156250
3244		41.015625
3245		39.062500
3246		44.921875
3247		42.968750
3248		46.875000
3249		44.921875
3250		50.781250
3251		48.828125
3252		52.734375
3253		50.781250
3254		54.687500
3255		52.734375
3256		58.593750
3257		56.640625
3258		60.546875
3259		58.593750
3260		62.500000
3261		60.546875
3262		66.406250
3263		64.453125
3264		68.359375
3265		66.406250
3266		70.312500
3267		68.359375
3268		72.265625
3269		70.312500
3270		74.218750
3271		72.265625
3272		76.171875
3273		72.265625
3274		76.171875
3275		74.218750
3276		78.125000
3277		76.171875
3278		80.078125
3279		76.171875
3280		80.078125
3281		78.125000
3282		82.031250
3283		78.125000
3284		82.031250
3285		80.078125
3286		82.031250
3287		80.078125
3288		82.031250
3289		80.078125
3290		83.984375
3291		80.078125
3292		83.984375
3293		80.078125
3294		83.984375
3295		80.078125
3296		83.984375
3297		80.078125
3298		83.984375
3299		78.125000
3300		83.984375
3301		80.078125
3302		82.031250
3303		78.125000
3304		82.031250
3305		78.125000
3306		82.031250
3307		76.171875
3308		80.078125
3309		76.171875
3310		80.078125
3311		74.218750
3312		78.125000
3313		72.265625
3314		76.171875
3315		70.312500
3316		74.218750
3317		68.359375
3318		74.218750
3319		68.359375
3320		70.312500
3321		64.453125
3322		68.359375
3323		62.500000
3324		68.359375
3325		60.546875
3326		64.453125
3327		58.593750
3328		62.500000
3329		54.687500
3330		60.546875
3331		52.734375
3332		58.593750
3333		50.781250
3334		54.687500
3335		46.875000
3336		52.734375
3337		44.921875
3338		48.828125
3339		41.015625
3340		46.875000
3341		39.062500
3342		42.968750
3343		35.156250
3344		39.062500
3345		31.250000
3346		37.109375
3347		29.296875
3348		33.203125
3349		23.437500
3350		29.296875
3351		21.484375
3352		27.343750
3353		17.578125
3354		23.437500
3355		13.671875
3356		19.531250
3357		11.718750
3358		15.625000
3359		7.812500
3360		13.671875
3361		3.906250
3362		7.812500
3363		0.000000
3364		5.859375
3365		-3.906250
3366		1.953125
3367		-7.812500
3368		-1.953125
3369		-9.765625
3370		-5.859375
3371		-13.671875
3372		-7.812500
3373		-17.578125
3374		-11.718750
3375		-21.484375
3376		-15.625000
3377		-23.437500
3378		-17.578125
3379		-27.343750
3380		-21.484375
3381		-31.250000
3382		-25.390625
3383		-33.203125
3384		-27.343750
3385		-35.156250
3386		-29.296875
3387		-39.062500
3388		-33.203125
3389		-41.015625
3390		-37.109375
3391		-42.968750
3392		-39.062500
3393		-44.921875
3394		-41.015625
3395		-46.875000
3396		-42.968750
3397		-48.828125
3398		-44.921875
3399		-50.781250
3400		-46.875000
3401		-52.734375
3402		-48.828125
3403		-54.687500
3404		-50.781250
3405		-56.640625
3406		-52.734375
3407		-56.640625
3408		-52.734375
3409		-58.593750
3410		-54.687500
3411		-58.593750
3412		-56.640625
3413		-60.546875
3414		-56.640625
3415		-60.546875
3416		-56.640625
3417		-60.546875
3418		-56.640625
3419		-60.546875
3420		-58.593750
3421		-60.546875
3422		-58.593750
3423		-60.546875
3424		-56.640625
3425		-60.546875
3426		-56.640625
3427		-60.546875
3428		-56.640625
3429		-58.593750
3430		-54.687500
3431		-56.640625
3432		-54.687500
3433		-56.640625
3434		-52.734375
3435		-56.640625
3436		-52.734375
3437		-54.687500
3438		-50.781250
3439		-50.781250
3440		-46.875000
3441		-50.781250
3442		-46.875000
3443		-48.828125
3444		-44.921875
3445		-46.875000
3446		-42.968750
3447		-42.968750
3448		-41.015625
3449		-41.015625
3450		-37.109375
3451		-39.062500
3452		-35.156250
3453		-37.109375
3454		-31.250000
3455		-33.203125
3456		-29.296875
3457		-31.250000
3458		-25.390625
3459		-27.343750
3460		-23.437500
3461		-25.390625
3462		-19.531250
3463		-21.484375
3464		-15.625000
3465		-17.578125
3466		-13.671875
3467		-15.625000
3468		-9.765625
3469		-11.718750
3470		-5.859375
3471		-7.812500
3472		-1.953125
3473		-3.906250
3474		0.000000
3475		-1.953125
3476		3.906250
3477		1.953125
3478		7.812500
3479		5.859375
3480		11.718750
3481		9.765625
3482		13.671875
3483		13.671875
3484		17.578125
3485		17.578125
3486		21.484375
3487		19.531250
3488		25.390625
3489		23.437500
3490		29.296875
3491		25.390625
3492		31.250000
3493		31.250000
3494		35.156250
3495		33.203125
3496		39.062500
3497		37.109375
3498		41.015625
3499		39.062500
3500		44.921875
3501		42.968750
3502		48.828125
3503		46.875000
3504		50.781250
3505		48.828125
3506		52.734375
3507		50.781250
3508		56.640625
3509		54.687500
3510		58.593750
3511		56.640625
3512		60.546875
3513		60.546875
3514		64.453125
3515		62.500000
3516		66.406250
3517		64.453125
3518		68.359375
3519		66.406250
3520		70.312500
3521		68.359375
3522		72.265625
3523		70.312500
3524		74.218750
3525		72.265625
3526		76.171875
3527		74.218750
3528		78.125000
3529		74.218750
3530		78.125000
3531		76.171875
3532		80.078125
3533		78.125000
3534		80.078125
3535		78.125000
3536		82.031250
3537		80.078125
3538		82.031250
3539		80.078125
3540		82.031250
3541		80.078125
3542		83.984375
3543		80.078125
3544		83.984375
3545		80.078125
3546		83.984375
3547		82.031250
3548		83.984375
3549		80.078125
3550		83.984375
3551		80.078125
3552		83.984375
3553		80.078125
3554		83.984375
3555		80.078125
3556		82.031250
3557		78.125000
3558		82.031250
3559		78.125000
3560		80.078125
3561		76.171875
3562		80.078125
3563		76.171875
3564		80.078125
3565		74.218750
3566		78.125000
3567		72.265625
3568		76.171875
3569		70.312500
3570		74.218750
3571		68.359375
3572		72.265625
3573		66.406250
3574		70.312500
3575		64.453125
3576		68.359375
3577		62.500000
3578		66.406250
3579		60.546875
3580		64.453125
3581		58.593750
3582		62.500000
3583		54.687500
3584		60.546875
3585		50.781250
3586		56.640625
3587		48.828125
3588		54.687500
3589		46.875000
3590		50.781250
3591		42.968750
3592		48.828125
3593		41.015625
3594		44.921875
3595		37.109375
3596		42.968750
3597		33.203125
3598		39.062500
3599		31.250000
3600		35.156250
3601		27.343750
3602		31.250000
3603		23.437500
3604		29.296875
3605		21.484375
3606		25.390625
3607		15.625000
3608		21.484375
3609		13.671875
3610		17.578125
3611		9.765625
3612		15.625000
3613		5.859375
3614		11.718750
3615		1.953125
3616		7.812500
3617		0.000000
3618		3.906250
3619		-3.906250
3620		1.953125
3621		-7.812500
3622		-1.953125
3623		-11.718750
3624		-5.859375
3625		-15.625000
3626		-9.765625
3627		-17.578125
3628		-13.671875
3629		-21.484375
3630		-15.625000
3631		-25.390625
3632		-19.531250
3633		-27.343750
3634		-23.437500
3635		-31.250000
3636		-25.390625
3637		-33.203125
3638		-27.343750
3639		-37.109375
3640		-31.250000
3641		-39.062500
3642		-35.156250
3643		-41.015625
3644		-37.109375
3645		-44.921875
3646		-39.062500
3647		-46.875000
3648		-42.968750
3649		-48.828125
3650		-44.921875
3651		-50.781250
3652		-44.921875
3653		-52.734375
3654		-48.828125
3655		-52.734375
3656		-50.781250
3657		-56.640625
3658		-52.734375
3659		-56.640625
3660		-52.734375
3661		-56.640625
3662		-54.687500
3663		-58.593750
3664		-54.687500
3665		-58.593750
3666		-56.640625
3667		-60.546875
3668		-56.640625
3669		-60.546875
3670		-56.640625
3671		-60.546875
3672		-58.593750
3673		-60.546875
3674		-58.593750
3675		-62.500000
3676		-56.640625
3677		-60.546875
3678		-56.640625
3679		-60.546875
3680		-56.640625
3681		-58.593750
3682		-56.640625
3683		-58.593750
3684		-54.687500
3685		-58.593750
3686		-54.687500
3687		-56.640625
3688		-52.734375
3689		-54.687500
3690		-50.781250
3691		-52.734375
3692		-48.828125
3693		-52.734375
3694		-48.828125
3695		-50.781250
3696		-44.921875
3697		-46.875000
3698		-44.921875
3699		-44.921875
3700		-41.015625
3701		-42.968750
3702		-39.062500
3703		-41.015625
3704		-37.109375
3705		-39.062500
3706		-33.203125
3707		-35.156250
3708		-31.250000
3709		-33.203125
3710		-27.343750
3711		-29.296875
3712		-25.390625
3713		-27.343750
3714		-21.484375
3715		-23.437500
3716		-17.578125
3717		-19.531250
3718		-15.625000
3719		-17.578125
3720		-11.718750
3721		-15.625000
3722		-7.812500
3723		-9.765625
3724		-5.859375
3725		-7.812500
3726		-1.953125
3727		-3.906250
3728		1.953125
3729		0.000000
3730		5.859375
3731		3.906250
3732		9.765625
3733		5.859375
3734		11.718750
3735		9.765625
3736		15.625000
3737		13.671875
3738		19.531250
3739		17.578125
3740		23.437500
3741		21.484375
3742		27.343750
3743		25.390625
3744		29.296875
3745		27.343750
3746		33.203125
3747		31.250000
3748		35.156250
3749		35.156250
3750		39.062500
3751		37.109375
3752		42.968750
3753		41.015625
3754		46.875000
3755		44.921875
3756		48.828125
3757		46.875000
3758		50.781250
3759		48.828125
3760		54.687500
3761		52.734375
3762		56.640625
3763		54.687500
3764		60.546875
3765		58.593750
3766		62.500000
3767		60.546875
3768		64.453125
3769		62.500000
3770		66.406250
3771		64.453125
3772		68.359375
3773		66.406250
3774		70.312500
3775		68.359375
3776		74.218750
3777		70.312500
3778		74.218750
3779		72.265625
3780		76.171875
3781		74.218750
3782		78.125000
3783		74.218750
3784		80.078125
3785		76.171875
3786		80.078125
3787		76.171875
3788		80.078125
3789		78.125000
3790		82.031250
3791		80.078125
3792		82.031250
3793		80.078125
3794		83.984375
3795		80.078125
3796		83.984375
3797		80.078125
3798		83.984375
3799		80.078125
3800		83.984375
3801		80.078125
3802		83.984375
3803		80.078125
3804		83.984375
3805		80.078125
3806		83.984375
3807		80.078125
3808		82.031250
3809		78.125000
3810		82.031250
3811		78.125000
3812		82.031250
3813		78.125000
3814		80.078125
3815		76.171875
3816		80.078125
3817		74.218750
3818		78.125000
3819		72.265625
3820		76.171875
3821		72.265625
3822		76.171875
3823		70.312500
3824		74.218750
3825		66.406250
3826		72.265625
3827		66.406250
3828		70.312500
3829		64.453125
3830		68.359375
3831		62.500000
3832		66.406250
3833		58.593750
3834		64.453125
3835		56.640625
3836		60.546875
3837		52.734375
3838		58.593750
3839		50.781250
3840		54.687500
3841		48.828125
3842		52.734375
3843		44.921875
3844		50.781250
3845		42.968750
3846		46.875000
3847		39.062500
3848		44.921875
3849		35.156250
3850		41.015625
3851		33.203125
3852		39.062500
3853		29.296875
3854		35.156250
3855		25.390625
3856		31.250000
3857		23.437500
3858		27.343750
3859		19.531250
3860		23.437500
3861		15.625000
3862		21.484375
3863		11.718750
3864		17.578125
3865		7.812500
3866		13.671875
3867		3.906250
3868		9.765625
3869		1.953125
3870		5.859375
3871		-1.953125
3872		3.906250
3873		-5.859375
3874		0.000000
3875		-9.765625
3876		-3.906250
3877		-11.718750
3878		-7.812500
3879		-15.625000
3880		-9.765625
3881		-19.531250
3882		-13.671875
3883		-23.437500
3884		-17.578125
3885		-25.390625
3886		-19.531250
3887		-29.296875
3888		-23.437500
3889		-31.250000
3890		-25.390625
3891		-35.156250
3892		-29.296875
3893		-37.109375
3894		-33.203125
3895		-39.062500
3896		-35.156250
3897		-42.968750
3898		-37.109375
3899		-44.921875
3900		-41.015625
3901		-46.875000
3902		-42.968750
3903		-48.828125
3904		-44.921875
3905		-50.781250
3906		-46.875000
3907		-52.734375
3908		-48.828125
3909		-54.687500
3910		-50.781250
3911		-54.687500
3912		-50.781250
3913		-56.640625
3914		-52.734375
3915		-58.593750
3916		-54.687500
3917		-58.593750
3918		-54.687500
3919		-60.546875
3920		-56.640625
3921		-60.546875
3922		-56.640625
3923		-60.546875
3924		-58.593750
3925		-60.546875
3926		-58.593750
3927		-60.546875
3928		-56.640625
3929		-60.546875
3930		-56.640625
3931		-60.546875
3932		-56.640625
3933		-58.593750
3934		-56.640625
3935		-58.593750
3936		-54.687500
3937		-58.593750
3938		-54.687500
3939		-58.593750
3940		-52.734375
3941		-56.640625
3942		-52.734375
3943		-54.687500
3944		-50.781250
3945		-52.734375
3946		-48.828125
3947		-50.781250
3948		-46.875000
3949		-48.828125
3950		-44.921875
3951		-46.875000
3952		-42.968750
3953		-44.921875
3954		-41.015625
3955		-42.968750
3956		-37.109375
3957		-41.015625
3958		-35.156250
3959		-37.109375
3960		-33.203125
3961		-35.156250
3962		-29.296875
3963		-31.250000
3964		-27.343750
3965		-29.296875
3966		-23.437500
3967		-25.390625
3968		-21.484375
3969		-23.437500
3970		-17.578125
3971		-19.531250
3972		-13.671875
3973		-17.578125
3974		-11.718750
3975		-13.671875
3976		-7.812500
3977		-9.765625
3978		-3.906250
3979		-5.859375
3980		0.000000
3981		-1.953125
3982		1.953125
3983		1.953125
3984		5.859375
3985		3.906250
3986		9.765625
3987		7.812500
3988		13.671875
3989		11.718750
3990		17.578125
3991		15.625000
3992		19.531250
3993		17.578125
3994		23.437500
3995		21.484375
3996		27.343750
3997		25.390625
3998		31.250000
3999		29.296875
4000		33.203125
4001		33.203125
4002		37.109375
4003		35.156250
4004		41.015625
4005		39.062500
4006		42.968750
4007		41.015625
4008		46.875000
4009		44.921875
4010		48.828125
4011		46.875000
4012		52.734375
4013		50.781250
4014		54.687500
4015		52.734375
4016		58.593750
4017		54.687500
4018		60.546875
4019		58.593750
4020		62.500000
4021		60.546875
4022		66.406250
4023		62.500000
4024		66.406250
4025		64.453125
4026		70.312500
4027		66.406250
4028		72.265625
4029		68.359375
4030		74.218750
4031		70.312500
4032		74.218750
4033		72.265625
4034		76.171875
4035		74.218750
4036		78.125000
4037		74.218750
4038		78.125000
4039		76.171875
4040		80.078125
4041		78.125000
4042		80.078125
4043		80.078125
4044		82.031250
4045		78.125000
4046		82.031250
4047		80.078125
4048		82.031250
4049		80.078125
4050		83.984375
4051		80.078125
4052		83.984375
4053		80.078125
4054		83.984375
4055		80.078125
4056		83.984375
4057		80.078125
4058		83.984375
4059		80.078125
4060		82.031250
4061		80.078125
4062		82.031250
4063		78.125000
4064		82.031250
4065		78.125000
4066		82.031250
4067		76.171875
4068		80.078125
4069		76.171875
4070		80.078125
4071		74.218750
4072		78.125000
4073		72.265625
4074		76.171875
4075		72.265625
4076		74.218750
4077		70.312500
4078		72.265625
4079		66.406250
4080		72.265625
4081		64.453125
4082		70.312500
4083		62.500000
4084		66.406250
4085		60.546875
4086		64.453125
4087		58.593750
4088		62.500000
4089		56.640625
4090		60.546875
4091		52.734375
4092		58.593750
4093		50.781250
4094		54.687500
4095		46.875000
4096		52.734375
4097		42.968750
4098		48.828125
4099		41.015625
4100		46.875000
4101		39.062500
4102		42.968750
4103		35.156250
4104		39.062500
4105		31.250000
4106		37.109375
4107		29.296875
4108		33.203125
4109		25.390625
4110		29.296875
4111		21.484375
4112		27.343750
4113		17.578125
4114		23.437500
4115		13.671875
4116		19.531250
4117		9.765625
4118		15.625000
4119		7.812500
4120		11.718750
4121		3.906250
4122		9.765625
4123		0.000000
4124		5.859375
4125		-3.906250
4126		1.953125
4127		-5.859375
4128		-1.953125
4129		-11.718750
4130		-3.906250
4131		-13.671875
4132		-7.812500
4133		-17.578125
4134		-11.718750
4135		-19.531250
4136		-15.625000
4137		-23.437500
4138		-17.578125
4139		-27.343750
4140		-21.484375
4141		-29.296875
4142		-23.437500
4143		-33.203125
4144		-27.343750
4145		-35.156250
4146		-31.250000
4147		-39.062500
4148		-33.203125
4149		-41.015625
4150		-35.156250
4151		-42.968750
4152		-39.062500
4153		-46.875000
4154		-41.015625
4155		-46.875000
4156		-42.968750
4157		-48.828125
4158		-44.921875
4159		-52.734375
4160		-48.828125
4161		-52.734375
4162		-48.828125
4163		-54.687500
4164		-50.781250
4165		-56.640625
4166		-52.734375
4167		-58.593750
4168		-52.734375
4169		-58.593750
4170		-54.687500
4171		-60.546875
4172		-54.687500
4173		-60.546875
4174		-56.640625
4175		-60.546875
4176		-56.640625
4177		-60.546875
4178		-58.593750
4179		-60.546875
4180		-56.640625
4181		-62.500000
4182		-56.640625
4183		-60.546875
4184		-56.640625
4185		-60.546875
4186		-56.640625
4187		-60.546875
4188		-56.640625
4189		-60.546875
4190		-54.687500
4191		-58.593750
4192		-54.687500
4193		-56.640625
4194		-52.734375
4195		-54.687500
4196		-52.734375
4197		-54.687500
4198		-48.828125
4199		-52.734375
4200		-48.828125
4201		-50.781250
4202		-44.921875
4203		-48.828125
4204		-42.968750
4205		-46.875000
4206		-41.015625
4207		-44.921875
4208		-39.062500
4209		-41.015625
4210		-37.109375
4211		-39.062500
4212		-35.156250
4213		-37.109375
4214		-31.250000
4215		-35.156250
4216		-29.296875
4217		-31.250000
4218		-25.390625
4219		-29.296875
4220		-21.484375
4221		-25.390625
4222		-19.531250
4223		-23.437500
4224		-15.625000
4225		-19.531250
4226		-13.671875
4227		-15.625000
4228		-9.765625
4229		-11.718750
4230		-5.859375
4231		-9.765625
4232		-1.953125
4233		-5.859375
4234		1.953125
4235		-1.953125
4236		3.906250
4237		1.953125
4238		7.812500
4239		3.906250
4240		11.718750
4241		7.812500
4242		13.671875
4243		11.718750
4244		17.578125
4245		15.625000
4246		21.484375
4247		19.531250
4248		25.390625
4249		23.437500
4250		29.296875
4251		25.390625
4252		33.203125
4253		29.296875
4254		35.156250
4255		31.250000
4256		39.062500
4257		35.156250
4258		42.968750
4259		39.062500
4260		44.921875
4261		42.968750
4262		46.875000
4263		44.921875
4264		50.781250
4265		46.875000
4266		54.687500
4267		50.781250
4268		56.640625
4269		54.687500
4270		60.546875
4271		56.640625
4272		62.500000
4273		58.593750
4274		64.453125
4275		60.546875
4276		66.406250
4277		64.453125
4278		68.359375
4279		66.406250
4280		70.312500
4281		68.359375
4282		72.265625
4283		70.312500
4284		74.218750
4285		72.265625
4286		74.218750
4287		74.218750
4288		76.171875
4289		74.218750
4290		78.125000
4291		76.171875
4292		80.078125
4293		78.125000
4294		80.078125
4295		78.125000
4296		80.078125
4297		80.078125
4298		82.031250
4299		80.078125
4300		82.031250
4301		80.078125
4302		82.031250
4303		80.078125
4304		82.031250
4305		80.078125
4306		83.984375
4307		82.031250
4308		83.984375
4309		80.078125
4310		83.984375
4311		80.078125
4312		83.984375
4313		80.078125
4314		82.031250
4315		80.078125
4316		82.031250
4317		78.125000
4318		82.031250
4319		78.125000
4320		80.078125
4321		76.171875
4322		80.078125
4323		76.171875
4324		78.125000
4325		74.218750
4326		76.171875
4327		72.265625
4328		76.171875
4329		70.312500
4330		74.218750
4331		68.359375
4332		72.265625
4333		66.406250
4334		70.312500
4335		64.453125
4336		68.359375
4337		62.500000
4338		66.406250
4339		60.546875
4340		64.453125
4341		56.640625
4342		62.500000
4343		54.687500
4344		58.593750
4345		52.734375
4346		56.640625
4347		48.828125
4348		54.687500
4349		46.875000
4350		50.781250
4351		42.968750
4352		46.875000
4353		39.062500
4354		44.921875
4355		37.109375
4356		42.968750
4357		33.203125
4358		39.062500
4359		31.250000
4360		35.156250
4361		27.343750
4362		31.250000
4363		23.437500
4364		29.296875
4365		21.484375
4366		25.390625
4367		17.578125
4368		21.484375
4369		13.671875
4370		17.578125
4371		9.765625
4372		13.671875
4373		5.859375
4374		11.718750
4375		1.953125
4376		7.812500
4377		0.000000
4378		3.906250
4379		-3.906250
4380		0.000000
4381		-9.765625
4382		-1.953125
4383		-13.671875
4384		-3.906250
4385		-17.578125
4386		-7.812500
4387		-17.578125
4388		-13.671875
4389		-21.484375
4390		-15.625000
4391		-23.437500
4392		-19.531250
4393		-27.343750
4394		-23.437500
4395		-31.250000
4396		-25.390625
4397		-37.109375
4398		-27.343750
4399		-39.062500
4400		-29.296875
4401		-41.015625
4402		-31.250000
4403		-41.015625
4404		-35.156250
4405		-44.921875
4406		-41.015625
4407		-46.875000
4408		-42.968750
4409		-48.828125
4410		-44.921875
4411		-50.781250
4412		-46.875000
4413		-52.734375
4414		-48.828125
4415		-56.640625
4416		-48.828125
4417		-58.593750
4418		-48.828125
4419		-60.546875
4420		-48.828125
4421		-58.593750
4422		-54.687500
4423		-58.593750
4424		-56.640625
4425		-60.546875
4426		-56.640625
4427		-60.546875
4428		-58.593750
4429		-60.546875
4430		-58.593750
4431		-64.453125
4432		-54.687500
4433		-64.453125
4434		-54.687500
4435		-64.453125
4436		-54.687500
4437		-62.500000
4438		-56.640625
4439		-60.546875
4440		-56.640625
4441		-58.593750
4442		-56.640625
4443		-58.593750
4444		-56.640625
4445		-58.593750
4446		-54.687500
4447		-56.640625
4448		-52.734375
4449		-58.593750
4450		-48.828125
4451		-56.640625
4452		-48.828125
4453		-54.687500
4454		-46.875000
4455		-50.781250
4456		-46.875000
4457		-48.828125
4458		-44.921875
4459		-46.875000
4460		-42.968750
4461		-44.921875
4462		-39.062500
4463		-41.015625
4464		-37.109375
4465		-41.015625
4466		-31.250000
4467		-39.062500
4468		-29.296875
4469		-35.156250
4470		-25.390625
4471		-31.250000
4472		-25.390625
4473		-27.343750
4474		-23.437500
4475		-25.390625
4476		-19.531250
4477		-21.484375
4478		-17.578125
4479		-17.578125
4480		-13.671875
4481		-15.625000
4482		-5.859375
4483		-15.625000
4484		-1.953125
4485		-11.718750
4486		0.000000
4487		-7.812500
4488		1.953125
4489		-1.953125
4490		3.906250
4491		1.953125
4492		7.812500
4493		5.859375
4494		11.718750
4495		9.765625
4496		13.671875
4497		13.671875
4498		17.578125
4499		13.671875
4500		23.437500
4501		17.578125
4502		27.343750
4503		21.484375
4504		31.250000
4505		27.343750
4506		31.250000
4507		31.250000
4508		35.156250
4509		33.203125
4510		39.062500
4511		37.109375
4512		41.015625
4513		39.062500
4514		44.921875
4515		41.015625
4516		50.781250
4517		42.968750
4518		54.687500
4519		44.921875
4520		56.640625
4521		50.781250
4522		56.640625
4523		54.687500
4524		58.593750
4525		56.640625
4526		60.546875
4527		58.593750
4528		64.453125
4529		62.500000
4530		66.406250
4531		64.453125
4532		68.359375
4533		62.500000
4534		72.265625
4535		64.453125
4536		74.218750
4537		66.406250
4538		76.171875
4539		72.265625
4540		74.218750
4541		74.218750
4542		76.171875
4543		74.218750
4544		78.125000
4545		76.171875
4546		78.125000
4547		78.125000
4548		80.078125
4549		74.218750
4550		83.984375
4551		76.171875
4552		85.937500
4553		76.171875
4554		85.937500
4555		80.078125
4556		82.031250
4557		80.078125
4558		82.031250
4559		80.078125
4560		83.984375
4561		80.078125
4562		82.031250
4563		80.078125
4564		82.031250
4565		80.078125
4566		82.031250
4567		76.171875
4568		83.984375
4569		76.171875
4570		83.984375
4571		78.125000
4572		80.078125
4573		76.171875
4574		80.078125
4575		76.171875
4576		78.125000
4577		74.218750
4578		78.125000
4579		72.265625
4580		76.171875
4581		72.265625
4582		74.218750
4583		70.312500
4584		74.218750
4585		66.406250
4586		74.218750
4587		66.406250
4588		70.312500
4589		64.453125
4590		68.359375
4591		60.546875
4592		64.453125
4593		58.593750
4594		62.500000
4595		56.640625
4596		60.546875
4597		54.687500
4598		58.593750
4599		50.781250
4600		54.687500
4601		46.875000
4602		52.734375
4603		42.968750
4604		50.781250
4605		42.968750
4606		46.875000
4607		39.062500
4608		42.968750
4609		35.156250
4610		41.015625
4611		33.203125
4612		37.109375
4613		29.296875
4614		35.156250
4615		25.390625
4616		31.250000
4617		23.437500
4618		27.343750
4619		19.531250
4620		23.437500
4621		15.625000
4622		19.531250
4623		11.718750
4624		17.578125
4625		7.812500
4626		13.671875
4627		5.859375
4628		9.765625
4629		1.953125
4630		5.859375
4631		-1.953125
4632		1.953125
4633		-5.859375
4634		0.000000
4635		-9.765625
4636		-3.906250
4637		-11.718750
4638		-7.812500
4639		-15.625000
4640		-11.718750
4641		-19.531250
4642		-13.671875
4643		-21.484375
4644		-17.578125
4645		-25.390625
4646		-21.484375
4647		-29.296875
4648		-23.437500
4649		-31.250000
4650		-27.343750
4651		-35.156250
4652		-29.296875
4653		-37.109375
4654		-33.203125
4655		-41.015625
4656		-35.156250
4657		-42.968750
4658		-39.062500
4659		-44.921875
4660		-41.015625
4661		-46.875000
4662		-42.968750
4663		-48.828125
4664		-44.921875
4665		-50.781250
4666		-46.875000
4667		-52.734375
4668		-48.828125
4669		-54.687500
4670		-50.781250
4671		-56.640625
4672		-52.734375
4673		-58.593750
4674		-54.687500
4675		-58.593750
4676		-54.687500
4677		-58.593750
4678		-56.640625
4679		-60.546875
4680		-56.640625
4681		-60.546875
4682		-58.593750
4683		-62.500000
4684		-58.593750
4685		-62.500000
4686		-58.593750
4687		-60.546875
4688		-58.593750
4689		-60.546875
4690		-56.640625
4691		-62.500000
4692		-56.640625
4693		-60.546875
4694		-56.640625
4695		-60.546875
4696		-56.640625
4697		-58.593750
4698		-56.640625
4699		-58.593750
4700		-54.687500
4701		-56.640625
4702		-52.734375
4703		-56.640625
4704		-52.734375
4705		-54.687500
4706		-50.781250
4707		-52.734375
4708		-48.828125
4709		-50.781250
4710		-46.875000
4711		-48.828125
4712		-42.968750
4713		-46.875000
4714		-41.015625
4715		-42.968750
4716		-39.062500
4717		-41.015625
4718		-37.109375
4719		-39.062500
4720		-35.156250
4721		-35.156250
4722		-31.250000
4723		-33.203125
4724		-27.343750
4725		-29.296875
4726		-25.390625
4727		-27.343750
4728		-23.437500
4729		-23.437500
4730		-19.531250
4731		-21.484375
4732		-15.625000
4733		-17.578125
4734		-9.765625
4735		-15.625000
4736		-7.812500
4737		-11.718750
4738		-5.859375
4739		-7.812500
4740		-1.953125
4741		-3.906250
4742		1.953125
4743		0.000000
4744		5.859375
4745		3.906250
4746		7.812500
4747		7.812500
4748		11.718750
4749		9.765625
4750		15.625000
4751		11.718750
4752		19.531250
4753		15.625000
4754		23.437500
4755		21.484375
4756		25.390625
4757		25.390625
4758		29.296875
4759		27.343750
4760		33.203125
4761		31.250000
4762		35.156250
4763		35.156250
4764		39.062500
4765		37.109375
4766		42.968750
4767		41.015625
4768		44.921875
4769		42.968750
4770		48.828125
4771		46.875000
4772		50.781250
4773		48.828125
4774		54.687500
4775		52.734375
4776		56.640625
4777		54.687500
4778		58.593750
4779		58.593750
4780		60.546875
4781		60.546875
4782		64.453125
4783		62.500000
4784		66.406250
4785		64.453125
4786		68.359375
4787		66.406250
4788		70.312500
4789		68.359375
4790		72.265625
4791		70.312500
4792		74.218750
4793		72.265625
4794		74.218750
4795		74.218750
4796		76.171875
4797		74.218750
4798		78.125000
4799		76.171875
4800		80.078125
4801		76.171875
4802		82.031250
4803		78.125000
4804		82.031250
4805		78.125000
4806		82.031250
4807		78.125000
4808		82.031250
4809		78.125000
4810		83.984375
4811		80.078125
4812		82.031250
4813		80.078125
4814		82.031250
4815		80.078125
4816		82.031250
4817		78.125000
4818		83.984375
4819		78.125000
4820		83.984375
4821		78.125000
4822		82.031250
4823		78.125000
4824		82.031250
4825		76.171875
4826		80.078125
4827		76.171875
4828		80.078125
4829		74.218750
4830		78.125000
4831		74.218750
4832		76.171875
4833		72.265625
4834		76.171875
4835		70.312500
4836		74.218750
4837		68.359375
4838		72.265625
4839		66.406250
4840		70.312500
4841		64.453125
4842		68.359375
4843		62.500000
4844		66.406250
4845		60.546875
4846		64.453125
4847		58.593750
4848		62.500000
4849		54.687500
4850		58.593750
4851		52.734375
4852		56.640625
4853		48.828125
4854		54.687500
4855		46.875000
4856		50.781250
4857		44.921875
4858		48.828125
4859		41.015625
4860		44.921875
4861		37.109375
4862		42.968750
4863		35.156250
4864		39.062500
4865		31.250000
4866		35.156250
4867		27.343750
4868		33.203125
4869		25.390625
4870		29.296875
4871		21.484375
4872		25.390625
4873		17.578125
4874		21.484375
4875		13.671875
4876		19.531250
4877		9.765625
4878		15.625000
4879		7.812500
4880		11.718750
4881		3.906250
4882		7.812500
4883		0.000000
4884		3.906250
4885		-3.906250
4886		1.953125
4887		-7.812500
4888		-1.953125
4889		-11.718750
4890		-5.859375
4891		-13.671875
4892		-9.765625
4893		-17.578125
4894		-11.718750
4895		-21.484375
4896		-15.625000
4897		-23.437500
4898		-19.531250
4899		-27.343750
4900		-21.484375
4901		-29.296875
4902		-25.390625
4903		-33.203125
4904		-29.296875
4905		-35.156250
4906		-31.250000
4907		-39.062500
4908		-35.156250
4909		-41.015625
4910		-37.109375
4911		-42.968750
4912		-39.062500
4913		-46.875000
4914		-42.968750
4915		-48.828125
4916		-44.921875
4917		-50.781250
4918		-46.875000
4919		-52.734375
4920		-48.828125
4921		-54.687500
4922		-50.781250
4923		-54.687500
4924		-52.734375
4925		-56.640625
4926		-52.734375
4927		-58.593750
4928		-54.687500
4929		-58.593750
4930		-56.640625
4931		-60.546875
4932		-56.640625
4933		-60.546875
4934		-58.593750
4935		-60.546875
4936		-58.593750
4937		-60.546875
4938		-58.593750
4939		-60.546875
4940		-58.593750
4941		-62.500000
4942		-58.593750
4943		-60.546875
4944		-58.593750
4945		-60.546875
4946		-58.593750
4947		-60.546875
4948		-58.593750
4949		-60.546875
4950		-56.640625
4951		-58.593750
4952		-56.640625
4953		-58.593750
4954		-54.687500
4955		-56.640625
4956		-52.734375
4957		-54.687500
4958		-52.734375
4959		-52.734375
4960		-50.781250
4961		-50.781250
4962		-48.828125
4963		-50.781250
4964		-46.875000
4965		-46.875000
4966		-44.921875
4967		-46.875000
4968		-41.015625
4969		-44.921875
4970		-39.062500
4971		-41.015625
4972		-37.109375
4973		-39.062500
4974		-33.203125
4975		-35.156250
4976		-31.250000
4977		-33.203125
4978		-27.343750
4979		-29.296875
4980		-25.390625
4981		-25.390625
4982		-21.484375
4983		-23.437500
4984		-17.578125
4985		-19.531250
4986		-13.671875
4987		-15.625000
4988		-11.718750
4989		-13.671875
4990		-7.812500
4991		-9.765625
4992		-5.859375
4993		-5.859375
4994		-1.953125
4995		-1.953125
4996		1.953125
4997		0.000000
4998		5.859375
4999		3.906250
5000		9.765625
5001		7.812500
5002		11.718750
5003		9.765625
5004		17.578125
5005		13.671875
5006		19.531250
5007		17.578125
5008		23.437500
5009		21.484375
5010		27.343750
5011		25.390625
5012		29.296875
5013		29.296875
5014		33.203125
5015		31.250000
5016		37.109375
5017		35.156250
5018		39.062500
5019		37.109375
5020		44.921875
5021		41.015625
5022		46.875000
5023		44.921875
5024		48.828125
5025		46.875000
5026		50.781250
5027		50.781250
5028		54.687500
5029		52.734375
5030		56.640625
5031		56.640625
5032		58.593750
5033		58.593750
5034		62.500000
5035		60.546875
5036		64.453125
5037		60.546875
5038		68.359375
5039		62.500000
5040		68.359375
5041		66.406250
5042		70.312500
5043		68.359375
5044		72.265625
5045		70.312500
5046		74.218750
5047		72.265625
5048		74.218750
5049		74.218750
5050		76.171875
5051		74.218750
5052		78.125000
5053		74.218750
5054		80.078125
5055		76.171875
5056		82.031250
5057		78.125000
5058		80.078125
5059		78.125000
5060		82.031250
5061		80.078125
5062		82.031250
5063		80.078125
5064		82.031250
5065		80.078125
5066		82.031250
5067		80.078125
5068		82.031250
5069		78.125000
5070		83.984375
5071		78.125000
5072		83.984375
5073		78.125000
5074		82.031250
5075		78.125000
5076		80.078125
5077		78.125000
5078		80.078125
5079		76.171875
5080		80.078125
5081		76.171875
5082		78.125000
5083		74.218750
5084		78.125000
5085		72.265625
5086		76.171875
5087		70.312500
5088		76.171875
5089		68.359375
5090		74.218750
5091		68.359375
5092		72.265625
5093		66.406250
5094		70.312500
5095		64.453125
5096		68.359375
5097		62.500000
5098		66.406250
5099		58.593750
5100		62.500000
5101		56.640625
5102		60.546875
5103		52.734375
5104		58.593750
5105		50.781250
5106		56.640625
5107		48.828125
5108		52.734375
5109		46.875000
5110		50.781250
5111		42.968750
5112		46.875000
5113		39.062500
5114		44.921875
5115		37.109375
5116		41.015625
5117		33.203125
5118		37.109375
5119		29.296875
5120		35.156250
5121		25.390625
5122		33.203125
5123		23.437500
5124		29.296875
5125		19.531250
5126		25.390625
5127		15.625000
5128		21.484375
5129		11.718750
5130		17.578125
5131		9.765625
5132		13.671875
5133		5.859375
5134		9.765625
5135		1.953125
5136		7.812500
5137		-3.906250
5138		3.906250
5139		-5.859375
5140		0.000000
5141		-7.812500
5142		-3.906250
5143		-11.718750
5144		-7.812500
5145		-15.625000
5146		-11.718750
5147		-19.531250
5148		-13.671875
5149		-21.484375
5150		-17.578125
5151		-25.390625
5152		-21.484375
5153		-29.296875
5154		-23.437500
5155		-33.203125
5156		-25.390625
5157		-35.156250
5158		-27.343750
5159		-37.109375
5160		-33.203125
5161		-39.062500
5162		-35.156250
5163		-42.968750
5164		-39.062500
5165		-44.921875
5166		-41.015625
5167		-46.875000
5168		-42.968750
5169		-48.828125
5170		-44.921875
5171		-52.734375
5172		-46.875000
5173		-54.687500
5174		-48.828125
5175		-54.687500
5176		-50.781250
5177		-56.640625
5178		-52.734375
5179		-56.640625
5180		-54.687500
5181		-58.593750
5182		-56.640625
5183		-60.546875
5184		-56.640625
5185		-60.546875
5186		-58.593750
5187		-62.500000
5188		-58.593750
5189		-62.500000
5190		-58.593750
5191		-62.500000
5192		-60.546875
5193		-62.500000
5194		-58.593750
5195		-62.500000
5196		-58.593750
5197		-62.500000
5198		-58.593750
5199		-60.546875
5200		-58.593750
5201		-60.546875
5202		-58.593750
5203		-60.546875
5204		-56.640625
5205		-60.546875
5206		-54.687500
5207		-56.640625
5208		-54.687500
5209		-56.640625
5210		-52.734375
5211		-54.687500
5212		-50.781250
5213		-52.734375
5214		-48.828125
5215		-50.781250
5216		-48.828125
5217		-48.828125
5218		-44.921875
5219		-46.875000
5220		-42.968750
5221		-44.921875
5222		-41.015625
5223		-42.968750
5224		-39.062500
5225		-39.062500
5226		-35.156250
5227		-37.109375
5228		-33.203125
5229		-35.156250
5230		-31.250000
5231		-31.250000
5232		-27.343750
5233		-29.296875
5234		-23.437500
5235		-25.390625
5236		-21.484375
5237		-21.484375
5238		-17.578125
5239		-19.531250
5240		-13.671875
5241		-15.625000
5242		-11.718750
5243		-11.718750
5244		-7.812500
5245		-9.765625
5246		-3.906250
5247		-5.859375
5248		0.000000
5249		-1.953125
5250		1.953125
5251		1.953125
5252		5.859375
5253		3.906250
5254		9.765625
5255		7.812500
5256		13.671875
5257		11.718750
5258		17.578125
5259		15.625000
5260		19.531250
5261		19.531250
5262		23.437500
5263		23.437500
5264		27.343750
5265		25.390625
5266		31.250000
5267		29.296875
5268		35.156250
5269		33.203125
5270		37.109375
5271		35.156250
5272		41.015625
5273		39.062500
5274		42.968750
5275		41.015625
5276		46.875000
5277		44.921875
5278		48.828125
5279		48.828125
5280		52.734375
5281		50.781250
5282		54.687500
5283		52.734375
5284		58.593750
5285		56.640625
5286		60.546875
5287		58.593750
5288		62.500000
5289		60.546875
5290		64.453125
5291		62.500000
5292		66.406250
5293		64.453125
5294		68.359375
5295		68.359375
5296		70.312500
5297		68.359375
5298		72.265625
5299		70.312500
5300		74.218750
5301		72.265625
5302		76.171875
5303		74.218750
5304		76.171875
5305		76.171875
5306		78.125000
5307		76.171875
5308		78.125000
5309		78.125000
5310		80.078125
5311		78.125000
5312		80.078125
5313		78.125000
5314		82.031250
5315		80.078125
5316		82.031250
5317		80.078125
5318		82.031250
5319		80.078125
5320		82.031250
5321		80.078125
5322		82.031250
5323		80.078125
5324		82.031250
5325		80.078125
5326		82.031250
5327		78.125000
5328		82.031250
5329		78.125000
5330		80.078125
5331		78.125000
5332		80.078125
5333		76.171875
5334		80.078125
5335		76.171875
5336		78.125000
5337		74.218750
5338		76.171875
5339		72.265625
5340		76.171875
5341		70.312500
5342		74.218750
5343		70.312500
5344		72.265625
5345		68.359375
5346		70.312500
5347		66.406250
5348		68.359375
5349		62.500000
5350		66.406250
5351		60.546875
5352		64.453125
5353		58.593750
5354		62.500000
5355		56.640625
5356		60.546875
5357		52.734375
5358		56.640625
5359		50.781250
5360		54.687500
5361		46.875000
5362		52.734375
5363		44.921875
5364		48.828125
5365		41.015625
5366		46.875000
5367		39.062500
5368		42.968750
5369		35.156250
5370		41.015625
5371		31.250000
5372		37.109375
5373		29.296875
5374		33.203125
5375		25.390625
5376		31.250000
5377		21.484375
5378		27.343750
5379		17.578125
5380		23.437500
5381		15.625000
5382		19.531250
5383		11.718750
5384		15.625000
5385		7.812500
5386		11.718750
5387		3.906250
5388		9.765625
5389		0.000000
5390		5.859375
5391		-1.953125
5392		1.953125
5393		-5.859375
5394		-1.953125
5395		-9.765625
5396		-3.906250
5397		-13.671875
5398		-7.812500
5399		-17.578125
5400		-11.718750
5401		-19.531250
5402		-15.625000
5403		-23.437500
5404		-17.578125
5405		-25.390625
5406		-21.484375
5407		-29.296875
5408		-25.390625
5409		-33.203125
5410		-27.343750
5411		-35.156250
5412		-31.250000
5413		-37.109375
5414		-33.203125
5415		-41.015625
5416		-37.109375
5417		-42.968750
5418		-39.062500
5419		-44.921875
5420		-41.015625
5421		-48.828125
5422		-42.968750
5423		-48.828125
5424		-46.875000
5425		-52.734375
5426		-48.828125
5427		-52.734375
5428		-50.781250
5429		-54.687500
5430		-52.734375
5431		-56.640625
5432		-54.687500
5433		-58.593750
5434		-54.687500
5435		-58.593750
5436		-56.640625
5437		-60.546875
5438		-56.640625
5439		-60.546875
5440		-58.593750
5441		-60.546875
5442		-58.593750
5443		-62.500000
5444		-58.593750
5445		-62.500000
5446		-60.546875
5447		-62.500000
5448		-60.546875
5449		-62.500000
5450		-60.546875
5451		-62.500000
5452		-58.593750
5453		-60.546875
5454		-58.593750
5455		-60.546875
5456		-58.593750
5457		-60.546875
5458		-56.640625
5459		-58.593750
5460		-56.640625
5461		-56.640625
5462		-54.687500
5463		-56.640625
5464		-52.734375
5465		-54.687500
5466		-50.781250
5467		-52.734375
5468		-48.828125
5469		-50.781250
5470		-46.875000
5471		-48.828125
5472		-44.921875
5473		-46.875000
5474		-42.968750
5475		-44.921875
5476		-41.015625
5477		-42.968750
5478		-39.062500
5479		-39.062500
5480		-35.156250
5481		-37.109375
5482		-33.203125
5483		-35.156250
5484		-29.296875
5485		-31.250000
5486		-27.343750
5487		-27.343750
5488		-23.437500
5489		-25.390625
5490		-19.531250
5491		-21.484375
5492		-17.578125
5493		-17.578125
5494		-13.671875
5495		-15.625000
5496		-9.765625
5497		-11.718750
5498		-5.859375
5499		-7.812500
5500		-3.906250
5501		-3.906250
5502		0.000000
5503		-1.953125
5504		3.906250
5505		1.953125
5506		7.812500
5507		5.859375
5508		9.765625
5509		9.765625
5510		13.671875
5511		13.671875
5512		17.578125
5513		17.578125
5514		21.484375
5515		19.531250
5516		25.390625
5517		23.437500
5518		29.296875
5519		25.390625
5520		31.250000
5521		31.250000
5522		35.156250
5523		33.203125
5524		37.109375
5525		37.109375
5526		41.015625
5527		39.062500
5528		44.921875
5529		42.968750
5530		46.875000
5531		44.921875
5532		50.781250
5533		48.828125
5534		52.734375
5535		50.781250
5536		54.687500
5537		54.687500
5538		58.593750
5539		56.640625
5540		60.546875
5541		58.593750
5542		62.500000
5543		62.500000
5544		64.453125
5545		64.453125
5546		66.406250
5547		66.406250
5548		68.359375
5549		68.359375
5550		70.312500
5551		70.312500
5552		72.265625
5553		72.265625
5554		74.218750
5555		72.265625
5556		76.171875
5557		74.218750
5558		78.125000
5559		76.171875
5560		78.125000
5561		76.171875
5562		78.125000
5563		78.125000
5564		80.078125
5565		78.125000
5566		82.031250
5567		78.125000
5568		80.078125
5569		80.078125
5570		82.031250
5571		80.078125
5572		82.031250
5573		80.078125
5574		82.031250
5575		80.078125
5576		82.031250
5577		78.125000
5578		82.031250
5579		80.078125
5580		82.031250
5581		78.125000
5582		80.078125
5583		78.125000
5584		80.078125
5585		76.171875
5586		80.078125
5587		76.171875
5588		78.125000
5589		74.218750
5590		78.125000
5591		74.218750
5592		76.171875
5593		72.265625
5594		74.218750
5595		70.312500
5596		74.218750
5597		68.359375
5598		72.265625
5599		66.406250
5600		70.312500
5601		64.453125
5602		68.359375
5603		62.500000
5604		66.406250
5605		60.546875
5606		64.453125
5607		58.593750
5608		62.500000
5609		54.687500
5610		58.593750
5611		52.734375
5612		56.640625
5613		48.828125
5614		52.734375
5615		46.875000
5616		50.781250
5617		42.968750
5618		48.828125
5619		41.015625
5620		44.921875
5621		37.109375
5622		41.015625
5623		33.203125
5624		39.062500
5625		31.250000
5626		35.156250
5627		27.343750
5628		33.203125
5629		23.437500
5630		29.296875
5631		21.484375
5632		25.390625
5633		17.578125
5634		21.484375
5635		13.671875
5636		17.578125
5637		9.765625
5638		15.625000
5639		5.859375
5640		11.718750
5641		3.906250
5642		7.812500
5643		0.000000
5644		3.906250
5645		-3.906250
5646		0.000000
5647		-7.812500
5648		-1.953125
5649		-11.718750
5650		-5.859375
5651		-13.671875
5652		-9.765625
5653		-17.578125
5654		-13.671875
5655		-21.484375
5656		-15.625000
5657		-23.437500
5658		-19.531250
5659		-27.343750
5660		-23.437500
5661		-31.250000
5662		-25.390625
5663		-33.203125
5664		-29.296875
5665		-35.156250
5666		-31.250000
5667		-39.062500
5668		-35.156250
5669		-41.015625
5670		-37.109375
5671		-42.968750
5672		-39.062500
5673		-46.875000
5674		-42.968750
5675		-48.828125
5676		-44.921875
5677		-50.781250
5678		-46.875000
5679		-52.734375
5680		-48.828125
5681		-54.687500
5682		-50.781250
5683		-56.640625
5684		-52.734375
5685		-56.640625
5686		-54.687500
5687		-58.593750
5688		-56.640625
5689		-58.593750
5690		-56.640625
5691		-60.546875
5692		-58.593750
5693		-60.546875
5694		-58.593750
5695		-60.546875
5696		-58.593750
5697		-62.500000
5698		-58.593750
5699		-62.500000
5700		-60.546875
5701		-62.500000
5702		-60.546875
5703		-62.500000
5704		-60.546875
5705		-62.500000
5706		-58.593750
5707		-60.546875
5708		-58.593750
5709		-60.546875
5710		-58.593750
5711		-58.593750
5712		-56.640625
5713		-58.593750
5714		-54.687500
5715		-56.640625
5716		-54.687500
5717		-56.640625
5718		-52.734375
5719		-54.687500
5720		-50.781250
5721		-52.734375
5722		-48.828125
5723		-50.781250
5724		-46.875000
5725		-48.828125
5726		-44.921875
5727		-46.875000
5728		-42.968750
5729		-42.968750
5730		-39.062500
5731		-41.015625
5732		-37.109375
5733		-39.062500
5734		-35.156250
5735		-35.156250
5736		-31.250000
5737		-33.203125
5738		-29.296875
5739		-29.296875
5740		-25.390625
5741		-27.343750
5742		-23.437500
5743		-23.437500
5744		-19.531250
5745		-21.484375
5746		-15.625000
5747		-17.578125
5748		-11.718750
5749		-13.671875
5750		-9.765625
5751		-9.765625
5752		-5.859375
5753		-7.812500
5754		-1.953125
5755		-3.906250
5756		1.953125
5757		0.000000
5758		5.859375
5759		3.906250
5760		7.812500
5761		7.812500
5762		11.718750
5763		9.765625
5764		15.625000
5765		13.671875
5766		19.531250
5767		17.578125
5768		21.484375
5769		21.484375
5770		25.390625
5771		23.437500
5772		29.296875
5773		27.343750
5774		33.203125
5775		31.250000
5776		35.156250
5777		35.156250
5778		39.062500
5779		37.109375
5780		41.015625
5781		41.015625
5782		44.921875
5783		42.968750
5784		48.828125
5785		46.875000
5786		50.781250
5787		48.828125
5788		52.734375
5789		52.734375
5790		56.640625
5791		54.687500
5792		58.593750
5793		58.593750
5794		60.546875
5795		60.546875
5796		64.453125
5797		62.500000
5798		66.406250
5799		64.453125
5800		68.359375
5801		66.406250
5802		70.312500
5803		68.359375
5804		72.265625
5805		70.312500
5806		72.265625
5807		72.265625
5808		74.218750
5809		72.265625
5810		76.171875
5811		74.218750
5812		78.125000
5813		76.171875
5814		78.125000
5815		76.171875
5816		80.078125
5817		78.125000
5818		80.078125
5819		78.125000
5820		80.078125
5821		80.078125
5822		82.031250
5823		80.078125
5824		82.031250
5825		80.078125
5826		82.031250
5827		80.078125
5828		82.031250
5829		80.078125
5830		82.031250
5831		80.078125
5832		82.031250
5833		78.125000
5834		80.078125
5835		78.125000
5836		80.078125
5837		78.125000
5838		80.078125
5839		76.171875
5840		78.125000
5841		76.171875
5842		78.125000
5843		74.218750
5844		76.171875
5845		72.265625
5846		76.171875
5847		72.265625
5848		74.218750
5849		70.312500
5850		72.265625
5851		68.359375
5852		70.312500
5853		66.406250
5854		70.312500
5855		64.453125
5856		68.359375
5857		62.500000
5858		64.453125
5859		58.593750
5860		62.500000
5861		56.640625
5862		60.546875
5863		54.687500
5864		58.593750
5865		50.781250
5866		54.687500
5867		48.828125
5868		52.734375
5869		44.921875
5870		50.781250
5871		42.968750
5872		46.875000
5873		39.062500
5874		44.921875
5875		37.109375
5876		41.015625
5877		33.203125
5878		37.109375
5879		29.296875
5880		35.156250
5881		25.390625
5882		31.250000
5883		23.437500
5884		27.343750
5885		19.531250
5886		23.437500
5887		15.625000
5888		21.484375
5889		11.718750
5890		17.578125
5891		9.765625
5892		13.671875
5893		5.859375
5894		9.765625
5895		1.953125
5896		7.812500
5897		-1.953125
5898		3.906250
5899		-5.859375
5900		0.000000
5901		-7.812500
5902		-3.906250
5903		-11.718750
5904		-7.812500
5905		-15.625000
5906		-9.765625
5907		-19.531250
5908		-13.671875
5909		-21.484375
5910		-17.578125
5911		-25.390625
5912		-21.484375
5913		-27.343750
5914		-23.437500
5915		-31.250000
5916		-27.343750
5917		-35.156250
5918		-29.296875
5919		-37.109375
5920		-33.203125
5921		-39.062500
5922		-35.156250
5923		-42.968750
5924		-39.062500
5925		-44.921875
5926		-41.015625
5927		-46.875000
5928		-42.968750
5929		-48.828125
5930		-46.875000
5931		-50.781250
5932		-48.828125
5933		-52.734375
5934		-50.781250
5935		-54.687500
5936		-52.734375
5937		-56.640625
5938		-52.734375
5939		-58.593750
5940		-54.687500
5941		-58.593750
5942		-56.640625
5943		-60.546875
5944		-56.640625
5945		-60.546875
5946		-58.593750
5947		-60.546875
5948		-58.593750
5949		-62.500000
5950		-60.546875
5951		-62.500000
5952		-60.546875
5953		-62.500000
5954		-60.546875
5955		-62.500000
5956		-60.546875
5957		-62.500000
5958		-60.546875
5959		-62.500000
5960		-58.593750
5961		-60.546875
5962		-58.593750
5963		-60.546875
5964		-56.640625
5965		-58.593750
5966		-56.640625
5967		-58.593750
5968		-54.687500
5969		-56.640625
5970		-54.687500
5971		-56.640625
5972		-52.734375
5973		-54.687500
5974		-50.781250
5975		-52.734375
5976		-48.828125
5977		-50.781250
5978		-46.875000
5979		-48.828125
5980		-44.921875
5981		-44.921875
5982		-41.015625
5983		-42.968750
5984		-39.062500
5985		-41.015625
5986		-37.109375
5987		-39.062500
5988		-33.203125
5989		-35.156250
5990		-31.250000
5991		-33.203125
5992		-27.343750
5993		-29.296875
5994		-25.390625
5995		-25.390625
5996		-21.484375
5997		-23.437500
5998		-17.578125
5999		-19.531250
6000		-15.625000
6001		-15.625000
6002		-11.718750
6003		-13.671875
6004		-7.812500
6005		-9.765625
6006		-5.859375
6007		-5.859375
6008		-1.953125
6009		-1.953125
6010		1.953125
6011		0.000000
6012		5.859375
6013		3.906250
6014		9.765625
6015		7.812500
6016		13.671875
6017		11.718750
6018		15.625000
6019		13.671875
6020		19.531250
6021		19.531250
6022		23.437500
6023		21.484375
6024		27.343750
6025		25.390625
6026		29.296875
6027		29.296875
6028		35.156250
6029		33.203125
6030		37.109375
6031		35.156250
6032		41.015625
6033		39.062500
6034		42.968750
6035		41.015625
6036		46.875000
6037		42.968750
6038		48.828125
6039		46.875000
6040		50.781250
6041		50.781250
6042		54.687500
6043		52.734375
6044		56.640625
6045		54.687500
6046		60.546875
6047		58.593750
6048		62.500000
6049		58.593750
6050		64.453125
6051		62.500000
6052		66.406250
6053		64.453125
6054		70.312500
6055		66.406250
6056		70.312500
6057		66.406250
6058		74.218750
6059		70.312500
6060		74.218750
6061		72.265625
6062		76.171875
6063		72.265625
6064		76.171875
6065		74.218750
6066		80.078125
6067		74.218750
6068		80.078125
6069		76.171875
6070		80.078125
6071		76.171875
6072		82.031250
6073		76.171875
6074		83.984375
6075		78.125000
6076		82.031250
6077		80.078125
6078		82.031250
6079		78.125000
6080		82.031250
6081		78.125000
6082		83.984375
6083		78.125000
6084		83.984375
6085		78.125000
6086		82.031250
6087		78.125000
6088		82.031250
6089		78.125000
6090		80.078125
6091		76.171875
6092		82.031250
6093		76.171875
6094		78.125000
6095		74.218750
6096		78.125000
6097		70.312500
6098		78.125000
6099		70.312500
6100		76.171875
6101		70.312500
6102		74.218750
6103		68.359375
6104		72.265625
6105		66.406250
6106		70.312500
6107		64.453125
6108		70.312500
6109		62.500000
6110		66.406250
6111		60.546875
6112		64.453125
6113		58.593750
6114		62.500000
6115		52.734375
6116		62.500000
6117		52.734375
6118		56.640625
6119		48.828125
6120		54.687500
6121		44.921875
6122		52.734375
6123		39.062500
6124		48.828125
6125		41.015625
6126		46.875000
6127		39.062500
6128		42.968750
6129		35.156250
6130		39.062500
6131		31.250000
6132		37.109375
6133		27.343750
6134		35.156250
6135		25.390625
6136		29.296875
6137		19.531250
6138		27.343750
6139		17.578125
6140		25.390625
6141		13.671875
6142		21.484375
6143		11.718750
6144		17.578125
6145		7.812500
6146		11.718750
6147		1.953125
6148		9.765625
6149		0.000000
6150		9.765625
6151		-1.953125
6152		3.906250
6153		-5.859375
6154		-1.953125
6155		-11.718750
6156		-1.953125
6157		-15.625000
6158		-7.812500
6159		-17.578125
6160		-11.718750
6161		-19.531250
6162		-15.625000
6163		-23.437500
6164		-19.531250
6165		-29.296875
6166		-19.531250
6167		-29.296875
6168		-23.437500
6169		-33.203125
6170		-27.343750
6171		-39.062500
6172		-29.296875
6173		-41.015625
6174		-31.250000
6175		-42.968750
6176		-33.203125
6177		-42.968750
6178		-39.062500
6179		-46.875000
6180		-41.015625
6181		-50.781250
6182		-42.968750
6183		-52.734375
6184		-44.921875
6185		-52.734375
6186		-48.828125
6187		-56.640625
6188		-50.781250
6189		-58.593750
6190		-48.828125
6191		-60.546875
6192		-50.781250
6193		-58.593750
6194		-54.687500
6195		-58.593750
6196		-56.640625
6197		-60.546875
6198		-56.640625
6199		-64.453125
6200		-56.640625
6201		-62.500000
6202		-58.593750
6203		-62.500000
6204		-60.546875
6205		-66.406250
6206		-56.640625
6207		-66.406250
6208		-56.640625
6209		-62.500000
6210		-58.593750
6211		-62.500000
6212		-58.593750
6213		-62.500000
6214		-58.593750
6215		-62.500000
6216		-54.687500
6217		-62.500000
6218		-56.640625
6219		-58.593750
6220		-56.640625
6221		-60.546875
6222		-52.734375
6223		-60.546875
6224		-50.781250
6225		-56.640625
6226		-48.828125
6227		-52.734375
6228		-48.828125
6229		-50.781250
6230		-48.828125
6231		-50.781250
6232		-44.921875
6233		-50.781250
6234		-41.015625
6235		-44.921875
6236		-41.015625
6237		-42.968750
6238		-37.109375
6239		-41.015625
6240		-33.203125
6241		-37.109375
6242		-31.250000
6243		-35.156250
6244		-29.296875
6245		-31.250000
6246		-27.343750
6247		-27.343750
6248		-23.437500
6249		-27.343750
6250		-19.531250
6251		-23.437500
6252		-17.578125
6253		-17.578125
6254		-13.671875
6255		-15.625000
6256		-7.812500
6257		-13.671875
6258		-7.812500
6259		-9.765625
6260		-3.906250
6261		-5.859375
6262		0.000000
6263		-1.953125
6264		3.906250
6265		0.000000
6266		11.718750
6267		3.906250
6268		11.718750
6269		9.765625
6270		13.671875
6271		13.671875
6272		19.531250
6273		13.671875
6274		23.437500
6275		19.531250
6276		27.343750
6277		23.437500
6278		27.343750
6279		27.343750
6280		31.250000
6281		29.296875
6282		37.109375
6283		31.250000
6284		39.062500
6285		35.156250
6286		41.015625
6287		39.062500
6288		42.968750
6289		41.015625
6290		50.781250
6291		44.921875
6292		52.734375
6293		46.875000
6294		52.734375
6295		50.781250
6296		54.687500
6297		54.687500
6298		58.593750
6299		54.687500
6300		62.500000
6301		58.593750
6302		64.453125
6303		60.546875
6304		64.453125
6305		62.500000
6306		68.359375
6307		66.406250
6308		68.359375
6309		66.406250
6310		72.265625
6311		70.312500
6312		72.265625
6313		70.312500
6314		74.218750
6315		72.265625
6316		76.171875
6317		70.312500
6318		78.125000
6319		74.218750
6320		78.125000
6321		76.171875
6322		80.078125
6323		76.171875
6324		82.031250
6325		78.125000
6326		80.078125
6327		78.125000
6328		80.078125
6329		80.078125
6330		82.031250
6331		78.125000
6332		82.031250
6333		80.078125
6334		82.031250
6335		78.125000
6336		83.984375
6337		80.078125
6338		82.031250
6339		78.125000
6340		82.031250
6341		78.125000
6342		80.078125
6343		78.125000
6344		80.078125
6345		76.171875
6346		80.078125
6347		76.171875
6348		78.125000
6349		74.218750
6350		78.125000
6351		74.218750
6352		76.171875
6353		72.265625
6354		76.171875
6355		70.312500
6356		72.265625
6357		68.359375
6358		72.265625
6359		64.453125
6360		70.312500
6361		64.453125
6362		68.359375
6363		62.500000
6364		66.406250
6365		60.546875
6366		64.453125
6367		56.640625
6368		60.546875
6369		54.687500
6370		58.593750
6371		52.734375
6372		56.640625
6373		48.828125
6374		54.687500
6375		46.875000
6376		50.781250
6377		42.968750
6378		48.828125
6379		41.015625
6380		44.921875
6381		35.156250
6382		41.015625
6383		33.203125
6384		39.062500
6385		29.296875
6386		37.109375
6387		27.343750
6388		33.203125
6389		23.437500
6390		29.296875
6391		19.531250
6392		27.343750
6393		17.578125
6394		23.437500
6395		13.671875
6396		19.531250
6397		9.765625
6398		15.625000
6399		5.859375
6400		11.718750
6401		1.953125
6402		9.765625
6403		-1.953125
6404		5.859375
6405		-5.859375
6406		1.953125
6407		-7.812500
6408		-1.953125
6409		-11.718750
6410		-5.859375
6411		-13.671875
6412		-9.765625
6413		-17.578125
6414		-13.671875
6415		-21.484375
6416		-15.625000
6417		-25.390625
6418		-17.578125
6419		-29.296875
6420		-21.484375
6421		-31.250000
6422		-25.390625
6423		-35.156250
6424		-27.343750
6425		-37.109375
6426		-31.250000
6427		-39.062500
6428		-33.203125
6429		-42.968750
6430		-37.109375
6431		-44.921875
6432		-41.015625
6433		-48.828125
6434		-42.968750
6435		-50.781250
6436		-44.921875
6437		-52.734375
6438		-46.875000
6439		-54.687500
6440		-48.828125
6441		-56.640625
6442		-50.781250
6443		-56.640625
6444		-52.734375
6445		-58.593750
6446		-54.687500
6447		-58.593750
6448		-56.640625
6449		-60.546875
6450		-56.640625
6451		-62.500000
6452		-58.593750
6453		-62.500000
6454		-58.593750
6455		-64.453125
6456		-58.593750
6457		-64.453125
6458		-58.593750
6459		-64.453125
6460		-58.593750
6461		-62.500000
6462		-60.546875
6463		-64.453125
6464		-60.546875
6465		-62.500000
6466		-58.593750
6467		-62.500000
6468		-58.593750
6469		-62.500000
6470		-56.640625
6471		-62.500000
6472		-56.640625
6473		-60.546875
6474		-54.687500
6475		-58.593750
6476		-54.687500
6477		-56.640625
6478		-52.734375
6479		-54.687500
6480		-50.781250
6481		-52.734375
6482		-50.781250
6483		-52.734375
6484		-46.875000
6485		-50.781250
6486		-44.921875
6487		-46.875000
6488		-42.968750
6489		-46.875000
6490		-41.015625
6491		-42.968750
6492		-37.109375
6493		-41.015625
6494		-35.156250
6495		-37.109375
6496		-33.203125
6497		-33.203125
6498		-29.296875
6499		-31.250000
6500		-27.343750
6501		-27.343750
6502		-23.437500
6503		-25.390625
6504		-19.531250
6505		-21.484375
6506		-15.625000
6507		-19.531250
6508		-13.671875
6509		-15.625000
6510		-9.765625
6511		-11.718750
6512		-5.859375
6513		-7.812500
6514		-3.906250
6515		-3.906250
6516		1.953125
6517		-1.953125
6518		3.906250
6519		1.953125
6520		7.812500
6521		5.859375
6522		13.671875
6523		9.765625
6524		13.671875
6525		11.718750
6526		17.578125
6527		15.625000
6528		21.484375
6529		19.531250
6530		25.390625
6531		23.437500
6532		29.296875
6533		27.343750
6534		31.250000
6535		29.296875
6536		35.156250
6537		33.203125
6538		39.062500
6539		35.156250
6540		41.015625
6541		39.062500
6542		44.921875
6543		42.968750
6544		46.875000
6545		44.921875
6546		50.781250
6547		48.828125
6548		52.734375
6549		50.781250
6550		56.640625
6551		54.687500
6552		58.593750
6553		56.640625
6554		60.546875
6555		58.593750
6556		64.453125
6557		60.546875
6558		66.406250
6559		64.453125
6560		68.359375
6561		64.453125
6562		70.312500
6563		68.359375
6564		70.312500
6565		70.312500
6566		72.265625
6567		70.312500
6568		74.218750
6569		72.265625
6570		76.171875
6571		74.218750
6572		78.125000
6573		74.218750
6574		78.125000
6575		76.171875
6576		78.125000
6577		76.171875
6578		80.078125
6579		76.171875
6580		80.078125
6581		78.125000
6582		80.078125
6583		78.125000
6584		82.031250
6585		78.125000
6586		82.031250
6587		80.078125
6588		82.031250
6589		78.125000
6590		82.031250
6591		78.125000
6592		82.031250
6593		78.125000
6594		82.031250
6595		78.125000
6596		82.031250
6597		76.171875
6598		80.078125
6599		74.218750
6600		78.125000
6601		74.218750
6602		78.125000
6603		74.218750
6604		76.171875
6605		72.265625
6606		76.171875
6607		70.312500
6608		74.218750
6609		68.359375
6610		74.218750
6611		66.406250
6612		70.312500
6613		66.406250
6614		68.359375
6615		62.500000
6616		66.406250
6617		60.546875
6618		66.406250
6619		58.593750
6620		62.500000
6621		56.640625
6622		60.546875
6623		52.734375
6624		58.593750
6625		50.781250
6626		54.687500
6627		48.828125
6628		52.734375
6629		44.921875
6630		50.781250
6631		42.968750
6632		46.875000
6633		39.062500
6634		42.968750
6635		37.109375
6636		41.015625
6637		33.203125
6638		37.109375
6639		29.296875
6640		35.156250
6641		25.390625
6642		31.250000
6643		23.437500
6644		27.343750
6645		19.531250
6646		25.390625
6647		15.625000
6648		21.484375
6649		11.718750
6650		17.578125
6651		9.765625
6652		13.671875
6653		5.859375
6654		9.765625
6655		1.953125
6656		5.859375
6657		-1.953125
6658		1.953125
6659		-5.859375
6660		0.000000
6661		-9.765625
6662		-3.906250
6663		-11.718750
6664		-5.859375
6665		-15.625000
6666		-11.718750
6667		-19.531250
6668		-13.671875
6669		-23.437500
6670		-17.578125
6671		-25.390625
6672		-21.484375
6673		-29.296875
6674		-23.437500
6675		-31.250000
6676		-27.343750
6677		-35.156250
6678		-29.296875
6679		-37.109375
6680		-33.203125
6681		-41.015625
6682		-35.156250
6683		-44.921875
6684		-39.062500
6685		-44.921875
6686		-41.015625
6687		-48.828125
6688		-42.968750
6689		-50.781250
6690		-46.875000
6691		-52.734375
6692		-48.828125
6693		-54.687500
6694		-50.781250
6695		-56.640625
6696		-52.734375
6697		-56.640625
6698		-54.687500
6699		-58.593750
6700		-56.640625
6701		-60.546875
6702		-56.640625
6703		-60.546875
6704		-58.593750
6705		-62.500000
6706		-58.593750
6707		-62.500000
6708		-60.546875
6709		-62.500000
6710		-60.546875
6711		-64.453125
6712		-60.546875
6713		-64.453125
6714		-60.546875
6715		-62.500000
6716		-60.546875
6717		-64.453125
6718		-60.546875
6719		-62.500000
6720		-60.546875
6721		-62.500000
6722		-58.593750
6723		-62.500000
6724		-58.593750
6725		-60.546875
6726		-56.640625
6727		-58.593750
6728		-56.640625
6729		-58.593750
6730		-54.687500
6731		-56.640625
6732		-52.734375
6733		-54.687500
6734		-50.781250
6735		-54.687500
6736		-48.828125
6737		-50.781250
6738		-46.875000
6739		-48.828125
6740		-44.921875
6741		-46.875000
6742		-42.968750
6743		-44.921875
6744		-41.015625
6745		-42.968750
6746		-37.109375
6747		-39.062500
6748		-35.156250
6749		-37.109375
6750		-31.250000
6751		-33.203125
6752		-29.296875
6753		-31.250000
6754		-25.390625
6755		-27.343750
6756		-21.484375
6757		-25.390625
6758		-19.531250
6759		-21.484375
6760		-15.625000
6761		-17.578125
6762		-11.718750
6763		-13.671875
6764		-9.765625
6765		-11.718750
6766		-5.859375
6767		-7.812500
6768		-1.953125
6769		-3.906250
6770		1.953125
6771		0.000000
6772		3.906250
6773		1.953125
6774		7.812500
6775		7.812500
6776		11.718750
6777		9.765625
6778		15.625000
6779		13.671875
6780		19.531250
6781		17.578125
6782		21.484375
6783		21.484375
6784		25.390625
6785		23.437500
6786		29.296875
6787		27.343750
6788		33.203125
6789		31.250000
6790		37.109375
6791		33.203125
6792		39.062500
6793		37.109375
6794		42.968750
6795		41.015625
6796		44.921875
6797		42.968750
6798		46.875000
6799		46.875000
6800		50.781250
6801		48.828125
6802		54.687500
6803		50.781250
6804		56.640625
6805		54.687500
6806		58.593750
6807		56.640625
6808		60.546875
6809		60.546875
6810		64.453125
6811		62.500000
6812		64.453125
6813		64.453125
6814		68.359375
6815		66.406250
6816		68.359375
6817		68.359375
6818		70.312500
6819		68.359375
6820		74.218750
6821		70.312500
6822		74.218750
6823		72.265625
6824		76.171875
6825		74.218750
6826		78.125000
6827		74.218750
6828		78.125000
6829		76.171875
6830		80.078125
6831		76.171875
6832		80.078125
6833		78.125000
6834		80.078125
6835		78.125000
6836		82.031250
6837		78.125000
6838		82.031250
6839		78.125000
6840		82.031250
6841		78.125000
6842		82.031250
6843		78.125000
6844		82.031250
6845		78.125000
6846		82.031250
6847		76.171875
6848		82.031250
6849		78.125000
6850		80.078125
6851		76.171875
6852		80.078125
6853		76.171875
6854		78.125000
6855		74.218750
6856		78.125000
6857		72.265625
6858		76.171875
6859		72.265625
6860		74.218750
6861		70.312500
6862		74.218750
6863		68.359375
6864		72.265625
6865		66.406250
6866		70.312500
6867		64.453125
6868		68.359375
6869		62.500000
6870		66.406250
6871		60.546875
6872		64.453125
6873		56.640625
6874		62.500000
6875		54.687500
6876		58.593750
6877		52.734375
6878		56.640625
6879		48.828125
6880		54.687500
6881		46.875000
6882		52.734375
6883		44.921875
6884		48.828125
6885		41.015625
6886		44.921875
6887		39.062500
6888		42.968750
6889		35.156250
6890		39.062500
6891		31.250000
6892		37.109375
6893		27.343750
6894		33.203125
6895		25.390625
6896		29.296875
6897		21.484375
6898		27.343750
6899		17.578125
6900		23.437500
6901		13.671875
6902		19.531250
6903		9.765625
6904		17.578125
6905		7.812500
6906		11.718750
6907		3.906250
6908		9.765625
6909		0.000000
6910		5.859375
6911		-3.906250
6912		1.953125
6913		-7.812500
6914		-1.953125
6915		-9.765625
6916		-3.906250
6917		-13.671875
6918		-9.765625
6919		-17.578125
6920		-11.718750
6921		-19.531250
6922		-15.625000
6923		-23.437500
6924		-17.578125
6925		-27.343750
6926		-21.484375
6927		-29.296875
6928		-25.390625
6929		-33.203125
6930		-29.296875
6931		-35.156250
6932		-31.250000
6933		-39.062500
6934		-35.156250
6935		-41.015625
6936		-37.109375
6937		-44.921875
6938		-39.062500
6939		-46.875000
6940		-41.015625
6941		-48.828125
6942		-44.921875
6943		-50.781250
6944		-46.875000
6945		-52.734375
6946		-48.828125
6947		-54.687500
6948		-50.781250
6949		-56.640625
6950		-52.734375
6951		-58.593750
6952		-54.687500
6953		-58.593750
6954		-54.687500
6955		-60.546875
6956		-56.640625
6957		-62.500000
6958		-56.640625
6959		-62.500000
6960		-58.593750
6961		-62.500000
6962		-60.546875
6963		-62.500000
6964		-60.546875
6965		-64.453125
6966		-60.546875
6967		-62.500000
6968		-60.546875
6969		-64.453125
6970		-60.546875
6971		-64.453125
6972		-60.546875
6973		-62.500000
6974		-58.593750
6975		-62.500000
6976		-58.593750
6977		-60.546875
6978		-58.593750
6979		-60.546875
6980		-56.640625
6981		-58.593750
6982		-54.687500
6983		-58.593750
6984		-54.687500
6985		-56.640625
6986		-52.734375
6987		-54.687500
6988		-50.781250
6989		-52.734375
6990		-48.828125
6991		-50.781250
6992		-46.875000
6993		-48.828125
6994		-42.968750
6995		-46.875000
6996		-42.968750
6997		-44.921875
6998		-39.062500
6999		-41.015625
7000		-37.109375
7001		-39.062500
7002		-35.156250
7003		-35.156250
7004		-31.250000
7005		-33.203125
7006		-29.296875
7007		-31.250000
7008		-25.390625
7009		-27.343750
7010		-21.484375
7011		-23.437500
7012		-17.578125
7013		-19.531250
7014		-15.625000
7015		-17.578125
7016		-11.718750
7017		-13.671875
7018		-7.812500
7019		-9.765625
7020		-5.859375
7021		-7.812500
7022		-1.953125
7023		-3.906250
7024		1.953125
7025		0.000000
7026		5.859375
7027		3.906250
7028		9.765625
7029		7.812500
7030		13.671875
7031		11.718750
7032		17.578125
7033		13.671875
7034		19.531250
7035		17.578125
7036		23.437500
7037		21.484375
7038		27.343750
7039		25.390625
7040		31.250000
7041		29.296875
7042		33.203125
7043		31.250000
7044		37.109375
7045		35.156250
7046		41.015625
7047		37.109375
7048		42.968750
7049		41.015625
7050		46.875000
7051		44.921875
7052		48.828125
7053		46.875000
7054		52.734375
7055		48.828125
7056		54.687500
7057		52.734375
7058		56.640625
7059		54.687500
7060		60.546875
7061		58.593750
7062		62.500000
7063		60.546875
7064		64.453125
7065		62.500000
7066		66.406250
7067		64.453125
7068		68.359375
7069		66.406250
7070		70.312500
7071		68.359375
7072		72.265625
7073		70.312500
7074		74.218750
7075		72.265625
7076		76.171875
7077		72.265625
7078		76.171875
7079		74.218750
7080		78.125000
7081		74.218750
7082		80.078125
7083		76.171875
7084		80.078125
7085		76.171875
7086		80.078125
7087		78.125000
7088		82.031250
7089		78.125000
7090		80.078125
7091		78.125000
7092		82.031250
7093		78.125000
7094		82.031250
7095		78.125000
7096		82.031250
7097		78.125000
7098		82.031250
7099		78.125000
7100		82.031250
7101		78.125000
7102		80.078125
7103		78.125000
7104		80.078125
7105		76.171875
7106		80.078125
7107		74.218750
7108		78.125000
7109		74.218750
7110		78.125000
7111		72.265625
7112		76.171875
7113		72.265625
7114		74.218750
7115		70.312500
7116		74.218750
7117		68.359375
7118		72.265625
7119		66.406250
7120		70.312500
7121		64.453125
7122		68.359375
7123		62.500000
7124		66.406250
7125		58.593750
7126		62.500000
7127		56.640625
7128		62.500000
7129		54.687500
7130		58.593750
7131		50.781250
7132		56.640625
7133		48.828125
7134		52.734375
7135		46.875000
7136		50.781250
7137		42.968750
7138		48.828125
7139		41.015625
7140		44.921875
7141		37.109375
7142		41.015625
7143		35.156250
7144		39.062500
7145		31.250000
7146		35.156250
7147		27.343750
7148		33.203125
7149		23.437500
7150		29.296875
7151		21.484375
7152		25.390625
7153		17.578125
7154		21.484375
7155		13.671875
7156		19.531250
7157		9.765625
7158		15.625000
7159		5.859375
7160		11.718750
7161		3.906250
7162		7.812500
7163		0.000000
7164		3.906250
7165		-3.906250
7166		0.000000
7167		-7.812500
7168		-1.953125
7169		-11.718750
7170		-5.859375
7171		-15.625000
7172		-9.765625
7173		-17.578125
7174		-13.671875
7175		-21.484375
7176		-15.625000
7177		-25.390625
7178		-19.531250
7179		-27.343750
7180		-23.437500
7181		-31.250000
7182		-25.390625
7183		-35.156250
7184		-29.296875
7185		-37.109375
7186		-33.203125
7187		-39.062500
7188		-35.156250
7189		-42.968750
7190		-37.109375
7191		-44.921875
7192		-41.015625
7193		-46.875000
7194		-42.968750
7195		-48.828125
7196		-44.921875
7197		-50.781250
7198		-46.875000
7199		-52.734375
7200		-48.828125
7201		-54.687500
7202		-50.781250
7203		-56.640625
7204		-52.734375
7205		-58.593750
7206		-54.687500
7207		-60.546875
7208		-56.640625
7209		-60.546875
7210		-56.640625
7211		-60.546875
7212		-58.593750
7213		-62.500000
7214		-58.593750
7215		-62.500000
7216		-60.546875
7217		-62.500000
7218		-60.546875
7219		-62.500000
7220		-60.546875
7221		-64.453125
7222		-60.546875
7223		-62.500000
7224		-60.546875
7225		-62.500000
7226		-60.546875
7227		-62.500000
7228		-58.593750
7229		-60.546875
7230		-58.593750
7231		-60.546875
7232		-58.593750
7233		-60.546875
7234		-56.640625
7235		-58.593750
7236		-54.687500
7237		-56.640625
7238		-54.687500
7239		-54.687500
7240		-50.781250
7241		-54.687500
7242		-50.781250
7243		-52.734375
7244		-48.828125
7245		-48.828125
7246		-44.921875
7247		-48.828125
7248		-42.968750
7249		-44.921875
7250		-41.015625
7251		-42.968750
7252		-39.062500
7253		-41.015625
7254		-35.156250
7255		-37.109375
7256		-33.203125
7257		-35.156250
7258		-29.296875
7259		-31.250000
7260		-25.390625
7261		-29.296875
7262		-23.437500
7263		-25.390625
7264		-21.484375
7265		-21.484375
7266		-17.578125
7267		-19.531250
7268		-13.671875
7269		-15.625000
7270		-11.718750
7271		-11.718750
7272		-7.812500
7273		-9.765625
7274		-3.906250
7275		-5.859375
7276		0.000000
7277		-1.953125
7278		3.906250
7279		1.953125
7280		7.812500
7281		5.859375
7282		9.765625
7283		7.812500
7284		13.671875
7285		11.718750
7286		17.578125
7287		15.625000
7288		21.484375
7289		19.531250
7290		25.390625
7291		23.437500
7292		27.343750
7293		27.343750
7294		31.250000
7295		29.296875
7296		35.156250
7297		33.203125
7298		37.109375
7299		35.156250
7300		41.015625
7301		39.062500
7302		44.921875
7303		42.968750
7304		46.875000
7305		44.921875
7306		50.781250
7307		48.828125
7308		52.734375
7309		50.781250
7310		54.687500
7311		52.734375
7312		58.593750
7313		56.640625
7314		60.546875
7315		58.593750
7316		62.500000
7317		60.546875
7318		66.406250
7319		64.453125
7320		66.406250
7321		64.453125
7322		68.359375
7323		66.406250
7324		72.265625
7325		68.359375
7326		72.265625
7327		70.312500
7328		74.218750
7329		72.265625
7330		76.171875
7331		72.265625
7332		76.171875
7333		74.218750
7334		78.125000
7335		74.218750
7336		78.125000
7337		76.171875
7338		80.078125
7339		76.171875
7340		80.078125
7341		78.125000
7342		82.031250
7343		78.125000
7344		82.031250
7345		78.125000
7346		82.031250
7347		78.125000
7348		82.031250
7349		78.125000
7350		82.031250
7351		78.125000
7352		82.031250
7353		78.125000
7354		82.031250
7355		78.125000
7356		80.078125
7357		76.171875
7358		80.078125
7359		76.171875
7360		80.078125
7361		74.218750
7362		78.125000
7363		74.218750
7364		76.171875
7365		72.265625
7366		76.171875
7367		70.312500
7368		74.218750
7369		70.312500
7370		72.265625
7371		68.359375
7372		70.312500
7373		64.453125
7374		68.359375
7375		62.500000
7376		68.359375
7377		60.546875
7378		64.453125
7379		58.593750
7380		62.500000
7381		56.640625
7382		60.546875
7383		54.687500
7384		58.593750
7385		50.781250
7386		56.640625
7387		48.828125
7388		52.734375
7389		44.921875
7390		50.781250
7391		41.015625
7392		48.828125
7393		39.062500
7394		44.921875
7395		35.156250
7396		41.015625
7397		33.203125
7398		37.109375
7399		29.296875
7400		35.156250
7401		25.390625
7402		31.250000
7403		23.437500
7404		27.343750
7405		19.531250
7406		23.437500
7407		15.625000
7408		21.484375
7409		11.718750
7410		17.578125
7411		7.812500
7412		13.671875
7413		5.859375
7414		9.765625
7415		1.953125
7416		7.812500
7417		-1.953125
7418		3.906250
7419		-5.859375
7420		0.000000
7421		-7.812500
7422		-3.906250
7423		-13.671875
7424		-7.812500
7425		-15.625000
7426		-9.765625
7427		-19.531250
7428		-13.671875
7429		-23.437500
7430		-17.578125
7431		-25.390625
7432		-21.484375
7433		-29.296875
7434		-23.437500
7435		-31.250000
7436		-27.343750
7437		-35.156250
7438		-29.296875
7439		-37.109375
7440		-33.203125
7441		-41.015625
7442		-35.156250
7443		-42.968750
7444		-39.062500
7445		-44.921875
7446		-41.015625
7447		-48.828125
7448		-44.921875
7449		-50.781250
7450		-46.875000
7451		-52.734375
7452		-46.875000
7453		-54.687500
7454		-50.781250
7455		-54.687500
7456		-52.734375
7457		-56.640625
7458		-54.687500
7459		-58.593750
7460		-54.687500
7461		-60.546875
7462		-56.640625
7463		-60.546875
7464		-58.593750
7465		-62.500000
7466		-58.593750
7467		-62.500000
7468		-58.593750
7469		-64.453125
7470		-58.593750
7471		-62.500000
7472		-60.546875
7473		-64.453125
7474		-60.546875
7475		-64.453125
7476		-60.546875
7477		-62.500000
7478		-60.546875
7479		-62.500000
7480		-60.546875
7481		-62.500000
7482		-58.593750
7483		-62.500000
7484		-58.593750
7485		-60.546875
7486		-56.640625
7487		-58.593750
7488		-56.640625
7489		-58.593750
7490		-54.687500
7491		-58.593750
7492		-52.734375
7493		-54.687500
7494		-50.781250
7495		-52.734375
7496		-48.828125
7497		-52.734375
7498		-46.875000
7499		-48.828125
7500		-44.921875
7501		-46.875000
7502		-42.968750
7503		-44.921875
7504		-41.015625
7505		-41.015625
7506		-37.109375
7507		-39.062500
7508		-35.156250
7509		-37.109375
7510		-31.250000
7511		-33.203125
7512		-29.296875
7513		-31.250000
7514		-25.390625
7515		-27.343750
7516		-21.484375
7517		-25.390625
7518		-19.531250
7519		-21.484375
7520		-15.625000
7521		-17.578125
7522		-13.671875
7523		-13.671875
7524		-9.765625
7525		-11.718750
7526		-5.859375
7527		-7.812500
7528		-1.953125
7529		-3.906250
7530		0.000000
7531		0.000000
7532		5.859375
7533		3.906250
7534		7.812500
7535		5.859375
7536		11.718750
7537		7.812500
7538		15.625000
7539		13.671875
7540		17.578125
7541		17.578125
7542		21.484375
7543		21.484375
7544		25.390625
7545		23.437500
7546		29.296875
7547		27.343750
7548		33.203125
7549		31.250000
7550		35.156250
7551		33.203125
7552		39.062500
7553		37.109375
7554		41.015625
7555		41.015625
7556		44.921875
7557		42.968750
7558		46.875000
7559		44.921875
7560		50.781250
7561		48.828125
7562		52.734375
7563		52.734375
7564		56.640625
7565		52.734375
7566		58.593750
7567		56.640625
7568		62.500000
7569		60.546875
7570		64.453125
7571		62.500000
7572		64.453125
7573		62.500000
7574		66.406250
7575		64.453125
7576		70.312500
7577		66.406250
7578		72.265625
7579		68.359375
7580		72.265625
7581		70.312500
7582		74.218750
7583		72.265625
7584		76.171875
7585		74.218750
7586		76.171875
7587		74.218750
7588		78.125000
7589		76.171875
7590		78.125000
7591		78.125000
7592		80.078125
7593		78.125000
7594		80.078125
7595		78.125000
7596		82.031250
7597		78.125000
7598		82.031250
7599		78.125000
7600		82.031250
7601		78.125000
7602		82.031250
7603		78.125000
7604		82.031250
7605		78.125000
7606		82.031250
7607		78.125000
7608		80.078125
7609		76.171875
7610		80.078125
7611		76.171875
7612		80.078125
7613		76.171875
7614		78.125000
7615		74.218750
7616		78.125000
7617		74.218750
7618		76.171875
7619		72.265625
7620		76.171875
7621		70.312500
7622		74.218750
7623		68.359375
7624		72.265625
7625		66.406250
7626		70.312500
7627		64.453125
7628		68.359375
7629		62.500000
7630		66.406250
7631		60.546875
7632		64.453125
7633		56.640625
7634		62.500000
7635		54.687500
7636		60.546875
7637		52.734375
7638		56.640625
7639		50.781250
7640		54.687500
7641		46.875000
7642		50.781250
7643		44.921875
7644		48.828125
7645		41.015625
7646		46.875000
7647		39.062500
7648		42.968750
7649		35.156250
7650		39.062500
7651		31.250000
7652		37.109375
7653		27.343750
7654		33.203125
7655		25.390625
7656		31.250000
7657		21.484375
7658		27.343750
7659		17.578125
7660		23.437500
7661		15.625000
7662		19.531250
7663		11.718750
7664		15.625000
7665		7.812500
7666		13.671875
7667		3.906250
7668		9.765625
7669		0.000000
7670		5.859375
7671		-3.906250
7672		1.953125
7673		-5.859375
7674		-1.953125
7675		-9.765625
7676		-5.859375
7677		-13.671875
7678		-7.812500
7679		-17.578125
7680		-11.718750
7681		-19.531250
7682		-15.625000
7683		-23.437500
7684		-19.531250
7685		-27.343750
7686		-21.484375
7687		-31.250000
7688		-25.390625
7689		-33.203125
7690		-29.296875
7691		-35.156250
7692		-31.250000
7693		-39.062500
7694		-33.203125
7695		-41.015625
7696		-37.109375
7697		-44.921875
7698		-39.062500
7699		-46.875000
7700		-42.968750
7701		-48.828125
7702		-44.921875
7703		-50.781250
7704		-46.875000
7705		-52.734375
7706		-48.828125
7707		-54.687500
7708		-50.781250
7709		-56.640625
7710		-52.734375
7711		-58.593750
7712		-54.687500
7713		-58.593750
7714		-56.640625
7715		-60.546875
7716		-56.640625
7717		-62.500000
7718		-56.640625
7719		-62.500000
7720		-58.593750
7721		-64.453125
7722		-58.593750
7723		-62.500000
7724		-60.546875
7725		-62.500000
7726		-60.546875
7727		-64.453125
7728		-58.593750
7729		-64.453125
7730		-60.546875
7731		-62.500000
7732		-60.546875
7733		-64.453125
7734		-58.593750
7735		-62.500000
7736		-58.593750
7737		-62.500000
7738		-58.593750
7739		-60.546875
7740		-56.640625
7741		-58.593750
7742		-56.640625
7743		-58.593750
7744		-54.687500
7745		-56.640625
7746		-52.734375
7747		-54.687500
7748		-50.781250
7749		-52.734375
7750		-48.828125
7751		-50.781250
7752		-46.875000
7753		-48.828125
7754		-44.921875
7755		-46.875000
7756		-42.968750
7757		-42.968750
7758		-39.062500
7759		-41.015625
7760		-35.156250
7761		-39.062500
7762		-33.203125
7763		-35.156250
7764		-31.250000
7765		-33.203125
7766		-29.296875
7767		-29.296875
7768		-25.390625
7769		-27.343750
7770		-21.484375
7771		-23.437500
7772		-17.578125
7773		-21.484375
7774		-15.625000
7775		-17.578125
7776		-11.718750
7777		-13.671875
7778		-7.812500
7779		-9.765625
7780		-5.859375
7781		-7.812500
7782		-1.953125
7783		-3.906250
7784		1.953125
7785		0.000000
7786		5.859375
7787		3.906250
7788		7.812500
7789		5.859375
7790		11.718750
7791		11.718750
7792		15.625000
7793		13.671875
7794		19.531250
7795		17.578125
7796		23.437500
7797		21.484375
7798		27.343750
7799		25.390625
7800		29.296875
7801		27.343750
7802		33.203125
7803		31.250000
7804		35.156250
7805		35.156250
7806		39.062500
7807		37.109375
7808		42.968750
7809		41.015625
7810		44.921875
7811		42.968750
7812		48.828125
7813		46.875000
7814		52.734375
7815		48.828125
7816		54.687500
7817		52.734375
7818		56.640625
7819		54.687500
7820		58.593750
7821		56.640625
7822		62.500000
7823		58.593750
7824		64.453125
7825		62.500000
7826		66.406250
7827		64.453125
7828		68.359375
7829		66.406250
7830		70.312500
7831		68.359375
7832		72.265625
7833		70.312500
7834		74.218750
7835		70.312500
7836		74.218750
7837		72.265625
7838		76.171875
7839		74.218750
7840		78.125000
7841		76.171875
7842		78.125000
7843		76.171875
7844		80.078125
7845		76.171875
7846		80.078125
7847		78.125000
7848		80.078125
7849		78.125000
7850		80.078125
7851		78.125000
7852		82.031250
7853		78.125000
7854		82.031250
7855		78.125000
7856		82.031250
7857		78.125000
7858		80.078125
7859		78.125000
7860		80.078125
7861		76.171875
7862		80.078125
7863		78.125000
7864		80.078125
7865		76.171875
7866		80.078125
7867		74.218750
7868		78.125000
7869		74.218750
7870		76.171875
7871		72.265625
7872		76.171875
7873		72.265625
7874		76.171875
7875		70.312500
7876		72.265625
7877		68.359375
7878		72.265625
7879		66.406250
7880		70.312500
7881		64.453125
7882		68.359375
7883		62.500000
7884		66.406250
7885		60.546875
7886		64.453125
7887		56.640625
7888		60.546875
7889		54.687500
7890		58.593750
7891		52.734375
7892		56.640625
7893		48.828125
7894		54.687500
7895		46.875000
7896		50.781250
7897		42.968750
7898		48.828125
7899		41.015625
7900		44.921875
7901		37.109375
7902		42.968750
7903		35.156250
7904		39.062500
7905		31.250000
7906		35.156250
7907		27.343750
7908		33.203125
7909		23.437500
7910		29.296875
7911		21.484375
7912		25.390625
7913		15.625000
7914		21.484375
7915		13.671875
7916		19.531250
7917		9.765625
7918		15.625000
7919		5.859375
7920		11.718750
7921		1.953125
7922		7.812500
7923		0.000000
7924		3.906250
7925		-3.906250
7926		0.000000
7927		-7.812500
7928		-1.953125
7929		-11.718750
7930		-5.859375
7931		-13.671875
7932		-9.765625
7933		-17.578125
7934		-13.671875
7935		-21.484375
7936		-15.625000
7937		-25.390625
7938		-19.531250
7939		-29.296875
7940		-23.437500
7941		-31.250000
7942		-25.390625
7943		-33.203125
7944		-29.296875
7945		-37.109375
7946		-31.250000
7947		-39.062500
7948		-35.156250
7949		-41.015625
7950		-37.109375
7951		-44.921875
7952		-41.015625
7953		-46.875000
7954		-42.968750
7955		-48.828125
7956		-44.921875
7957		-50.781250
7958		-46.875000
7959		-52.734375
7960		-50.781250
7961		-56.640625
7962		-50.781250
7963		-56.640625
7964		-52.734375
7965		-58.593750
7966		-54.687500
7967		-58.593750
7968		-56.640625
7969		-60.546875
7970		-56.640625
7971		-62.500000
7972		-58.593750
7973		-62.500000
7974		-58.593750
7975		-62.500000
7976		-60.546875
7977		-62.500000
7978		-60.546875
7979		-64.453125
7980		-60.546875
7981		-64.453125
7982		-60.546875
7983		-62.500000
7984		-60.546875
7985		-62.500000
7986		-60.546875
7987		-62.500000
7988		-58.593750
7989		-62.500000
7990		-58.593750
7991		-62.500000
7992		-58.593750
7993		-60.546875
7994		-56.640625
7995		-58.593750
7996		-54.687500
7997		-58.593750
7998		-52.734375
7999		-56.640625
8000		-52.734375
8001		-54.687500
8002		-50.781250
8003		-52.734375
8004		-48.828125
8005		-50.781250
8006		-44.921875
8007		-48.828125
8008		-44.921875
8009		-44.921875
8010		-41.015625
8011		-42.968750
8012		-39.062500
8013		-41.015625
8014		-37.109375
8015		-39.062500
8016		-33.203125
8017		-35.156250
8018		-31.250000
8019		-31.250000
8020		-27.343750
8021		-29.296875
8022		-23.437500
8023		-25.390625
8024		-19.531250
8025		-21.484375
8026		-17.578125
8027		-19.531250
8028		-13.671875
8029		-15.625000
8030		-11.718750
8031		-13.671875
8032		-7.812500
8033		-9.765625
8034		-3.906250
8035		-5.859375
8036		0.000000
8037		-1.953125
8038		3.906250
8039		1.953125
8040		5.859375
8041		5.859375
8042		9.765625
8043		7.812500
8044		13.671875
8045		11.718750
8046		17.578125
8047		15.625000
8048		21.484375
8049		19.531250
8050		23.437500
8051		23.437500
8052		27.343750
8053		25.390625
8054		31.250000
8055		29.296875
8056		33.203125
8057		33.203125
8058		37.109375
8059		35.156250
8060		41.015625
8061		39.062500
8062		42.968750
8063		41.015625
8064		46.875000
8065		44.921875
8066		50.781250
8067		48.828125
8068		52.734375
8069		50.781250
8070		54.687500
8071		52.734375
8072		56.640625
8073		56.640625
8074		60.546875
8075		56.640625
8076		62.500000
8077		60.546875
8078		64.453125
8079		62.500000
8080		66.406250
8081		64.453125
8082		68.359375
8083		66.406250
8084		70.312500
8085		68.359375
8086		72.265625
8087		70.312500
8088		74.218750
8089		70.312500
8090		76.171875
8091		72.265625
8092		76.171875
8093		74.218750
8094		78.125000
8095		76.171875
8096		78.125000
8097		76.171875
8098		80.078125
8099		76.171875
8100		80.078125
8101		78.125000
8102		80.078125
8103		78.125000
8104		80.078125
8105		78.125000
8106		82.031250
8107		78.125000
8108		82.031250
8109		78.125000
8110		82.031250
8111		78.125000
8112		82.031250
8113		76.171875
8114		82.031250
8115		76.171875
8116		80.078125
8117		76.171875
8118		80.078125
8119		76.171875
8120		80.078125
8121		74.218750
8122		78.125000
8123		74.218750
8124		76.171875
8125		72.265625
8126		76.171875
8127		70.312500
8128		74.218750
8129		68.359375
8130		72.265625
8131		68.359375
8132		70.312500
8133		66.406250
8134		68.359375
8135		64.453125
8136		68.359375
8137		60.546875
8138		64.453125
8139		58.593750
8140		62.500000
8141		56.640625
8142		60.546875
8143		54.687500
8144		58.593750
8145		50.781250
8146		54.687500
8147		48.828125
8148		52.734375
8149		44.921875
8150		50.781250
8151		42.968750
8152		46.875000
8153		39.062500
8154		44.921875
8155		37.109375
8156		41.015625
8157		33.203125
8158		39.062500
8159		29.296875
8160		35.156250
8161		27.343750
8162		31.250000
8163		23.437500
8164		27.343750
8165		19.531250
8166		25.390625
8167		15.625000
8168		21.484375
8169		11.718750
8170		17.578125
8171		9.765625
8172		13.671875
8173		5.859375
8174		9.765625
8175		1.953125
8176		7.812500
8177		-1.953125
8178		3.906250
8179		-5.859375
8180		0.000000
8181		-7.812500
8182		-1.953125
8183		-11.718750
8184		-5.859375
8185		-15.625000
8186		-9.765625
8187		-19.531250
8188		-13.671875
8189		-23.437500
8190		-17.578125
8191		-25.390625
8192		-21.484375
8193		-29.296875
8194		-23.437500
8195		-31.250000
8196		-27.343750
8197		-35.156250
8198		-29.296875
8199		-37.109375
8200		-33.203125
8201		-41.015625
8202		-35.156250
8203		-42.968750
8204		-39.062500
8205		-46.875000
8206		-41.015625
8207		-48.828125
8208		-42.968750
8209		-50.781250
8210		-44.921875
8211		-52.734375
8212		-48.828125
8213		-54.687500
8214		-50.781250
8215		-56.640625
8216		-52.734375
8217		-56.640625
8218		-54.687500
8219		-58.593750
8220		-54.687500
8221		-60.546875
8222		-56.640625
8223		-60.546875
8224		-58.593750
8225		-62.500000
8226		-58.593750
8227		-62.500000
8228		-60.546875
8229		-62.500000
8230		-60.546875
8231		-64.453125
8232		-60.546875
8233		-64.453125
8234		-60.546875
8235		-64.453125
8236		-60.546875
8237		-64.453125
8238		-60.546875
8239		-64.453125
8240		-60.546875
8241		-62.500000
8242		-58.593750
8243		-62.500000
8244		-58.593750
8245		-60.546875
8246		-58.593750
8247		-60.546875
8248		-56.640625
8249		-58.593750
8250		-54.687500
8251		-56.640625
8252		-52.734375
8253		-56.640625
8254		-52.734375
8255		-54.687500
8256		-48.828125
8257		-50.781250
8258		-46.875000
8259		-50.781250
8260		-46.875000
8261		-46.875000
8262		-42.968750
8263		-44.921875
8264		-41.015625
8265		-44.921875
8266		-39.062500
8267		-41.015625
8268		-35.156250
8269		-37.109375
8270		-33.203125
8271		-35.156250
8272		-29.296875
8273		-31.250000
8274		-25.390625
8275		-29.296875
8276		-23.437500
8277		-27.343750
8278		-19.531250
8279		-21.484375
8280		-17.578125
8281		-17.578125
8282		-13.671875
8283		-15.625000
8284		-9.765625
8285		-11.718750
8286		-5.859375
8287		-7.812500
8288		-1.953125
8289		-3.906250
8290		0.000000
8291		-1.953125
8292		3.906250
8293		1.953125
8294		7.812500
8295		5.859375
8296		11.718750
8297		9.765625
8298		15.625000
8299		13.671875
8300		17.578125
8301		15.625000
8302		21.484375
8303		19.531250
8304		25.390625
8305		23.437500
8306		27.343750
8307		27.343750
8308		31.250000
8309		27.343750
8310		35.156250
8311		33.203125
8312		37.109375
8313		37.109375
8314		41.015625
8315		39.062500
8316		44.921875
8317		42.968750
8318		46.875000
8319		44.921875
8320		50.781250
8321		48.828125
8322		52.734375
8323		50.781250
8324		54.687500
8325		54.687500
8326		58.593750
8327		56.640625
8328		60.546875
8329		58.593750
8330		62.500000
8331		60.546875
8332		66.406250
8333		62.500000
8334		68.359375
8335		64.453125
8336		68.359375
8337		66.406250
8338		70.312500
8339		68.359375
8340		74.218750
8341		70.312500
8342		76.171875
8343		70.312500
8344		76.171875
8345		74.218750
8346		76.171875
8347		74.218750
8348		78.125000
8349		74.218750
8350		80.078125
8351		74.218750
8352		82.031250
8353		78.125000
8354		80.078125
8355		76.171875
8356		82.031250
8357		76.171875
8358		82.031250
8359		76.171875
8360		82.031250
8361		78.125000
8362		82.031250
8363		78.125000
8364		80.078125
8365		76.171875
8366		82.031250
8367		76.171875
8368		82.031250
8369		76.171875
8370		82.031250
8371		76.171875
8372		80.078125
8373		74.218750
8374		80.078125
8375		72.265625
8376		80.078125
8377		72.265625
8378		78.125000
8379		72.265625
8380		74.218750
8381		68.359375
8382		74.218750
8383		66.406250
8384		74.218750
8385		64.453125
8386		72.265625
8387		62.500000
8388		70.312500
8389		60.546875
8390		68.359375
8391		58.593750
8392		66.406250
8393		56.640625
8394		64.453125
8395		56.640625
8396		58.593750
8397		52.734375
8398		56.640625
8399		48.828125
8400		56.640625
8401		44.921875
8402		52.734375
8403		42.968750
8404		50.781250
8405		41.015625
8406		48.828125
8407		37.109375
8408		44.921875
8409		33.203125
8410		42.968750
8411		33.203125
8412		39.062500
8413		29.296875
8414		33.203125
8415		23.437500
8416		29.296875
8417		19.531250
8418		29.296875
8419		15.625000
8420		25.390625
8421		13.671875
8422		21.484375
8423		9.765625
8424		17.578125
8425		5.859375
8426		13.671875
8427		3.906250
8428		11.718750
8429		0.000000
8430		5.859375
8431		-1.953125
8432		1.953125
8433		-7.812500
8434		0.000000
8435		-11.718750
8436		-3.906250
8437		-13.671875
8438		-5.859375
8439		-19.531250
8440		-9.765625
8441		-21.484375
8442		-13.671875
8443		-25.390625
8444		-17.578125
8445		-27.343750
8446		-21.484375
8447		-29.296875
8448		-25.390625
8449		-35.156250
8450		-27.343750
8451		-37.109375
8452		-29.296875
8453		-41.015625
8454		-31.250000
8455		-42.968750
8456		-35.156250
8457		-44.921875
8458		-37.109375
8459		-48.828125
8460		-39.062500
8461		-48.828125
8462		-42.968750
8463		-50.781250
8464		-46.875000
8465		-54.687500
8466		-48.828125
8467		-56.640625
8468		-48.828125
8469		-58.593750
8470		-50.781250
8471		-60.546875
8472		-52.734375
8473		-60.546875
8474		-52.734375
8475		-62.500000
8476		-54.687500
8477		-62.500000
8478		-56.640625
8479		-62.500000
8480		-58.593750
8481		-62.500000
8482		-60.546875
8483		-64.453125
8484		-58.593750
8485		-66.406250
8486		-58.593750
8487		-66.406250
8488		-58.593750
8489		-66.406250
8490		-58.593750
8491		-66.406250
8492		-58.593750
8493		-64.453125
8494		-58.593750
8495		-64.453125
8496		-58.593750
8497		-60.546875
8498		-58.593750
8499		-62.500000
8500		-56.640625
8501		-62.500000
8502		-54.687500
8503		-60.546875
8504		-52.734375
8505		-58.593750
8506		-50.781250
8507		-56.640625
8508		-48.828125
8509		-54.687500
8510		-48.828125
8511		-52.734375
8512		-46.875000
8513		-48.828125
8514		-44.921875
8515		-46.875000
8516		-42.968750
8517		-46.875000
8518		-37.109375
8519		-44.921875
8520		-35.156250
8521		-41.015625
8522		-33.203125
8523		-39.062500
8524		-29.296875
8525		-35.156250
8526		-27.343750
8527		-33.203125
8528		-23.437500
8529		-27.343750
8530		-23.437500
8531		-23.437500
8532		-19.531250
8533		-21.484375
8534		-13.671875
8535		-19.531250
8536		-9.765625
8537		-15.625000
8538		-5.859375
8539		-11.718750
8540		-3.906250
8541		-7.812500
8542		0.000000
8543		-5.859375
8544		3.906250
8545		-1.953125
8546		5.859375
8547		3.906250
8548		7.812500
8549		7.812500
8550		13.671875
8551		7.812500
8552		17.578125
8553		11.718750
8554		21.484375
8555		15.625000
8556		25.390625
8557		17.578125
8558		27.343750
8559		23.437500
8560		31.250000
8561		25.390625
8562		33.203125
8563		31.250000
8564		35.156250
8565		35.156250
8566		39.062500
8567		37.109375
8568		44.921875
8569		37.109375
8570		46.875000
8571		41.015625
8572		50.781250
8573		44.921875
8574		52.734375
8575		46.875000
8576		56.640625
8577		48.828125
8578		58.593750
8579		52.734375
8580		58.593750
8581		56.640625
8582		60.546875
8583		58.593750
8584		64.453125
8585		58.593750
8586		68.359375
8587		62.500000
8588		70.312500
8589		64.453125
8590		72.265625
8591		66.406250
8592		74.218750
8593		68.359375
8594		74.218750
8595		68.359375
8596		76.171875
8597		72.265625
8598		76.171875
8599		74.218750
8600		76.171875
8601		72.265625
8602		80.078125
8603		74.218750
8604		82.031250
8605		74.218750
8606		82.031250
8607		76.171875
8608		82.031250
8609		74.218750
8610		82.031250
8611		76.171875
8612		83.984375
8613		78.125000
8614		82.031250
8615		78.125000
8616		82.031250
8617		76.171875
8618		83.984375
8619		76.171875
8620		82.031250
8621		76.171875
8622		82.031250
8623		74.218750
8624		82.031250
8625		74.218750
8626		80.078125
8627		72.265625
8628		82.031250
8629		72.265625
8630		80.078125
8631		72.265625
8632		76.171875
8633		70.312500
8634		74.218750
8635		68.359375
8636		76.171875
8637		66.406250
8638		74.218750
8639		64.453125
8640		72.265625
8641		62.500000
8642		70.312500
8643		60.546875
8644		68.359375
8645		58.593750
8646		66.406250
8647		56.640625
8648		60.546875
8649		54.687500
8650		58.593750
8651		50.781250
8652		56.640625
8653		46.875000
8654		56.640625
8655		44.921875
8656		52.734375
8657		41.015625
8658		50.781250
8659		39.062500
8660		46.875000
8661		35.156250
8662		44.921875
8663		35.156250
8664		41.015625
8665		31.250000
8666		35.156250
8667		25.390625
8668		33.203125
8669		23.437500
8670		31.250000
8671		19.531250
8672		27.343750
8673		15.625000
8674		25.390625
8675		11.718750
8676		21.484375
8677		7.812500
8678		17.578125
8679		5.859375
8680		15.625000
8681		3.906250
8682		7.812500
8683		0.000000
8684		3.906250
8685		-5.859375
8686		3.906250
8687		-9.765625
8688		0.000000
8689		-13.671875
8690		-3.906250
8691		-17.578125
8692		-7.812500
8693		-19.531250
8694		-9.765625
8695		-23.437500
8696		-13.671875
8697		-23.437500
8698		-17.578125
8699		-27.343750
8700		-23.437500
8701		-33.203125
8702		-25.390625
8703		-35.156250
8704		-25.390625
8705		-39.062500
8706		-29.296875
8707		-41.015625
8708		-33.203125
8709		-44.921875
8710		-35.156250
8711		-46.875000
8712		-37.109375
8713		-46.875000
8714		-41.015625
8715		-48.828125
8716		-44.921875
8717		-50.781250
8718		-46.875000
8719		-54.687500
8720		-46.875000
8721		-56.640625
8722		-48.828125
8723		-58.593750
8724		-50.781250
8725		-60.546875
8726		-52.734375
8727		-60.546875
8728		-54.687500
8729		-62.500000
8730		-54.687500
8731		-60.546875
8732		-58.593750
8733		-62.500000
8734		-58.593750
8735		-64.453125
8736		-58.593750
8737		-64.453125
8738		-58.593750
8739		-66.406250
8740		-58.593750
8741		-66.406250
8742		-58.593750
8743		-66.406250
8744		-58.593750
8745		-64.453125
8746		-58.593750
8747		-64.453125
8748		-58.593750
8749		-60.546875
8750		-58.593750
8751		-62.500000
8752		-56.640625
8753		-62.500000
8754		-54.687500
8755		-60.546875
8756		-52.734375
8757		-60.546875
8758		-52.734375
8759		-58.593750
8760		-50.781250
8761		-56.640625
8762		-48.828125
8763		-54.687500
8764		-46.875000
8765		-50.781250
8766		-46.875000
8767		-48.828125
8768		-44.921875
8769		-46.875000
8770		-39.062500
8771		-44.921875
8772		-37.109375
8773		-42.968750
8774		-35.156250
8775		-41.015625
8776		-31.250000
8777		-37.109375
8778		-29.296875
8779		-35.156250
8780		-25.390625
8781		-31.250000
8782		-25.390625
8783		-25.390625
8784		-21.484375
8785		-23.437500
8786		-15.625000
8787		-21.484375
8788		-13.671875
8789		-19.531250
8790		-9.765625
8791		-15.625000
8792		-5.859375
8793		-11.718750
8794		-3.906250
8795		-7.812500
8796		1.953125
8797		-3.906250
8798		3.906250
8799		0.000000
8800		5.859375
8801		5.859375
8802		9.765625
8803		5.859375
8804		15.625000
8805		9.765625
8806		17.578125
8807		13.671875
8808		23.437500
8809		17.578125
8810		25.390625
8811		19.531250
8812		29.296875
8813		23.437500
8814		33.203125
8815		29.296875
8816		33.203125
8817		33.203125
8818		37.109375
8819		35.156250
8820		42.968750
8821		37.109375
8822		44.921875
8823		39.062500
8824		48.828125
8825		42.968750
8826		50.781250
8827		44.921875
8828		52.734375
8829		48.828125
8830		56.640625
8831		50.781250
8832		56.640625
8833		54.687500
8834		60.546875
8835		58.593750
8836		64.453125
8837		58.593750
8838		66.406250
8839		60.546875
8840		68.359375
8841		62.500000
8842		70.312500
8843		64.453125
8844		72.265625
8845		66.406250
8846		74.218750
8847		68.359375
8848		76.171875
8849		72.265625
8850		76.171875
8851		74.218750
8852		76.171875
8853		72.265625
8854		80.078125
8855		74.218750
8856		80.078125
8857		74.218750
8858		82.031250
8859		74.218750
8860		82.031250
8861		76.171875
8862		82.031250
8863		76.171875
8864		83.984375
8865		76.171875
8866		82.031250
8867		78.125000
8868		82.031250
8869		76.171875
8870		83.984375
8871		76.171875
8872		83.984375
8873		76.171875
8874		83.984375
8875		76.171875
8876		82.031250
8877		74.218750
8878		82.031250
8879		74.218750
8880		82.031250
8881		74.218750
8882		80.078125
8883		74.218750
8884		76.171875
8885		72.265625
8886		76.171875
8887		68.359375
8888		76.171875
8889		68.359375
8890		76.171875
8891		64.453125
8892		74.218750
8893		64.453125
8894		72.265625
8895		62.500000
8896		70.312500
8897		60.546875
8898		68.359375
8899		58.593750
8900		64.453125
8901		56.640625
8902		60.546875
8903		52.734375
8904		58.593750
8905		50.781250
8906		56.640625
8907		46.875000
8908		54.687500
8909		44.921875
8910		52.734375
8911		42.968750
8912		48.828125
8913		39.062500
8914		44.921875
8915		37.109375
8916		42.968750
8917		33.203125
8918		39.062500
8919		27.343750
8920		35.156250
8921		25.390625
8922		35.156250
8923		21.484375
8924		31.250000
8925		19.531250
8926		27.343750
8927		13.671875
8928		23.437500
8929		11.718750
8930		19.531250
8931		7.812500
8932		15.625000
8933		5.859375
8934		11.718750
8935		1.953125
8936		7.812500
8937		-3.906250
8938		5.859375
8939		-5.859375
8940		1.953125
8941		-9.765625
8942		-1.953125
8943		-13.671875
8944		-3.906250
8945		-17.578125
8946		-7.812500
8947		-19.531250
8948		-9.765625
8949		-21.484375
8950		-15.625000
8951		-25.390625
8952		-19.531250
8953		-29.296875
8954		-23.437500
8955		-33.203125
8956		-23.437500
8957		-35.156250
8958		-27.343750
8959		-39.062500
8960		-29.296875
8961		-41.015625
8962		-33.203125
8963		-44.921875
8964		-37.109375
8965		-44.921875
8966		-39.062500
8967		-46.875000
8968		-42.968750
8969		-48.828125
8970		-44.921875
8971		-54.687500
8972		-44.921875
8973		-54.687500
8974		-46.875000
8975		-56.640625
8976		-48.828125
8977		-58.593750
8978		-50.781250
8979		-60.546875
8980		-52.734375
8981		-60.546875
8982		-54.687500
8983		-60.546875
8984		-56.640625
8985		-60.546875
8986		-58.593750
8987		-64.453125
8988		-56.640625
8989		-64.453125
8990		-56.640625
8991		-64.453125
8992		-58.593750
8993		-64.453125
8994		-58.593750
8995		-64.453125
8996		-58.593750
8997		-64.453125
8998		-58.593750
8999		-64.453125
9000		-58.593750
9001		-62.500000
9002		-58.593750
9003		-62.500000
9004		-56.640625
9005		-62.500000
9006		-54.687500
9007		-60.546875
9008		-54.687500
9009		-60.546875
9010		-52.734375
9011		-58.593750
9012		-50.781250
9013		-56.640625
9014		-48.828125
9015		-54.687500
9016		-46.875000
9017		-50.781250
9018		-46.875000
9019		-48.828125
9020		-44.921875
9021		-48.828125
9022		-41.015625
9023		-46.875000
9024		-39.062500
9025		-42.968750
9026		-35.156250
9027		-41.015625
9028		-33.203125
9029		-39.062500
9030		-29.296875
9031		-35.156250
9032		-27.343750
9033		-31.250000
9034		-25.390625
9035		-27.343750
9036		-23.437500
9037		-25.390625
9038		-17.578125
9039		-23.437500
9040		-15.625000
9041		-19.531250
9042		-11.718750
9043		-17.578125
9044		-7.812500
9045		-13.671875
9046		-3.906250
9047		-9.765625
9048		0.000000
9049		-5.859375
9050		0.000000
9051		0.000000
9052		3.906250
9053		1.953125
9054		7.812500
9055		3.906250
9056		13.671875
9057		7.812500
9058		17.578125
9059		11.718750
9060		19.531250
9061		15.625000
9062		23.437500
9063		19.531250
9064		27.343750
9065		23.437500
9066		31.250000
9067		25.390625
9068		31.250000
9069		31.250000
9070		35.156250
9071		33.203125
9072		41.015625
9073		35.156250
9074		42.968750
9075		39.062500
9076		46.875000
9077		41.015625
9078		50.781250
9079		42.968750
9080		52.734375
9081		46.875000
9082		54.687500
9083		50.781250
9084		56.640625
9085		54.687500
9086		58.593750
9087		56.640625
9088		62.500000
9089		56.640625
9090		66.406250
9091		58.593750
9092		68.359375
9093		62.500000
9094		70.312500
9095		62.500000
9096		72.265625
9097		66.406250
9098		74.218750
9099		66.406250
9100		74.218750
9101		72.265625
9102		74.218750
9103		72.265625
9104		76.171875
9105		72.265625
9106		80.078125
9107		72.265625
9108		80.078125
9109		74.218750
9110		82.031250
9111		76.171875
9112		82.031250
9113		76.171875
9114		83.984375
9115		76.171875
9116		83.984375
9117		78.125000
9118		83.984375
9119		80.078125
9120		82.031250
9121		76.171875
9122		83.984375
9123		76.171875
9124		83.984375
9125		76.171875
9126		83.984375
9127		76.171875
9128		83.984375
9129		76.171875
9130		82.031250
9131		74.218750
9132		82.031250
9133		74.218750
9134		82.031250
9135		76.171875
9136		78.125000
9137		74.218750
9138		78.125000
9139		70.312500
9140		78.125000
9141		68.359375
9142		76.171875
9143		66.406250
9144		74.218750
9145		64.453125
9146		74.218750
9147		62.500000
9148		72.265625
9149		60.546875
9150		70.312500
9151		62.500000
9152		66.406250
9153		58.593750
9154		62.500000
9155		54.687500
9156		62.500000
9157		52.734375
9158		60.546875
9159		48.828125
9160		58.593750
9161		46.875000
9162		54.687500
9163		42.968750
9164		52.734375
9165		41.015625
9166		48.828125
9167		39.062500
9168		46.875000
9169		37.109375
9170		41.015625
9171		33.203125
9172		37.109375
9173		29.296875
9174		37.109375
9175		25.390625
9176		33.203125
9177		21.484375
9178		29.296875
9179		17.578125
9180		27.343750
9181		13.671875
9182		23.437500
9183		11.718750
9184		21.484375
9185		9.765625
9186		13.671875
9187		5.859375
9188		9.765625
9189		0.000000
9190		7.812500
9191		-3.906250
9192		5.859375
9193		-7.812500
9194		1.953125
9195		-11.718750
9196		-1.953125
9197		-13.671875
9198		-5.859375
9199		-17.578125
9200		-7.812500
9201		-19.531250
9202		-11.718750
9203		-21.484375
9204		-17.578125
9205		-27.343750
9206		-21.484375
9207		-31.250000
9208		-21.484375
9209		-33.203125
9210		-25.390625
9211		-37.109375
9212		-27.343750
9213		-39.062500
9214		-31.250000
9215		-42.968750
9216		-33.203125
9217		-44.921875
9218		-37.109375
9219		-44.921875
9220		-41.015625
9221		-46.875000
9222		-42.968750
9223		-50.781250
9224		-44.921875
9225		-52.734375
9226		-44.921875
9227		-54.687500
9228		-46.875000
9229		-56.640625
9230		-50.781250
9231		-58.593750
9232		-50.781250
9233		-60.546875
9234		-52.734375
9235		-60.546875
9236		-54.687500
9237		-60.546875
9238		-56.640625
9239		-62.500000
9240		-56.640625
9241		-64.453125
9242		-56.640625
9243		-64.453125
9244		-56.640625
9245		-64.453125
9246		-56.640625
9247		-64.453125
9248		-56.640625
9249		-64.453125
9250		-58.593750
9251		-64.453125
9252		-58.593750
9253		-62.500000
9254		-58.593750
9255		-62.500000
9256		-58.593750
9257		-62.500000
9258		-56.640625
9259		-62.500000
9260		-54.687500
9261		-60.546875
9262		-52.734375
9263		-58.593750
9264		-52.734375
9265		-58.593750
9266		-50.781250
9267		-56.640625
9268		-48.828125
9269		-52.734375
9270		-48.828125
9271		-50.781250
9272		-46.875000
9273		-48.828125
9274		-42.968750
9275		-48.828125
9276		-41.015625
9277		-46.875000
9278		-37.109375
9279		-42.968750
9280		-35.156250
9281		-41.015625
9282		-31.250000
9283		-37.109375
9284		-29.296875
9285		-35.156250
9286		-27.343750
9287		-29.296875
9288		-25.390625
9289		-27.343750
9290		-19.531250
9291		-25.390625
9292		-15.625000
9293		-21.484375
9294		-13.671875
9295		-19.531250
9296		-9.765625
9297		-15.625000
9298		-5.859375
9299		-11.718750
9300		-1.953125
9301		-7.812500
9302		0.000000
9303		-3.906250
9304		1.953125
9305		0.000000
9306		5.859375
9307		3.906250
9308		9.765625
9309		5.859375
9310		13.671875
9311		9.765625
9312		17.578125
9313		13.671875
9314		21.484375
9315		15.625000
9316		25.390625
9317		19.531250
9318		29.296875
9319		25.390625
9320		29.296875
9321		29.296875
9322		33.203125
9323		31.250000
9324		39.062500
9325		33.203125
9326		41.015625
9327		37.109375
9328		44.921875
9329		39.062500
9330		46.875000
9331		42.968750
9332		50.781250
9333		44.921875
9334		52.734375
9335		48.828125
9336		54.687500
9337		52.734375
9338		56.640625
9339		56.640625
9340		60.546875
9341		54.687500
9342		64.453125
9343		58.593750
9344		66.406250
9345		60.546875
9346		68.359375
9347		62.500000
9348		70.312500
9349		64.453125
9350		74.218750
9351		66.406250
9352		74.218750
9353		70.312500
9354		74.218750
9355		72.265625
9356		74.218750
9357		72.265625
9358		80.078125
9359		72.265625
9360		80.078125
9361		72.265625
9362		82.031250
9363		74.218750
9364		82.031250
9365		76.171875
9366		83.984375
9367		76.171875
9368		83.984375
9369		76.171875
9370		83.984375
9371		80.078125
9372		82.031250
9373		78.125000
9374		83.984375
9375		78.125000
9376		83.984375
9377		78.125000
9378		83.984375
9379		76.171875
9380		83.984375
9381		76.171875
9382		83.984375
9383		76.171875
9384		82.031250
9385		76.171875
9386		82.031250
9387		76.171875
9388		80.078125
9389		76.171875
9390		78.125000
9391		72.265625
9392		78.125000
9393		70.312500
9394		78.125000
9395		68.359375
9396		76.171875
9397		66.406250
9398		74.218750
9399		66.406250
9400		72.265625
9401		62.500000
9402		72.265625
9403		62.500000
9404		68.359375
9405		60.546875
9406		64.453125
9407		56.640625
9408		62.500000
9409		54.687500
9410		62.500000
9411		52.734375
9412		60.546875
9413		48.828125
9414		58.593750
9415		44.921875
9416		54.687500
9417		42.968750
9418		50.781250
9419		41.015625
9420		48.828125
9421		39.062500
9422		42.968750
9423		35.156250
9424		41.015625
9425		31.250000
9426		39.062500
9427		27.343750
9428		37.109375
9429		23.437500
9430		33.203125
9431		19.531250
9432		29.296875
9433		15.625000
9434		25.390625
9435		13.671875
9436		21.484375
9437		11.718750
9438		17.578125
9439		7.812500
9440		13.671875
9441		1.953125
9442		11.718750
9443		0.000000
9444		7.812500
9445		-5.859375
9446		5.859375
9447		-7.812500
9448		1.953125
9449		-11.718750
9450		-1.953125
9451		-15.625000
9452		-5.859375
9453		-15.625000
9454		-9.765625
9455		-19.531250
9456		-15.625000
9457		-23.437500
9458		-17.578125
9459		-27.343750
9460		-19.531250
9461		-31.250000
9462		-21.484375
9463		-35.156250
9464		-25.390625
9465		-37.109375
9466		-27.343750
9467		-41.015625
9468		-31.250000
9469		-42.968750
9470		-33.203125
9471		-42.968750
9472		-39.062500
9473		-44.921875
9474		-41.015625
9475		-50.781250
9476		-42.968750
9477		-52.734375
9478		-42.968750
9479		-52.734375
9480		-44.921875
9481		-56.640625
9482		-48.828125
9483		-56.640625
9484		-50.781250
9485		-58.593750
9486		-50.781250
9487		-58.593750
9488		-52.734375
9489		-58.593750
9490		-56.640625
9491		-62.500000
9492		-56.640625
9493		-62.500000
9494		-56.640625
9495		-64.453125
9496		-56.640625
9497		-64.453125
9498		-56.640625
9499		-64.453125
9500		-58.593750
9501		-64.453125
9502		-56.640625
9503		-64.453125
9504		-58.593750
9505		-62.500000
9506		-60.546875
9507		-62.500000
9508		-58.593750
9509		-64.453125
9510		-56.640625
9511		-62.500000
9512		-54.687500
9513		-62.500000
9514		-54.687500
9515		-60.546875
9516		-52.734375
9517		-58.593750
9518		-50.781250
9519		-56.640625
9520		-48.828125
9521		-54.687500
9522		-50.781250
9523		-50.781250
9524		-48.828125
9525		-50.781250
9526		-44.921875
9527		-48.828125
9528		-41.015625
9529		-46.875000
9530		-39.062500
9531		-44.921875
9532		-37.109375
9533		-41.015625
9534		-33.203125
9535		-39.062500
9536		-31.250000
9537		-37.109375
9538		-29.296875
9539		-31.250000
9540		-27.343750
9541		-29.296875
9542		-21.484375
9543		-27.343750
9544		-19.531250
9545		-25.390625
9546		-15.625000
9547		-21.484375
9548		-11.718750
9549		-17.578125
9550		-7.812500
9551		-13.671875
9552		-5.859375
9553		-9.765625
9554		-1.953125
9555		-5.859375
9556		0.000000
9557		-1.953125
9558		3.906250
9559		0.000000
9560		9.765625
9561		3.906250
9562		11.718750
9563		7.812500
9564		15.625000
9565		11.718750
9566		19.531250
9567		15.625000
9568		23.437500
9569		17.578125
9570		25.390625
9571		21.484375
9572		27.343750
9573		25.390625
9574		31.250000
9575		29.296875
9576		35.156250
9577		31.250000
9578		39.062500
9579		35.156250
9580		42.968750
9581		37.109375
9582		46.875000
9583		41.015625
9584		48.828125
9585		42.968750
9586		52.734375
9587		46.875000
9588		52.734375
9589		50.781250
9590		54.687500
9591		54.687500
9592		58.593750
9593		54.687500
9594		62.500000
9595		56.640625
9596		64.453125
9597		58.593750
9598		66.406250
9599		60.546875
9600		68.359375
9601		62.500000
9602		70.312500
9603		64.453125
9604		72.265625
9605		66.406250
9606		72.265625
9607		70.312500
9608		74.218750
9609		70.312500
9610		78.125000
9611		72.265625
9612		78.125000
9613		72.265625
9614		80.078125
9615		74.218750
9616		82.031250
9617		74.218750
9618		82.031250
9619		76.171875
9620		82.031250
9621		76.171875
9622		83.984375
9623		78.125000
9624		82.031250
9625		78.125000
9626		82.031250
9627		78.125000
9628		83.984375
9629		78.125000
9630		83.984375
9631		76.171875
9632		83.984375
9633		76.171875
9634		83.984375
9635		76.171875
9636		83.984375
9637		76.171875
9638		82.031250
9639		76.171875
9640		80.078125
9641		76.171875
9642		78.125000
9643		72.265625
9644		80.078125
9645		70.312500
9646		78.125000
9647		70.312500
9648		76.171875
9649		68.359375
9650		76.171875
9651		66.406250
9652		74.218750
9653		64.453125
9654		72.265625
9655		64.453125
9656		70.312500
9657		62.500000
9658		66.406250
9659		58.593750
9660		64.453125
9661		56.640625
9662		64.453125
9663		52.734375
9664		62.500000
9665		50.781250
9666		60.546875
9667		48.828125
9668		56.640625
9669		44.921875
9670		52.734375
9671		42.968750
9672		50.781250
9673		41.015625
9674		44.921875
9675		37.109375
9676		42.968750
9677		33.203125
9678		41.015625
9679		29.296875
9680		39.062500
9681		25.390625
9682		35.156250
9683		21.484375
9684		31.250000
9685		19.531250
9686		27.343750
9687		15.625000
9688		25.390625
9689		13.671875
9690		21.484375
9691		9.765625
9692		15.625000
9693		5.859375
9694		11.718750
9695		1.953125
9696		9.765625
9697		-1.953125
9698		7.812500
9699		-5.859375
9700		3.906250
9701		-9.765625
9702		0.000000
9703		-13.671875
9704		-3.906250
9705		-13.671875
9706		-7.812500
9707		-17.578125
9708		-11.718750
9709		-21.484375
9710		-15.625000
9711		-25.390625
9712		-17.578125
9713		-29.296875
9714		-19.531250
9715		-31.250000
9716		-23.437500
9717		-35.156250
9718		-25.390625
9719		-39.062500
9720		-29.296875
9721		-41.015625
9722		-33.203125
9723		-41.015625
9724		-37.109375
9725		-42.968750
9726		-39.062500
9727		-48.828125
9728		-41.015625
9729		-50.781250
9730		-42.968750
9731		-52.734375
9732		-44.921875
9733		-54.687500
9734		-46.875000
9735		-56.640625
9736		-48.828125
9737		-58.593750
9738		-50.781250
9739		-58.593750
9740		-50.781250
9741		-58.593750
9742		-54.687500
9743		-60.546875
9744		-54.687500
9745		-62.500000
9746		-54.687500
9747		-64.453125
9748		-56.640625
9749		-64.453125
9750		-56.640625
9751		-64.453125
9752		-56.640625
9753		-64.453125
9754		-56.640625
9755		-64.453125
9756		-58.593750
9757		-62.500000
9758		-60.546875
9759		-62.500000
9760		-58.593750
9761		-62.500000
9762		-56.640625
9763		-62.500000
9764		-54.687500
9765		-62.500000
9766		-54.687500
9767		-60.546875
9768		-54.687500
9769		-58.593750
9770		-52.734375
9771		-58.593750
9772		-50.781250
9773		-56.640625
9774		-50.781250
9775		-52.734375
9776		-48.828125
9777		-50.781250
9778		-44.921875
9779		-50.781250
9780		-42.968750
9781		-48.828125
9782		-41.015625
9783		-46.875000
9784		-39.062500
9785		-44.921875
9786		-35.156250
9787		-41.015625
9788		-33.203125
9789		-39.062500
9790		-31.250000
9791		-33.203125
9792		-29.296875
9793		-31.250000
9794		-25.390625
9795		-29.296875
9796		-19.531250
9797		-27.343750
9798		-17.578125
9799		-23.437500
9800		-13.671875
9801		-19.531250
9802		-11.718750
9803		-15.625000
9804		-7.812500
9805		-13.671875
9806		-3.906250
9807		-7.812500
9808		-1.953125
9809		-3.906250
9810		0.000000
9811		-1.953125
9812		5.859375
9813		0.000000
9814		9.765625
9815		3.906250
9816		13.671875
9817		7.812500
9818		17.578125
9819		11.718750
9820		19.531250
9821		15.625000
9822		23.437500
9823		19.531250
9824		25.390625
9825		23.437500
9826		29.296875
9827		27.343750
9828		35.156250
9829		29.296875
9830		37.109375
9831		31.250000
9832		41.015625
9833		35.156250
9834		44.921875
9835		37.109375
9836		46.875000
9837		41.015625
9838		50.781250
9839		42.968750
9840		52.734375
9841		48.828125
9842		52.734375
9843		52.734375
9844		56.640625
9845		52.734375
9846		62.500000
9847		54.687500
9848		64.453125
9849		58.593750
9850		66.406250
9851		60.546875
9852		68.359375
9853		62.500000
9854		70.312500
9855		64.453125
9856		72.265625
9857		66.406250
9858		72.265625
9859		70.312500
9860		72.265625
9861		70.312500
9862		76.171875
9863		70.312500
9864		78.125000
9865		72.265625
9866		80.078125
9867		74.218750
9868		82.031250
9869		74.218750
9870		82.031250
9871		76.171875
9872		82.031250
9873		76.171875
9874		83.984375
9875		78.125000
9876		82.031250
9877		80.078125
9878		83.984375
9879		78.125000
9880		83.984375
9881		78.125000
9882		83.984375
9883		78.125000
9884		83.984375
9885		76.171875
9886		83.984375
9887		76.171875
9888		83.984375
9889		76.171875
9890		83.984375
9891		78.125000
9892		80.078125
9893		76.171875
9894		80.078125
9895		74.218750
9896		80.078125
9897		72.265625
9898		80.078125
9899		70.312500
9900		78.125000
9901		70.312500
9902		78.125000
9903		68.359375
9904		76.171875
9905		66.406250
9906		74.218750
9907		64.453125
9908		72.265625
9909		64.453125
9910		68.359375
9911		58.593750
9912		66.406250
9913		56.640625
9914		66.406250
9915		54.687500
9916		62.500000
9917		52.734375
9918		60.546875
9919		48.828125
9920		58.593750
9921		46.875000
9922		56.640625
9923		44.921875
9924		52.734375
9925		42.968750
9926		46.875000
9927		41.015625
9928		44.921875
9929		35.156250
9930		42.968750
9931		33.203125
9932		41.015625
9933		29.296875
9934		37.109375
9935		25.390625
9936		33.203125
9937		23.437500
9938		31.250000
9939		17.578125
9940		27.343750
9941		17.578125
9942		23.437500
9943		13.671875
9944		17.578125
9945		7.812500
9946		15.625000
9947		3.906250
9948		13.671875
9949		0.000000
9950		9.765625
9951		-3.906250
9952		5.859375
9953		-5.859375
9954		1.953125
9955		-9.765625
9956		0.000000
9957		-11.718750
9958		-3.906250
9959		-15.625000
9960		-9.765625
9961		-17.578125
9962		-13.671875
9963		-23.437500
9964		-13.671875
9965		-27.343750
9966		-17.578125
9967		-29.296875
9968		-21.484375
9969		-33.203125
9970		-23.437500
9971		-35.156250
9972		-27.343750
9973		-39.062500
9974		-31.250000
9975		-39.062500
9976		-35.156250
9977		-41.015625
9978		-37.109375
9979		-46.875000
9980		-39.062500
9981		-48.828125
9982		-41.015625
9983		-50.781250
9984		-42.968750
9985		-52.734375
9986		-44.921875
9987		-54.687500
9988		-46.875000
9989		-56.640625
9990		-48.828125
9991		-56.640625
9992		-50.781250
9993		-56.640625
9994		-54.687500
9995		-60.546875
9996		-54.687500
9997		-62.500000
9998		-54.687500
9999		-62.500000
10000		-54.687500
