Channel              :		CH1
Frequency            :		1.973kHz
Period               :		0.507ms
PK-PK                :		175.8mV
Probe attenuation    :		1X
Voltage per ADC value:		0.122070mV
Time interval        :		2.00000us

index		CH1_Voltage(mV)
1		82.031250
2		82.031250
3		85.937500
4		82.031250
5		85.937500
6		82.031250
7		83.984375
8		80.078125
9		83.984375
10		80.078125
11		83.984375
12		78.125000
13		82.031250
14		76.171875
15		80.078125
16		74.218750
17		78.125000
18		72.265625
19		78.125000
20		70.312500
21		76.171875
22		68.359375
23		72.265625
24		66.406250
25		70.312500
26		64.453125
27		68.359375
28		60.546875
29		66.406250
30		58.593750
31		62.500000
32		54.687500
33		60.546875
34		52.734375
35		56.640625
36		48.828125
37		54.687500
38		46.875000
39		50.781250
40		42.968750
41		48.828125
42		39.062500
43		44.921875
44		35.156250
45		41.015625
46		31.250000
47		37.109375
48		27.343750
49		33.203125
50		23.437500
51		29.296875
52		19.531250
53		25.390625
54		15.625000
55		21.484375
56		13.671875
57		17.578125
58		7.812500
59		13.671875
60		3.906250
61		9.765625
62		0.000000
63		5.859375
64		-3.906250
65		1.953125
66		-7.812500
67		-1.953125
68		-11.718750
69		-5.859375
70		-15.625000
71		-9.765625
72		-19.531250
73		-13.671875
74		-23.437500
75		-17.578125
76		-27.343750
77		-21.484375
78		-31.250000
79		-25.390625
80		-35.156250
81		-29.296875
82		-39.062500
83		-33.203125
84		-41.015625
85		-37.109375
86		-46.875000
87		-41.015625
88		-48.828125
89		-42.968750
90		-50.781250
91		-46.875000
92		-54.687500
93		-50.781250
94		-56.640625
95		-52.734375
96		-60.546875
97		-56.640625
98		-64.453125
99		-58.593750
100		-64.453125
101		-60.546875
102		-68.359375
103		-62.500000
104		-68.359375
105		-64.453125
106		-70.312500
107		-66.406250
108		-72.265625
109		-68.359375
110		-74.218750
111		-70.312500
112		-74.218750
113		-72.265625
114		-76.171875
115		-72.265625
116		-76.171875
117		-72.265625
118		-78.125000
119		-74.218750
120		-78.125000
121		-74.218750
122		-78.125000
123		-74.218750
124		-78.125000
125		-74.218750
126		-78.125000
127		-74.218750
128		-78.125000
129		-74.218750
130		-76.171875
131		-74.218750
132		-76.171875
133		-72.265625
134		-74.218750
135		-70.312500
136		-74.218750
137		-70.312500
138		-72.265625
139		-68.359375
140		-70.312500
141		-66.406250
142		-68.359375
143		-64.453125
144		-66.406250
145		-62.500000
146		-64.453125
147		-60.546875
148		-62.500000
149		-56.640625
150		-58.593750
151		-54.687500
152		-56.640625
153		-50.781250
154		-54.687500
155		-48.828125
156		-50.781250
157		-44.921875
158		-46.875000
159		-42.968750
160		-44.921875
161		-39.062500
162		-41.015625
163		-35.156250
164		-37.109375
165		-33.203125
166		-33.203125
167		-27.343750
168		-31.250000
169		-25.390625
170		-25.390625
171		-19.531250
172		-21.484375
173		-17.578125
174		-17.578125
175		-11.718750
176		-13.671875
177		-9.765625
178		-9.765625
179		-3.906250
180		-5.859375
181		0.000000
182		-1.953125
183		3.906250
184		1.953125
185		7.812500
186		5.859375
187		11.718750
188		9.765625
189		15.625000
190		13.671875
191		19.531250
192		17.578125
193		23.437500
194		21.484375
195		27.343750
196		25.390625
197		31.250000
198		29.296875
199		35.156250
200		33.203125
201		39.062500
202		37.109375
203		42.968750
204		39.062500
205		44.921875
206		44.921875
207		48.828125
208		46.875000
209		52.734375
210		50.781250
211		54.687500
212		52.734375
213		58.593750
214		56.640625
215		60.546875
216		58.593750
217		64.453125
218		62.500000
219		66.406250
220		62.500000
221		68.359375
222		66.406250
223		70.312500
224		70.312500
225		74.218750
226		70.312500
227		76.171875
228		74.218750
229		76.171875
230		76.171875
231		78.125000
232		76.171875
233		82.031250
234		76.171875
235		82.031250
236		80.078125
237		82.031250
238		80.078125
239		83.984375
240		82.031250
241		85.937500
242		82.031250
243		85.937500
244		82.031250
245		85.937500
246		83.984375
247		85.937500
248		83.984375
249		85.937500
250		82.031250
251		85.937500
252		83.984375
253		85.937500
254		83.984375
255		85.937500
256		82.031250
257		85.937500
258		82.031250
259		85.937500
260		82.031250
261		83.984375
262		80.078125
263		83.984375
264		80.078125
265		82.031250
266		78.125000
267		80.078125
268		76.171875
269		80.078125
270		74.218750
271		78.125000
272		72.265625
273		76.171875
274		70.312500
275		74.218750
276		68.359375
277		72.265625
278		64.453125
279		70.312500
280		62.500000
281		66.406250
282		60.546875
283		64.453125
284		58.593750
285		62.500000
286		54.687500
287		58.593750
288		50.781250
289		56.640625
290		46.875000
291		52.734375
292		44.921875
293		50.781250
294		41.015625
295		46.875000
296		37.109375
297		44.921875
298		35.156250
299		39.062500
300		31.250000
301		35.156250
302		27.343750
303		33.203125
304		23.437500
305		29.296875
306		19.531250
307		25.390625
308		15.625000
309		21.484375
310		11.718750
311		17.578125
312		7.812500
313		11.718750
314		1.953125
315		7.812500
316		0.000000
317		3.906250
318		-5.859375
319		1.953125
320		-9.765625
321		-3.906250
322		-13.671875
323		-7.812500
324		-17.578125
325		-11.718750
326		-21.484375
327		-15.625000
328		-25.390625
329		-19.531250
330		-29.296875
331		-23.437500
332		-33.203125
333		-27.343750
334		-35.156250
335		-31.250000
336		-39.062500
337		-35.156250
338		-42.968750
339		-39.062500
340		-46.875000
341		-41.015625
342		-50.781250
343		-44.921875
344		-52.734375
345		-48.828125
346		-56.640625
347		-50.781250
348		-58.593750
349		-54.687500
350		-60.546875
351		-56.640625
352		-64.453125
353		-58.593750
354		-66.406250
355		-62.500000
356		-68.359375
357		-64.453125
358		-70.312500
359		-66.406250
360		-72.265625
361		-68.359375
362		-74.218750
363		-68.359375
364		-74.218750
365		-72.265625
366		-76.171875
367		-72.265625
368		-76.171875
369		-72.265625
370		-78.125000
371		-74.218750
372		-78.125000
373		-74.218750
374		-78.125000
375		-74.218750
376		-78.125000
377		-74.218750
378		-78.125000
379		-74.218750
380		-78.125000
381		-74.218750
382		-76.171875
383		-74.218750
384		-76.171875
385		-72.265625
386		-76.171875
387		-72.265625
388		-74.218750
389		-70.312500
390		-72.265625
391		-70.312500
392		-72.265625
393		-68.359375
394		-70.312500
395		-66.406250
396		-68.359375
397		-64.453125
398		-66.406250
399		-62.500000
400		-64.453125
401		-58.593750
402		-62.500000
403		-56.640625
404		-58.593750
405		-52.734375
406		-56.640625
407		-50.781250
408		-52.734375
409		-48.828125
410		-48.828125
411		-44.921875
412		-46.875000
413		-41.015625
414		-44.921875
415		-39.062500
416		-39.062500
417		-35.156250
418		-35.156250
419		-31.250000
420		-33.203125
421		-27.343750
422		-29.296875
423		-23.437500
424		-25.390625
425		-19.531250
426		-21.484375
427		-15.625000
428		-17.578125
429		-11.718750
430		-13.671875
431		-7.812500
432		-9.765625
433		-3.906250
434		-5.859375
435		1.953125
436		-1.953125
437		3.906250
438		3.906250
439		7.812500
440		7.812500
441		11.718750
442		11.718750
443		15.625000
444		13.671875
445		21.484375
446		19.531250
447		23.437500
448		23.437500
449		27.343750
450		27.343750
451		31.250000
452		29.296875
453		37.109375
454		33.203125
455		39.062500
456		37.109375
457		42.968750
458		41.015625
459		46.875000
460		44.921875
461		48.828125
462		46.875000
463		54.687500
464		50.781250
465		56.640625
466		54.687500
467		58.593750
468		56.640625
469		62.500000
470		60.546875
471		64.453125
472		62.500000
473		66.406250
474		64.453125
475		68.359375
476		66.406250
477		72.265625
478		70.312500
479		74.218750
480		72.265625
481		76.171875
482		74.218750
483		78.125000
484		76.171875
485		78.125000
486		76.171875
487		80.078125
488		78.125000
489		82.031250
490		80.078125
491		83.984375
492		80.078125
493		83.984375
494		82.031250
495		83.984375
496		82.031250
497		85.937500
498		83.984375
499		85.937500
500		83.984375
501		85.937500
502		82.031250
503		85.937500
504		83.984375
505		85.937500
506		82.031250
507		85.937500
508		82.031250
509		85.937500
510		82.031250
511		85.937500
512		82.031250
513		83.984375
514		80.078125
515		83.984375
516		80.078125
517		82.031250
518		76.171875
519		82.031250
520		76.171875
521		80.078125
522		74.218750
523		80.078125
524		74.218750
525		78.125000
526		72.265625
527		76.171875
528		70.312500
529		74.218750
530		66.406250
531		72.265625
532		64.453125
533		68.359375
534		62.500000
535		66.406250
536		58.593750
537		64.453125
538		56.640625
539		60.546875
540		52.734375
541		58.593750
542		50.781250
543		54.687500
544		46.875000
545		52.734375
546		44.921875
547		48.828125
548		41.015625
549		46.875000
550		37.109375
551		41.015625
552		33.203125
553		37.109375
554		29.296875
555		35.156250
556		25.390625
557		31.250000
558		21.484375
559		27.343750
560		17.578125
561		23.437500
562		13.671875
563		19.531250
564		9.765625
565		15.625000
566		5.859375
567		11.718750
568		1.953125
569		7.812500
570		-1.953125
571		3.906250
572		-5.859375
573		-1.953125
574		-11.718750
575		-5.859375
576		-15.625000
577		-9.765625
578		-17.578125
579		-13.671875
580		-23.437500
581		-17.578125
582		-27.343750
583		-19.531250
584		-31.250000
585		-25.390625
586		-35.156250
587		-29.296875
588		-37.109375
589		-33.203125
590		-41.015625
591		-35.156250
592		-44.921875
593		-39.062500
594		-46.875000
595		-42.968750
596		-50.781250
597		-44.921875
598		-54.687500
599		-48.828125
600		-56.640625
601		-52.734375
602		-60.546875
603		-54.687500
604		-62.500000
605		-56.640625
606		-64.453125
607		-60.546875
608		-66.406250
609		-62.500000
610		-68.359375
611		-64.453125
612		-70.312500
613		-66.406250
614		-74.218750
615		-68.359375
616		-74.218750
617		-70.312500
618		-74.218750
619		-72.265625
620		-76.171875
621		-72.265625
622		-76.171875
623		-74.218750
624		-78.125000
625		-74.218750
626		-78.125000
627		-74.218750
628		-78.125000
629		-76.171875
630		-78.125000
631		-76.171875
632		-78.125000
633		-74.218750
634		-78.125000
635		-74.218750
636		-78.125000
637		-74.218750
638		-76.171875
639		-72.265625
640		-76.171875
641		-72.265625
642		-74.218750
643		-70.312500
644		-72.265625
645		-68.359375
646		-70.312500
647		-68.359375
648		-70.312500
649		-64.453125
650		-66.406250
651		-62.500000
652		-66.406250
653		-62.500000
654		-64.453125
655		-58.593750
656		-60.546875
657		-54.687500
658		-58.593750
659		-52.734375
660		-54.687500
661		-50.781250
662		-52.734375
663		-46.875000
664		-48.828125
665		-42.968750
666		-46.875000
667		-41.015625
668		-42.968750
669		-37.109375
670		-39.062500
671		-33.203125
672		-35.156250
673		-29.296875
674		-31.250000
675		-25.390625
676		-27.343750
677		-21.484375
678		-23.437500
679		-19.531250
680		-19.531250
681		-13.671875
682		-15.625000
683		-9.765625
684		-11.718750
685		-5.859375
686		-7.812500
687		-1.953125
688		-3.906250
689		1.953125
690		0.000000
691		5.859375
692		3.906250
693		9.765625
694		7.812500
695		13.671875
696		11.718750
697		17.578125
698		15.625000
699		23.437500
700		19.531250
701		25.390625
702		25.390625
703		29.296875
704		27.343750
705		33.203125
706		31.250000
707		37.109375
708		35.156250
709		41.015625
710		39.062500
711		42.968750
712		42.968750
713		46.875000
714		46.875000
715		50.781250
716		48.828125
717		52.734375
718		52.734375
719		56.640625
720		54.687500
721		60.546875
722		56.640625
723		62.500000
724		60.546875
725		64.453125
726		64.453125
727		68.359375
728		66.406250
729		70.312500
730		68.359375
731		72.265625
732		70.312500
733		74.218750
734		72.265625
735		76.171875
736		74.218750
737		78.125000
738		76.171875
739		80.078125
740		78.125000
741		82.031250
742		78.125000
743		82.031250
744		80.078125
745		83.984375
746		82.031250
747		83.984375
748		82.031250
749		85.937500
750		82.031250
751		85.937500
752		83.984375
753		85.937500
754		83.984375
755		85.937500
756		83.984375
757		85.937500
758		83.984375
759		85.937500
760		83.984375
761		85.937500
762		82.031250
763		85.937500
764		82.031250
765		85.937500
766		82.031250
767		85.937500
768		80.078125
769		83.984375
770		78.125000
771		82.031250
772		78.125000
773		82.031250
774		76.171875
775		80.078125
776		74.218750
777		80.078125
778		72.265625
779		76.171875
780		70.312500
781		74.218750
782		68.359375
783		72.265625
784		66.406250
785		70.312500
786		64.453125
787		68.359375
788		60.546875
789		66.406250
790		58.593750
791		62.500000
792		56.640625
793		60.546875
794		52.734375
795		56.640625
796		48.828125
797		54.687500
798		46.875000
799		50.781250
800		42.968750
801		46.875000
802		39.062500
803		42.968750
804		35.156250
805		41.015625
806		31.250000
807		37.109375
808		27.343750
809		33.203125
810		23.437500
811		29.296875
812		19.531250
813		25.390625
814		15.625000
815		21.484375
816		11.718750
817		17.578125
818		7.812500
819		13.671875
820		3.906250
821		9.765625
822		0.000000
823		5.859375
824		-3.906250
825		1.953125
826		-7.812500
827		-1.953125
828		-13.671875
829		-5.859375
830		-15.625000
831		-9.765625
832		-19.531250
833		-13.671875
834		-23.437500
835		-17.578125
836		-27.343750
837		-21.484375
838		-31.250000
839		-25.390625
840		-35.156250
841		-29.296875
842		-39.062500
843		-33.203125
844		-42.968750
845		-37.109375
846		-46.875000
847		-41.015625
848		-48.828125
849		-44.921875
850		-52.734375
851		-46.875000
852		-54.687500
853		-50.781250
854		-58.593750
855		-52.734375
856		-60.546875
857		-54.687500
858		-62.500000
859		-58.593750
860		-64.453125
861		-60.546875
862		-66.406250
863		-64.453125
864		-68.359375
865		-64.453125
866		-72.265625
867		-68.359375
868		-72.265625
869		-70.312500
870		-74.218750
871		-70.312500
872		-76.171875
873		-72.265625
874		-76.171875
875		-72.265625
876		-76.171875
877		-74.218750
878		-78.125000
879		-74.218750
880		-78.125000
881		-74.218750
882		-78.125000
883		-76.171875
884		-78.125000
885		-74.218750
886		-78.125000
887		-76.171875
888		-78.125000
889		-74.218750
890		-76.171875
891		-74.218750
892		-76.171875
893		-72.265625
894		-74.218750
895		-72.265625
896		-74.218750
897		-70.312500
898		-72.265625
899		-68.359375
900		-70.312500
901		-66.406250
902		-68.359375
903		-64.453125
904		-66.406250
905		-62.500000
906		-64.453125
907		-60.546875
908		-62.500000
909		-58.593750
910		-58.593750
911		-54.687500
912		-56.640625
913		-50.781250
914		-54.687500
915		-48.828125
916		-50.781250
917		-44.921875
918		-46.875000
919		-42.968750
920		-44.921875
921		-39.062500
922		-41.015625
923		-35.156250
924		-37.109375
925		-31.250000
926		-33.203125
927		-27.343750
928		-29.296875
929		-23.437500
930		-27.343750
931		-21.484375
932		-21.484375
933		-15.625000
934		-17.578125
935		-13.671875
936		-13.671875
937		-7.812500
938		-9.765625
939		-3.906250
940		-7.812500
941		0.000000
942		-1.953125
943		3.906250
944		1.953125
945		7.812500
946		5.859375
947		13.671875
948		9.765625
949		15.625000
950		11.718750
951		19.531250
952		17.578125
953		23.437500
954		21.484375
955		27.343750
956		25.390625
957		33.203125
958		27.343750
959		37.109375
960		33.203125
961		39.062500
962		37.109375
963		42.968750
964		37.109375
965		46.875000
966		41.015625
967		50.781250
968		44.921875
969		50.781250
970		50.781250
971		54.687500
972		52.734375
973		60.546875
974		54.687500
975		62.500000
976		56.640625
977		64.453125
978		60.546875
979		68.359375
980		62.500000
981		70.312500
982		64.453125
983		72.265625
984		68.359375
985		74.218750
986		72.265625
987		74.218750
988		74.218750
989		78.125000
990		74.218750
991		80.078125
992		74.218750
993		82.031250
994		76.171875
995		83.984375
996		78.125000
997		83.984375
998		78.125000
999		85.937500
1000		80.078125
1001		85.937500
1002		82.031250
1003		85.937500
1004		83.984375
1005		85.937500
1006		80.078125
1007		87.890625
1008		82.031250
1009		87.890625
1010		82.031250
1011		87.890625
1012		82.031250
1013		87.890625
1014		82.031250
1015		87.890625
1016		80.078125
1017		87.890625
1018		80.078125
1019		85.937500
1020		80.078125
1021		83.984375
1022		80.078125
1023		83.984375
1024		78.125000
1025		83.984375
1026		76.171875
1027		82.031250
1028		74.218750
1029		80.078125
1030		72.265625
1031		80.078125
1032		70.312500
1033		78.125000
1034		68.359375
1035		76.171875
1036		68.359375
1037		72.265625
1038		66.406250
1039		70.312500
1040		60.546875
1041		68.359375
1042		58.593750
1043		66.406250
1044		54.687500
1045		64.453125
1046		52.734375
1047		60.546875
1048		48.828125
1049		58.593750
1050		46.875000
1051		54.687500
1052		44.921875
1053		50.781250
1054		41.015625
1055		46.875000
1056		37.109375
1057		42.968750
1058		33.203125
1059		41.015625
1060		29.296875
1061		37.109375
1062		25.390625
1063		33.203125
1064		19.531250
1065		29.296875
1066		17.578125
1067		27.343750
1068		13.671875
1069		21.484375
1070		11.718750
1071		15.625000
1072		7.812500
1073		11.718750
1074		0.000000
1075		9.765625
1076		-3.906250
1077		5.859375
1078		-7.812500
1079		1.953125
1080		-11.718750
1081		-1.953125
1082		-15.625000
1083		-5.859375
1084		-19.531250
1085		-9.765625
1086		-21.484375
1087		-13.671875
1088		-25.390625
1089		-19.531250
1090		-31.250000
1091		-23.437500
1092		-35.156250
1093		-25.390625
1094		-39.062500
1095		-29.296875
1096		-42.968750
1097		-33.203125
1098		-44.921875
1099		-35.156250
1100		-48.828125
1101		-39.062500
1102		-50.781250
1103		-42.968750
1104		-52.734375
1105		-48.828125
1106		-56.640625
1107		-50.781250
1108		-60.546875
1109		-52.734375
1110		-62.500000
1111		-54.687500
1112		-66.406250
1113		-58.593750
1114		-68.359375
1115		-60.546875
1116		-70.312500
1117		-62.500000
1118		-72.265625
1119		-64.453125
1120		-72.265625
1121		-68.359375
1122		-72.265625
1123		-70.312500
1124		-76.171875
1125		-70.312500
1126		-78.125000
1127		-70.312500
1128		-78.125000
1129		-72.265625
1130		-80.078125
1131		-72.265625
1132		-80.078125
1133		-72.265625
1134		-80.078125
1135		-74.218750
1136		-80.078125
1137		-74.218750
1138		-78.125000
1139		-76.171875
1140		-80.078125
1141		-72.265625
1142		-80.078125
1143		-72.265625
1144		-78.125000
1145		-70.312500
1146		-78.125000
1147		-70.312500
1148		-76.171875
1149		-68.359375
1150		-76.171875
1151		-68.359375
1152		-74.218750
1153		-66.406250
1154		-70.312500
1155		-66.406250
1156		-68.359375
1157		-64.453125
1158		-68.359375
1159		-60.546875
1160		-66.406250
1161		-58.593750
1162		-62.500000
1163		-54.687500
1164		-60.546875
1165		-52.734375
1166		-56.640625
1167		-48.828125
1168		-54.687500
1169		-44.921875
1170		-52.734375
1171		-44.921875
1172		-46.875000
1173		-41.015625
1174		-42.968750
1175		-37.109375
1176		-41.015625
1177		-33.203125
1178		-37.109375
1179		-29.296875
1180		-35.156250
1181		-25.390625
1182		-31.250000
1183		-21.484375
1184		-27.343750
1185		-17.578125
1186		-23.437500
1187		-15.625000
1188		-17.578125
1189		-11.718750
1190		-13.671875
1191		-7.812500
1192		-9.765625
1193		-1.953125
1194		-5.859375
1195		1.953125
1196		-1.953125
1197		5.859375
1198		0.000000
1199		11.718750
1200		5.859375
1201		13.671875
1202		9.765625
1203		17.578125
1204		15.625000
1205		21.484375
1206		19.531250
1207		25.390625
1208		23.437500
1209		31.250000
1210		25.390625
1211		33.203125
1212		29.296875
1213		37.109375
1214		33.203125
1215		41.015625
1216		37.109375
1217		44.921875
1218		39.062500
1219		48.828125
1220		42.968750
1221		48.828125
1222		48.828125
1223		52.734375
1224		50.781250
1225		58.593750
1226		52.734375
1227		60.546875
1228		54.687500
1229		64.453125
1230		56.640625
1231		66.406250
1232		60.546875
1233		70.312500
1234		62.500000
1235		72.265625
1236		64.453125
1237		72.265625
1238		70.312500
1239		74.218750
1240		72.265625
1241		76.171875
1242		72.265625
1243		80.078125
1244		74.218750
1245		80.078125
1246		74.218750
1247		82.031250
1248		76.171875
1249		83.984375
1250		78.125000
1251		85.937500
1252		78.125000
1253		85.937500
1254		80.078125
1255		85.937500
1256		83.984375
1257		85.937500
1258		82.031250
1259		87.890625
1260		82.031250
1261		87.890625
1262		82.031250
1263		87.890625
1264		82.031250
1265		87.890625
1266		82.031250
1267		87.890625
1268		80.078125
1269		87.890625
1270		80.078125
1271		87.890625
1272		82.031250
1273		83.984375
1274		80.078125
1275		83.984375
1276		78.125000
1277		83.984375
1278		76.171875
1279		83.984375
1280		74.218750
1281		82.031250
1282		72.265625
1283		80.078125
1284		72.265625
1285		80.078125
1286		68.359375
1287		78.125000
1288		70.312500
1289		74.218750
1290		66.406250
1291		70.312500
1292		62.500000
1293		70.312500
1294		60.546875
1295		68.359375
1296		56.640625
1297		66.406250
1298		54.687500
1299		62.500000
1300		50.781250
1301		60.546875
1302		46.875000
1303		56.640625
1304		46.875000
1305		54.687500
1306		42.968750
1307		48.828125
1308		37.109375
1309		44.921875
1310		35.156250
1311		42.968750
1312		31.250000
1313		39.062500
1314		27.343750
1315		37.109375
1316		23.437500
1317		33.203125
1318		19.531250
1319		29.296875
1320		15.625000
1321		25.390625
1322		13.671875
1323		19.531250
1324		9.765625
1325		15.625000
1326		3.906250
1327		11.718750
1328		0.000000
1329		9.765625
1330		-5.859375
1331		3.906250
1332		-9.765625
1333		1.953125
1334		-13.671875
1335		-1.953125
1336		-17.578125
1337		-7.812500
1338		-19.531250
1339		-11.718750
1340		-23.437500
1341		-17.578125
1342		-29.296875
1343		-21.484375
1344		-31.250000
1345		-23.437500
1346		-35.156250
1347		-27.343750
1348		-39.062500
1349		-31.250000
1350		-44.921875
1351		-33.203125
1352		-46.875000
1353		-37.109375
1354		-48.828125
1355		-41.015625
1356		-50.781250
1357		-46.875000
1358		-54.687500
1359		-48.828125
1360		-58.593750
1361		-50.781250
1362		-62.500000
1363		-52.734375
1364		-64.453125
1365		-56.640625
1366		-66.406250
1367		-58.593750
1368		-68.359375
1369		-60.546875
1370		-72.265625
1371		-62.500000
1372		-70.312500
1373		-66.406250
1374		-72.265625
1375		-68.359375
1376		-76.171875
1377		-68.359375
1378		-76.171875
1379		-70.312500
1380		-78.125000
1381		-70.312500
1382		-80.078125
1383		-72.265625
1384		-80.078125
1385		-72.265625
1386		-80.078125
1387		-72.265625
1388		-80.078125
1389		-74.218750
1390		-78.125000
1391		-76.171875
1392		-78.125000
1393		-74.218750
1394		-80.078125
1395		-72.265625
1396		-78.125000
1397		-72.265625
1398		-78.125000
1399		-70.312500
1400		-76.171875
1401		-70.312500
1402		-76.171875
1403		-68.359375
1404		-74.218750
1405		-68.359375
1406		-70.312500
1407		-66.406250
1408		-68.359375
1409		-66.406250
1410		-68.359375
1411		-60.546875
1412		-66.406250
1413		-58.593750
1414		-66.406250
1415		-56.640625
1416		-62.500000
1417		-52.734375
1418		-60.546875
1419		-50.781250
1420		-56.640625
1421		-48.828125
1422		-54.687500
1423		-46.875000
1424		-48.828125
1425		-42.968750
1426		-44.921875
1427		-37.109375
1428		-42.968750
1429		-35.156250
1430		-41.015625
1431		-31.250000
1432		-37.109375
1433		-27.343750
1434		-33.203125
1435		-23.437500
1436		-29.296875
1437		-19.531250
1438		-25.390625
1439		-17.578125
1440		-19.531250
1441		-13.671875
1442		-15.625000
1443		-9.765625
1444		-13.671875
1445		-3.906250
1446		-9.765625
1447		0.000000
1448		-5.859375
1449		3.906250
1450		-1.953125
1451		7.812500
1452		1.953125
1453		11.718750
1454		5.859375
1455		15.625000
1456		11.718750
1457		17.578125
1458		17.578125
1459		21.484375
1460		21.484375
1461		27.343750
1462		21.484375
1463		31.250000
1464		27.343750
1465		35.156250
1466		31.250000
1467		39.062500
1468		33.203125
1469		42.968750
1470		37.109375
1471		46.875000
1472		41.015625
1473		46.875000
1474		46.875000
1475		50.781250
1476		48.828125
1477		54.687500
1478		50.781250
1479		58.593750
1480		54.687500
1481		62.500000
1482		54.687500
1483		64.453125
1484		58.593750
1485		68.359375
1486		60.546875
1487		70.312500
1488		64.453125
1489		72.265625
1490		68.359375
1491		72.265625
1492		70.312500
1493		74.218750
1494		72.265625
1495		78.125000
1496		72.265625
1497		80.078125
1498		74.218750
1499		82.031250
1500		76.171875
1501		82.031250
1502		78.125000
1503		83.984375
1504		78.125000
1505		85.937500
1506		80.078125
1507		85.937500
1508		82.031250
1509		85.937500
1510		82.031250
1511		87.890625
1512		82.031250
1513		87.890625
1514		82.031250
1515		87.890625
1516		82.031250
1517		87.890625
1518		82.031250
1519		87.890625
1520		82.031250
1521		87.890625
1522		82.031250
1523		87.890625
1524		82.031250
1525		85.937500
1526		82.031250
1527		83.984375
1528		78.125000
1529		85.937500
1530		78.125000
1531		83.984375
1532		76.171875
1533		83.984375
1534		74.218750
1535		82.031250
1536		72.265625
1537		82.031250
1538		70.312500
1539		80.078125
1540		70.312500
1541		76.171875
1542		68.359375
1543		72.265625
1544		64.453125
1545		72.265625
1546		62.500000
1547		70.312500
1548		60.546875
1549		68.359375
1550		56.640625
1551		66.406250
1552		54.687500
1553		62.500000
1554		50.781250
1555		58.593750
1556		48.828125
1557		56.640625
1558		46.875000
1559		50.781250
1560		42.968750
1561		46.875000
1562		37.109375
1563		46.875000
1564		33.203125
1565		42.968750
1566		31.250000
1567		39.062500
1568		27.343750
1569		35.156250
1570		23.437500
1571		31.250000
1572		19.531250
1573		27.343750
1574		17.578125
1575		21.484375
1576		11.718750
1577		17.578125
1578		5.859375
1579		13.671875
1580		1.953125
1581		11.718750
1582		-1.953125
1583		7.812500
1584		-5.859375
1585		3.906250
1586		-9.765625
1587		0.000000
1588		-13.671875
1589		-3.906250
1590		-15.625000
1591		-7.812500
1592		-19.531250
1593		-13.671875
1594		-25.390625
1595		-17.578125
1596		-29.296875
1597		-19.531250
1598		-33.203125
1599		-23.437500
1600		-37.109375
1601		-27.343750
1602		-41.015625
1603		-31.250000
1604		-42.968750
1605		-35.156250
1606		-46.875000
1607		-39.062500
1608		-48.828125
1609		-42.968750
1610		-50.781250
1611		-46.875000
1612		-56.640625
1613		-48.828125
1614		-60.546875
1615		-50.781250
1616		-62.500000
1617		-54.687500
1618		-64.453125
1619		-56.640625
1620		-66.406250
1621		-58.593750
1622		-68.359375
1623		-60.546875
1624		-70.312500
1625		-62.500000
1626		-70.312500
1627		-66.406250
1628		-74.218750
1629		-68.359375
1630		-74.218750
1631		-68.359375
1632		-76.171875
1633		-70.312500
1634		-78.125000
1635		-72.265625
1636		-78.125000
1637		-72.265625
1638		-78.125000
1639		-72.265625
1640		-78.125000
1641		-74.218750
1642		-78.125000
1643		-74.218750
1644		-78.125000
1645		-74.218750
1646		-78.125000
1647		-72.265625
1648		-78.125000
1649		-72.265625
1650		-78.125000
1651		-70.312500
1652		-78.125000
1653		-70.312500
1654		-76.171875
1655		-68.359375
1656		-76.171875
1657		-68.359375
1658		-72.265625
1659		-68.359375
1660		-70.312500
1661		-66.406250
1662		-70.312500
1663		-62.500000
1664		-68.359375
1665		-60.546875
1666		-66.406250
1667		-56.640625
1668		-62.500000
1669		-54.687500
1670		-60.546875
1671		-52.734375
1672		-58.593750
1673		-48.828125
1674		-54.687500
1675		-48.828125
1676		-50.781250
1677		-44.921875
1678		-46.875000
1679		-39.062500
1680		-44.921875
1681		-37.109375
1682		-41.015625
1683		-33.203125
1684		-37.109375
1685		-29.296875
1686		-35.156250
1687		-25.390625
1688		-31.250000
1689		-21.484375
1690		-27.343750
1691		-19.531250
1692		-21.484375
1693		-15.625000
1694		-17.578125
1695		-11.718750
1696		-13.671875
1697		-5.859375
1698		-11.718750
1699		-1.953125
1700		-7.812500
1701		1.953125
1702		-3.906250
1703		5.859375
1704		0.000000
1705		9.765625
1706		3.906250
1707		13.671875
1708		9.765625
1709		15.625000
1710		15.625000
1711		19.531250
1712		19.531250
1713		25.390625
1714		21.484375
1715		29.296875
1716		23.437500
1717		33.203125
1718		27.343750
1719		37.109375
1720		31.250000
1721		41.015625
1722		35.156250
1723		44.921875
1724		39.062500
1725		46.875000
1726		44.921875
1727		48.828125
1728		46.875000
1729		52.734375
1730		48.828125
1731		58.593750
1732		52.734375
1733		60.546875
1734		54.687500
1735		64.453125
1736		58.593750
1737		66.406250
1738		60.546875
1739		68.359375
1740		62.500000
1741		70.312500
1742		66.406250
1743		72.265625
1744		70.312500
1745		74.218750
1746		70.312500
1747		78.125000
1748		72.265625
1749		80.078125
1750		74.218750
1751		80.078125
1752		74.218750
1753		82.031250
1754		76.171875
1755		83.984375
1756		78.125000
1757		85.937500
1758		80.078125
1759		85.937500
1760		82.031250
1761		83.984375
1762		82.031250
1763		87.890625
1764		82.031250
1765		87.890625
1766		82.031250
1767		87.890625
1768		82.031250
1769		89.843750
1770		82.031250
1771		87.890625
1772		82.031250
1773		87.890625
1774		82.031250
1775		87.890625
1776		83.984375
1777		85.937500
1778		82.031250
1779		85.937500
1780		78.125000
1781		85.937500
1782		78.125000
1783		85.937500
1784		78.125000
1785		83.984375
1786		76.171875
1787		83.984375
1788		74.218750
1789		82.031250
1790		72.265625
1791		80.078125
1792		72.265625
1793		78.125000
1794		70.312500
1795		74.218750
1796		66.406250
1797		72.265625
1798		64.453125
1799		72.265625
1800		60.546875
1801		68.359375
1802		58.593750
1803		66.406250
1804		54.687500
1805		64.453125
1806		52.734375
1807		62.500000
1808		50.781250
1809		58.593750
1810		48.828125
1811		52.734375
1812		44.921875
1813		48.828125
1814		39.062500
1815		48.828125
1816		37.109375
1817		44.921875
1818		33.203125
1819		41.015625
1820		29.296875
1821		37.109375
1822		25.390625
1823		33.203125
1824		21.484375
1825		29.296875
1826		19.531250
1827		25.390625
1828		15.625000
1829		19.531250
1830		7.812500
1831		17.578125
1832		5.859375
1833		15.625000
1834		0.000000
1835		9.765625
1836		-3.906250
1837		5.859375
1838		-7.812500
1839		1.953125
1840		-11.718750
1841		-1.953125
1842		-13.671875
1843		-5.859375
1844		-17.578125
1845		-11.718750
1846		-23.437500
1847		-15.625000
1848		-27.343750
1849		-17.578125
1850		-31.250000
1851		-21.484375
1852		-35.156250
1853		-25.390625
1854		-39.062500
1855		-29.296875
1856		-41.015625
1857		-33.203125
1858		-44.921875
1859		-37.109375
1860		-46.875000
1861		-41.015625
1862		-48.828125
1863		-44.921875
1864		-54.687500
1865		-46.875000
1866		-56.640625
1867		-48.828125
1868		-60.546875
1869		-52.734375
1870		-64.453125
1871		-54.687500
1872		-64.453125
1873		-56.640625
1874		-68.359375
1875		-60.546875
1876		-68.359375
1877		-62.500000
1878		-70.312500
1879		-66.406250
1880		-74.218750
1881		-66.406250
1882		-74.218750
1883		-66.406250
1884		-76.171875
1885		-68.359375
1886		-78.125000
1887		-70.312500
1888		-78.125000
1889		-70.312500
1890		-78.125000
1891		-72.265625
1892		-80.078125
1893		-72.265625
1894		-78.125000
1895		-74.218750
1896		-78.125000
1897		-76.171875
1898		-80.078125
1899		-72.265625
1900		-80.078125
1901		-72.265625
1902		-80.078125
1903		-72.265625
1904		-78.125000
1905		-70.312500
1906		-78.125000
1907		-70.312500
1908		-76.171875
1909		-68.359375
1910		-74.218750
1911		-70.312500
1912		-70.312500
1913		-68.359375
1914		-70.312500
1915		-64.453125
1916		-70.312500
1917		-60.546875
1918		-68.359375
1919		-58.593750
1920		-64.453125
1921		-58.593750
1922		-62.500000
1923		-54.687500
1924		-60.546875
1925		-50.781250
1926		-56.640625
1927		-50.781250
1928		-52.734375
1929		-46.875000
1930		-48.828125
1931		-42.968750
1932		-46.875000
1933		-39.062500
1934		-44.921875
1935		-35.156250
1936		-41.015625
1937		-33.203125
1938		-37.109375
1939		-29.296875
1940		-35.156250
1941		-23.437500
1942		-29.296875
1943		-21.484375
1944		-25.390625
1945		-19.531250
1946		-21.484375
1947		-15.625000
1948		-17.578125
1949		-9.765625
1950		-13.671875
1951		-5.859375
1952		-11.718750
1953		-1.953125
1954		-5.859375
1955		3.906250
1956		-1.953125
1957		5.859375
1958		0.000000
1959		9.765625
1960		3.906250
1961		13.671875
1962		11.718750
1963		17.578125
1964		15.625000
1965		23.437500
1966		17.578125
1967		27.343750
1968		21.484375
1969		31.250000
1970		25.390625
1971		35.156250
1972		29.296875
1973		39.062500
1974		33.203125
1975		41.015625
1976		37.109375
1977		44.921875
1978		42.968750
1979		46.875000
1980		44.921875
1981		50.781250
1982		46.875000
1983		56.640625
1984		48.828125
1985		58.593750
1986		52.734375
1987		60.546875
1988		54.687500
1989		64.453125
1990		58.593750
1991		66.406250
1992		60.546875
1993		70.312500
1994		62.500000
1995		70.312500
1996		68.359375
1997		72.265625
1998		70.312500
1999		76.171875
2000		70.312500
2001		78.125000
2002		72.265625
2003		80.078125
2004		74.218750
2005		80.078125
2006		76.171875
2007		82.031250
2008		76.171875
2009		83.984375
2010		78.125000
2011		83.984375
2012		82.031250
2013		83.984375
2014		82.031250
2015		85.937500
2016		80.078125
2017		87.890625
2018		82.031250
2019		87.890625
2020		82.031250
2021		87.890625
2022		82.031250
2023		87.890625
2024		82.031250
2025		87.890625
2026		82.031250
2027		87.890625
2028		82.031250
2029		85.937500
2030		83.984375
2031		85.937500
2032		80.078125
2033		85.937500
2034		78.125000
2035		85.937500
2036		78.125000
2037		83.984375
2038		76.171875
2039		83.984375
2040		76.171875
2041		82.031250
2042		74.218750
2043		82.031250
2044		74.218750
2045		80.078125
2046		72.265625
2047		76.171875
2048		68.359375
2049		74.218750
2050		66.406250
2051		74.218750
2052		62.500000
2053		70.312500
2054		60.546875
2055		68.359375
2056		58.593750
2057		66.406250
2058		54.687500
2059		62.500000
2060		52.734375
2061		60.546875
2062		50.781250
2063		54.687500
2064		46.875000
2065		52.734375
2066		41.015625
2067		50.781250
2068		37.109375
2069		46.875000
2070		35.156250
2071		42.968750
2072		31.250000
2073		39.062500
2074		27.343750
2075		37.109375
2076		23.437500
2077		33.203125
2078		21.484375
2079		29.296875
2080		17.578125
2081		23.437500
2082		11.718750
2083		19.531250
2084		7.812500
2085		17.578125
2086		3.906250
2087		13.671875
2088		0.000000
2089		9.765625
2090		-3.906250
2091		3.906250
2092		-9.765625
2093		0.000000
2094		-11.718750
2095		-3.906250
2096		-13.671875
2097		-9.765625
2098		-19.531250
2099		-13.671875
2100		-25.390625
2101		-15.625000
2102		-27.343750
2103		-17.578125
2104		-33.203125
2105		-23.437500
2106		-35.156250
2107		-27.343750
2108		-39.062500
2109		-31.250000
2110		-42.968750
2111		-33.203125
2112		-44.921875
2113		-39.062500
2114		-46.875000
2115		-42.968750
2116		-52.734375
2117		-44.921875
2118		-56.640625
2119		-46.875000
2120		-58.593750
2121		-50.781250
2122		-60.546875
2123		-52.734375
2124		-64.453125
2125		-56.640625
2126		-66.406250
2127		-58.593750
2128		-66.406250
2129		-60.546875
2130		-68.359375
2131		-64.453125
2132		-72.265625
2133		-66.406250
2134		-74.218750
2135		-66.406250
2136		-76.171875
2137		-68.359375
2138		-76.171875
2139		-70.312500
2140		-78.125000
2141		-70.312500
2142		-78.125000
2143		-72.265625
2144		-78.125000
2145		-72.265625
2146		-78.125000
2147		-76.171875
2148		-78.125000
2149		-76.171875
2150		-80.078125
2151		-74.218750
2152		-80.078125
2153		-72.265625
2154		-80.078125
2155		-72.265625
2156		-78.125000
2157		-72.265625
2158		-78.125000
2159		-70.312500
2160		-76.171875
2161		-68.359375
2162		-76.171875
2163		-70.312500
2164		-72.265625
2165		-68.359375
2166		-72.265625
2167		-64.453125
2168		-70.312500
2169		-62.500000
2170		-68.359375
2171		-60.546875
2172		-66.406250
2173		-58.593750
2174		-64.453125
2175		-56.640625
2176		-62.500000
2177		-52.734375
2178		-58.593750
2179		-52.734375
2180		-54.687500
2181		-48.828125
2182		-50.781250
2183		-46.875000
2184		-48.828125
2185		-41.015625
2186		-46.875000
2187		-37.109375
2188		-42.968750
2189		-35.156250
2190		-41.015625
2191		-31.250000
2192		-37.109375
2193		-27.343750
2194		-33.203125
2195		-23.437500
2196		-27.343750
2197		-21.484375
2198		-23.437500
2199		-17.578125
2200		-19.531250
2201		-11.718750
2202		-17.578125
2203		-7.812500
2204		-13.671875
2205		-3.906250
2206		-9.765625
2207		0.000000
2208		-3.906250
2209		3.906250
2210		-1.953125
2211		9.765625
2212		3.906250
2213		9.765625
2214		9.765625
2215		13.671875
2216		13.671875
2217		21.484375
2218		15.625000
2219		23.437500
2220		19.531250
2221		27.343750
2222		21.484375
2223		33.203125
2224		25.390625
2225		35.156250
2226		29.296875
2227		39.062500
2228		33.203125
2229		41.015625
2230		39.062500
2231		44.921875
2232		42.968750
2233		46.875000
2234		44.921875
2235		52.734375
2236		46.875000
2237		56.640625
2238		50.781250
2239		58.593750
2240		54.687500
2241		62.500000
2242		56.640625
2243		64.453125
2244		58.593750
2245		68.359375
2246		60.546875
2247		68.359375
2248		66.406250
2249		70.312500
2250		68.359375
2251		74.218750
2252		68.359375
2253		76.171875
2254		70.312500
2255		78.125000
2256		72.265625
2257		80.078125
2258		74.218750
2259		82.031250
2260		76.171875
2261		83.984375
2262		78.125000
2263		83.984375
2264		80.078125
2265		83.984375
2266		82.031250
2267		83.984375
2268		80.078125
2269		87.890625
2270		82.031250
2271		87.890625
2272		82.031250
2273		87.890625
2274		82.031250
2275		87.890625
2276		82.031250
2277		87.890625
2278		82.031250
2279		87.890625
2280		82.031250
2281		87.890625
2282		83.984375
2283		85.937500
2284		80.078125
2285		85.937500
2286		80.078125
2287		85.937500
2288		78.125000
2289		85.937500
2290		78.125000
2291		83.984375
2292		76.171875
2293		83.984375
2294		74.218750
2295		82.031250
2296		74.218750
2297		80.078125
2298		72.265625
2299		76.171875
2300		68.359375
2301		74.218750
2302		66.406250
2303		74.218750
2304		64.453125
2305		72.265625
2306		62.500000
2307		70.312500
2308		58.593750
2309		68.359375
2310		56.640625
2311		64.453125
2312		54.687500
2313		62.500000
2314		52.734375
2315		56.640625
2316		48.828125
2317		54.687500
2318		44.921875
2319		50.781250
2320		41.015625
2321		48.828125
2322		37.109375
2323		44.921875
2324		33.203125
2325		42.968750
2326		29.296875
2327		39.062500
2328		25.390625
2329		35.156250
2330		23.437500
2331		31.250000
2332		19.531250
2333		25.390625
2334		13.671875
2335		21.484375
2336		9.765625
2337		19.531250
2338		5.859375
2339		15.625000
2340		1.953125
2341		11.718750
2342		-1.953125
2343		7.812500
2344		-5.859375
2345		3.906250
2346		-9.765625
2347		0.000000
2348		-11.718750
2349		-7.812500
2350		-15.625000
2351		-11.718750
2352		-21.484375
2353		-13.671875
2354		-25.390625
2355		-17.578125
2356		-29.296875
2357		-21.484375
2358		-33.203125
2359		-25.390625
2360		-37.109375
2361		-29.296875
2362		-41.015625
2363		-31.250000
2364		-42.968750
2365		-35.156250
2366		-44.921875
2367		-41.015625
2368		-50.781250
2369		-42.968750
2370		-54.687500
2371		-44.921875
2372		-56.640625
2373		-48.828125
2374		-58.593750
2375		-50.781250
2376		-62.500000
2377		-54.687500
2378		-64.453125
2379		-56.640625
2380		-66.406250
2381		-58.593750
2382		-66.406250
2383		-64.453125
2384		-70.312500
2385		-66.406250
2386		-74.218750
2387		-64.453125
2388		-74.218750
2389		-68.359375
2390		-76.171875
2391		-68.359375
2392		-78.125000
2393		-70.312500
2394		-78.125000
2395		-70.312500
2396		-78.125000
2397		-72.265625
2398		-78.125000
2399		-74.218750
2400		-78.125000
2401		-76.171875
2402		-80.078125
2403		-74.218750
2404		-80.078125
2405		-72.265625
2406		-80.078125
2407		-72.265625
2408		-80.078125
2409		-72.265625
2410		-78.125000
2411		-72.265625
2412		-78.125000
2413		-70.312500
2414		-76.171875
2415		-70.312500
2416		-72.265625
2417		-70.312500
2418		-74.218750
2419		-66.406250
2420		-72.265625
2421		-64.453125
2422		-70.312500
2423		-62.500000
2424		-68.359375
2425		-60.546875
2426		-66.406250
2427		-58.593750
2428		-64.453125
2429		-56.640625
2430		-60.546875
2431		-52.734375
2432		-56.640625
2433		-52.734375
2434		-52.734375
2435		-48.828125
2436		-52.734375
2437		-44.921875
2438		-48.828125
2439		-41.015625
2440		-46.875000
2441		-37.109375
2442		-42.968750
2443		-33.203125
2444		-39.062500
2445		-29.296875
2446		-35.156250
2447		-27.343750
2448		-29.296875
2449		-25.390625
2450		-25.390625
2451		-21.484375
2452		-21.484375
2453		-13.671875
2454		-19.531250
2455		-9.765625
2456		-15.625000
2457		-7.812500
2458		-11.718750
2459		-1.953125
2460		-9.765625
2461		1.953125
2462		-3.906250
2463		5.859375
2464		0.000000
2465		7.812500
2466		5.859375
2467		11.718750
2468		9.765625
2469		17.578125
2470		11.718750
2471		21.484375
2472		17.578125
2473		25.390625
2474		21.484375
2475		29.296875
2476		23.437500
2477		33.203125
2478		27.343750
2479		37.109375
2480		31.250000
2481		41.015625
2482		37.109375
2483		41.015625
2484		41.015625
2485		44.921875
2486		42.968750
2487		50.781250
2488		44.921875
2489		54.687500
2490		48.828125
2491		56.640625
2492		50.781250
2493		60.546875
2494		54.687500
2495		62.500000
2496		56.640625
2497		66.406250
2498		60.546875
2499		66.406250
2500		64.453125
2501		68.359375
2502		66.406250
2503		74.218750
2504		68.359375
2505		76.171875
2506		70.312500
2507		78.125000
2508		72.265625
2509		78.125000
2510		72.265625
2511		80.078125
2512		74.218750
2513		82.031250
2514		76.171875
2515		83.984375
2516		80.078125
2517		82.031250
2518		80.078125
2519		83.984375
2520		80.078125
2521		85.937500
2522		80.078125
2523		87.890625
2524		80.078125
2525		87.890625
2526		82.031250
2527		87.890625
2528		82.031250
2529		87.890625
2530		82.031250
2531		87.890625
2532		83.984375
2533		87.890625
2534		83.984375
2535		85.937500
2536		80.078125
2537		87.890625
2538		80.078125
2539		85.937500
2540		78.125000
2541		85.937500
2542		78.125000
2543		83.984375
2544		76.171875
2545		83.984375
2546		74.218750
2547		82.031250
2548		74.218750
2549		82.031250
2550		74.218750
2551		78.125000
2552		70.312500
2553		76.171875
2554		68.359375
2555		76.171875
2556		66.406250
2557		74.218750
2558		62.500000
2559		70.312500
2560		60.546875
2561		68.359375
2562		58.593750
2563		66.406250
2564		54.687500
2565		64.453125
2566		54.687500
2567		58.593750
2568		50.781250
2569		56.640625
2570		44.921875
2571		52.734375
2572		41.015625
2573		50.781250
2574		39.062500
2575		48.828125
2576		35.156250
2577		44.921875
2578		33.203125
2579		41.015625
2580		29.296875
2581		37.109375
2582		25.390625
2583		33.203125
2584		21.484375
2585		27.343750
2586		17.578125
2587		23.437500
2588		13.671875
2589		21.484375
2590		9.765625
2591		17.578125
2592		5.859375
2593		13.671875
2594		0.000000
2595		9.765625
2596		-3.906250
2597		5.859375
2598		-5.859375
2599		1.953125
2600		-9.765625
2601		-3.906250
2602		-13.671875
2603		-7.812500
2604		-19.531250
2605		-11.718750
2606		-23.437500
2607		-13.671875
2608		-27.343750
2609		-17.578125
2610		-31.250000
2611		-21.484375
2612		-35.156250
2613		-25.390625
2614		-39.062500
2615		-29.296875
2616		-41.015625
2617		-33.203125
2618		-42.968750
2619		-39.062500
2620		-48.828125
2621		-42.968750
2622		-52.734375
2623		-42.968750
2624		-56.640625
2625		-46.875000
2626		-58.593750
2627		-50.781250
2628		-60.546875
2629		-52.734375
2630		-64.453125
2631		-54.687500
2632		-66.406250
2633		-58.593750
2634		-66.406250
2635		-62.500000
2636		-70.312500
2637		-64.453125
2638		-72.265625
2639		-64.453125
2640		-74.218750
2641		-66.406250
2642		-76.171875
2643		-68.359375
2644		-76.171875
2645		-70.312500
2646		-78.125000
2647		-70.312500
2648		-78.125000
2649		-72.265625
2650		-78.125000
2651		-74.218750
2652		-78.125000
2653		-76.171875
2654		-80.078125
2655		-74.218750
2656		-80.078125
2657		-74.218750
2658		-80.078125
2659		-74.218750
2660		-80.078125
2661		-72.265625
2662		-80.078125
2663		-72.265625
2664		-78.125000
2665		-72.265625
2666		-78.125000
2667		-70.312500
2668		-74.218750
2669		-72.265625
2670		-72.265625
2671		-68.359375
2672		-74.218750
2673		-66.406250
2674		-72.265625
2675		-64.453125
2676		-70.312500
2677		-62.500000
2678		-68.359375
2679		-60.546875
2680		-64.453125
2681		-58.593750
2682		-62.500000
2683		-56.640625
2684		-58.593750
2685		-54.687500
2686		-54.687500
2687		-50.781250
2688		-54.687500
2689		-46.875000
2690		-52.734375
2691		-42.968750
2692		-48.828125
2693		-39.062500
2694		-44.921875
2695		-37.109375
2696		-41.015625
2697		-33.203125
2698		-37.109375
2699		-29.296875
2700		-35.156250
2701		-27.343750
2702		-29.296875
2703		-23.437500
2704		-25.390625
2705		-17.578125
2706		-23.437500
2707		-13.671875
2708		-19.531250
2709		-9.765625
2710		-15.625000
2711		-5.859375
2712		-11.718750
2713		-1.953125
2714		-5.859375
2715		3.906250
2716		-1.953125
2717		3.906250
2718		3.906250
2719		7.812500
2720		7.812500
2721		11.718750
2722		9.765625
2723		17.578125
2724		13.671875
2725		23.437500
2726		17.578125
2727		25.390625
2728		21.484375
2729		29.296875
2730		25.390625
2731		33.203125
2732		29.296875
2733		39.062500
2734		35.156250
2735		39.062500
2736		39.062500
2737		42.968750
2738		41.015625
2739		48.828125
2740		42.968750
2741		50.781250
2742		44.921875
2743		54.687500
2744		48.828125
2745		56.640625
2746		52.734375
2747		60.546875
2748		54.687500
2749		64.453125
2750		58.593750
2751		64.453125
2752		62.500000
2753		66.406250
2754		64.453125
2755		70.312500
2756		64.453125
2757		74.218750
2758		66.406250
2759		76.171875
2760		70.312500
2761		78.125000
2762		72.265625
2763		80.078125
2764		74.218750
2765		82.031250
2766		74.218750
2767		82.031250
2768		78.125000
2769		82.031250
2770		80.078125
2771		82.031250
2772		78.125000
2773		85.937500
2774		80.078125
2775		85.937500
2776		80.078125
2777		85.937500
2778		80.078125
2779		87.890625
2780		82.031250
2781		87.890625
2782		80.078125
2783		87.890625
2784		82.031250
2785		87.890625
2786		83.984375
2787		85.937500
2788		80.078125
2789		87.890625
2790		80.078125
2791		87.890625
2792		78.125000
2793		85.937500
2794		78.125000
2795		85.937500
2796		76.171875
2797		83.984375
2798		76.171875
2799		82.031250
2800		74.218750
2801		82.031250
2802		74.218750
2803		78.125000
2804		72.265625
2805		76.171875
2806		68.359375
2807		76.171875
2808		66.406250
2809		74.218750
2810		64.453125
2811		72.265625
2812		62.500000
2813		70.312500
2814		58.593750
2815		68.359375
2816		56.640625
2817		64.453125
2818		56.640625
2819		62.500000
2820		52.734375
2821		56.640625
2822		46.875000
2823		54.687500
2824		44.921875
2825		52.734375
2826		41.015625
2827		48.828125
2828		37.109375
2829		46.875000
2830		33.203125
2831		42.968750
2832		29.296875
2833		39.062500
2834		27.343750
2835		35.156250
2836		23.437500
2837		29.296875
2838		17.578125
2839		25.390625
2840		13.671875
2841		23.437500
2842		9.765625
2843		19.531250
2844		5.859375
2845		15.625000
2846		1.953125
2847		11.718750
2848		-1.953125
2849		7.812500
2850		-5.859375
2851		3.906250
2852		-7.812500
2853		-1.953125
2854		-11.718750
2855		-5.859375
2856		-17.578125
2857		-9.765625
2858		-21.484375
2859		-11.718750
2860		-25.390625
2861		-17.578125
2862		-29.296875
2863		-19.531250
2864		-33.203125
2865		-23.437500
2866		-39.062500
2867		-27.343750
2868		-39.062500
2869		-31.250000
2870		-42.968750
2871		-37.109375
2872		-48.828125
2873		-41.015625
2874		-52.734375
2875		-42.968750
2876		-54.687500
2877		-44.921875
2878		-56.640625
2879		-48.828125
2880		-60.546875
2881		-50.781250
2882		-62.500000
2883		-54.687500
2884		-64.453125
2885		-56.640625
2886		-66.406250
2887		-62.500000
2888		-68.359375
2889		-64.453125
2890		-72.265625
2891		-64.453125
2892		-74.218750
2893		-66.406250
2894		-76.171875
2895		-68.359375
2896		-76.171875
2897		-70.312500
2898		-78.125000
2899		-70.312500
2900		-80.078125
2901		-72.265625
2902		-78.125000
2903		-74.218750
2904		-78.125000
2905		-76.171875
2906		-80.078125
2907		-74.218750
2908		-82.031250
2909		-74.218750
2910		-82.031250
2911		-74.218750
2912		-82.031250
2913		-74.218750
2914		-80.078125
2915		-74.218750
2916		-80.078125
2917		-72.265625
2918		-78.125000
2919		-72.265625
2920		-76.171875
2921		-72.265625
2922		-74.218750
2923		-70.312500
2924		-76.171875
2925		-68.359375
2926		-74.218750
2927		-66.406250
2928		-72.265625
2929		-64.453125
2930		-70.312500
2931		-62.500000
2932		-68.359375
2933		-60.546875
2934		-66.406250
2935		-58.593750
2936		-60.546875
2937		-56.640625
2938		-58.593750
2939		-52.734375
2940		-56.640625
2941		-48.828125
2942		-54.687500
2943		-44.921875
2944		-50.781250
2945		-42.968750
2946		-46.875000
2947		-39.062500
2948		-44.921875
2949		-35.156250
2950		-41.015625
2951		-31.250000
2952		-39.062500
2953		-31.250000
2954		-31.250000
2955		-25.390625
2956		-27.343750
2957		-21.484375
2958		-25.390625
2959		-17.578125
2960		-23.437500
2961		-11.718750
2962		-17.578125
2963		-7.812500
2964		-13.671875
2965		-3.906250
2966		-9.765625
2967		0.000000
2968		-5.859375
2969		1.953125
2970		0.000000
2971		5.859375
2972		3.906250
2973		9.765625
2974		5.859375
2975		15.625000
2976		11.718750
2977		19.531250
2978		13.671875
2979		23.437500
2980		17.578125
2981		27.343750
2982		21.484375
2983		31.250000
2984		25.390625
2985		35.156250
2986		29.296875
2987		37.109375
2988		35.156250
2989		39.062500
2990		37.109375
2991		44.921875
2992		39.062500
2993		48.828125
2994		42.968750
2995		52.734375
2996		46.875000
2997		54.687500
2998		50.781250
2999		58.593750
3000		52.734375
3001		60.546875
3002		54.687500
3003		62.500000
3004		60.546875
3005		64.453125
3006		62.500000
3007		68.359375
3008		62.500000
3009		72.265625
3010		66.406250
3011		74.218750
3012		68.359375
3013		76.171875
3014		70.312500
3015		78.125000
3016		72.265625
3017		80.078125
3018		72.265625
3019		80.078125
3020		76.171875
3021		80.078125
3022		78.125000
3023		82.031250
3024		78.125000
3025		83.984375
3026		78.125000
3027		85.937500
3028		80.078125
3029		85.937500
3030		80.078125
3031		85.937500
3032		80.078125
3033		87.890625
3034		80.078125
3035		87.890625
3036		82.031250
3037		87.890625
3038		83.984375
3039		85.937500
3040		80.078125
3041		87.890625
3042		80.078125
3043		85.937500
3044		80.078125
3045		85.937500
3046		78.125000
3047		85.937500
3048		78.125000
3049		83.984375
3050		76.171875
3051		83.984375
3052		76.171875
3053		82.031250
3054		76.171875
3055		78.125000
3056		74.218750
3057		76.171875
3058		70.312500
3059		78.125000
3060		68.359375
3061		76.171875
3062		64.453125
3063		72.265625
3064		62.500000
3065		72.265625
3066		60.546875
3067		68.359375
3068		56.640625
3069		66.406250
3070		56.640625
3071		62.500000
3072		54.687500
3073		58.593750
3074		48.828125
3075		56.640625
3076		44.921875
3077		54.687500
3078		42.968750
3079		50.781250
3080		39.062500
3081		48.828125
3082		37.109375
3083		44.921875
3084		33.203125
3085		41.015625
3086		29.296875
3087		37.109375
3088		27.343750
3089		31.250000
3090		21.484375
3091		27.343750
3092		15.625000
3093		25.390625
3094		11.718750
3095		21.484375
3096		9.765625
3097		17.578125
3098		5.859375
3099		13.671875
3100		0.000000
3101		9.765625
3102		-3.906250
3103		5.859375
3104		-5.859375
3105		0.000000
3106		-9.765625
3107		-3.906250
3108		-15.625000
3109		-7.812500
3110		-19.531250
3111		-9.765625
3112		-23.437500
3113		-13.671875
3114		-27.343750
3115		-17.578125
3116		-31.250000
3117		-21.484375
3118		-35.156250
3119		-25.390625
3120		-37.109375
3121		-29.296875
3122		-41.015625
3123		-35.156250
3124		-46.875000
3125		-39.062500
3126		-48.828125
3127		-41.015625
3128		-52.734375
3129		-42.968750
3130		-56.640625
3131		-46.875000
3132		-58.593750
3133		-50.781250
3134		-60.546875
3135		-52.734375
3136		-62.500000
3137		-56.640625
3138		-64.453125
3139		-60.546875
3140		-68.359375
3141		-62.500000
3142		-70.312500
3143		-64.453125
3144		-72.265625
3145		-64.453125
3146		-74.218750
3147		-68.359375
3148		-76.171875
3149		-68.359375
3150		-78.125000
3151		-70.312500
3152		-78.125000
3153		-72.265625
3154		-78.125000
3155		-72.265625
3156		-78.125000
3157		-76.171875
3158		-82.031250
3159		-74.218750
3160		-82.031250
3161		-74.218750
3162		-82.031250
3163		-74.218750
3164		-82.031250
3165		-74.218750
3166		-82.031250
3167		-74.218750
3168		-80.078125
3169		-74.218750
3170		-80.078125
3171		-74.218750
3172		-76.171875
3173		-74.218750
3174		-76.171875
3175		-72.265625
3176		-76.171875
3177		-70.312500
3178		-76.171875
3179		-68.359375
3180		-74.218750
3181		-66.406250
3182		-72.265625
3183		-64.453125
3184		-70.312500
3185		-62.500000
3186		-68.359375
3187		-60.546875
3188		-62.500000
3189		-58.593750
3190		-60.546875
3191		-56.640625
3192		-58.593750
3193		-50.781250
3194		-56.640625
3195		-48.828125
3196		-52.734375
3197		-44.921875
3198		-50.781250
3199		-41.015625
3200		-46.875000
3201		-39.062500
3202		-44.921875
3203		-35.156250
3204		-41.015625
3205		-33.203125
3206		-35.156250
3207		-29.296875
3208		-31.250000
3209		-23.437500
3210		-29.296875
3211		-19.531250
3212		-25.390625
3213		-15.625000
3214		-21.484375
3215		-11.718750
3216		-15.625000
3217		-7.812500
3218		-13.671875
3219		-3.906250
3220		-9.765625
3221		-1.953125
3222		-3.906250
3223		1.953125
3224		1.953125
3225		5.859375
3226		3.906250
3227		13.671875
3228		7.812500
3229		15.625000
3230		11.718750
3231		19.531250
3232		15.625000
3233		25.390625
3234		19.531250
3235		29.296875
3236		23.437500
3237		31.250000
3238		25.390625
3239		33.203125
3240		33.203125
3241		37.109375
3242		35.156250
3243		42.968750
3244		37.109375
3245		46.875000
3246		41.015625
3247		48.828125
3248		42.968750
3249		52.734375
3250		46.875000
3251		56.640625
3252		50.781250
3253		58.593750
3254		52.734375
3255		60.546875
3256		58.593750
3257		62.500000
3258		60.546875
3259		66.406250
3260		62.500000
3261		70.312500
3262		64.453125
3263		72.265625
3264		66.406250
3265		74.218750
3266		68.359375
3267		76.171875
3268		70.312500
3269		78.125000
3270		72.265625
3271		80.078125
3272		76.171875
3273		78.125000
3274		78.125000
3275		80.078125
3276		78.125000
3277		83.984375
3278		78.125000
3279		83.984375
3280		78.125000
3281		85.937500
3282		78.125000
3283		85.937500
3284		80.078125
3285		85.937500
3286		80.078125
3287		87.890625
3288		80.078125
3289		85.937500
3290		82.031250
3291		85.937500
3292		80.078125
3293		85.937500
3294		80.078125
3295		85.937500
3296		80.078125
3297		85.937500
3298		78.125000
3299		85.937500
3300		78.125000
3301		83.984375
3302		76.171875
3303		83.984375
3304		76.171875
3305		82.031250
3306		76.171875
3307		78.125000
3308		74.218750
3309		78.125000
3310		70.312500
3311		76.171875
3312		68.359375
3313		76.171875
3314		66.406250
3315		74.218750
3316		64.453125
3317		72.265625
3318		62.500000
3319		68.359375
3320		60.546875
3321		66.406250
3322		58.593750
3323		64.453125
3324		56.640625
3325		60.546875
3326		50.781250
3327		56.640625
3328		46.875000
3329		56.640625
3330		42.968750
3331		52.734375
3332		41.015625
3333		50.781250
3334		37.109375
3335		46.875000
3336		33.203125
3337		42.968750
3338		31.250000
3339		39.062500
3340		29.296875
3341		33.203125
3342		25.390625
3343		29.296875
3344		19.531250
3345		27.343750
3346		13.671875
3347		23.437500
3348		9.765625
3349		19.531250
3350		7.812500
3351		15.625000
3352		1.953125
3353		11.718750
3354		-1.953125
3355		7.812500
3356		-3.906250
3357		1.953125
3358		-7.812500
3359		-1.953125
3360		-13.671875
3361		-5.859375
3362		-17.578125
3363		-7.812500
3364		-21.484375
3365		-11.718750
3366		-25.390625
3367		-15.625000
3368		-29.296875
3369		-19.531250
3370		-33.203125
3371		-23.437500
3372		-35.156250
3373		-27.343750
3374		-39.062500
3375		-33.203125
3376		-44.921875
3377		-37.109375
3378		-46.875000
3379		-39.062500
3380		-50.781250
3381		-42.968750
3382		-54.687500
3383		-44.921875
3384		-56.640625
3385		-48.828125
3386		-60.546875
3387		-52.734375
3388		-62.500000
3389		-54.687500
3390		-64.453125
3391		-58.593750
3392		-66.406250
3393		-62.500000
3394		-70.312500
3395		-62.500000
3396		-72.265625
3397		-64.453125
3398		-74.218750
3399		-66.406250
3400		-76.171875
3401		-68.359375
3402		-78.125000
3403		-70.312500
3404		-78.125000
3405		-72.265625
3406		-78.125000
3407		-72.265625
3408		-78.125000
3409		-76.171875
3410		-82.031250
3411		-74.218750
3412		-82.031250
3413		-74.218750
3414		-82.031250
3415		-74.218750
3416		-82.031250
3417		-74.218750
3418		-82.031250
3419		-76.171875
3420		-82.031250
3421		-74.218750
3422		-80.078125
3423		-74.218750
3424		-78.125000
3425		-76.171875
3426		-76.171875
3427		-74.218750
3428		-78.125000
3429		-70.312500
3430		-78.125000
3431		-70.312500
3432		-76.171875
3433		-68.359375
3434		-74.218750
3435		-66.406250
3436		-72.265625
3437		-64.453125
3438		-70.312500
3439		-60.546875
3440		-66.406250
3441		-60.546875
3442		-62.500000
3443		-58.593750
3444		-60.546875
3445		-54.687500
3446		-58.593750
3447		-50.781250
3448		-56.640625
3449		-46.875000
3450		-54.687500
3451		-44.921875
3452		-50.781250
3453		-41.015625
3454		-46.875000
3455		-37.109375
3456		-42.968750
3457		-37.109375
3458		-37.109375
3459		-33.203125
3460		-33.203125
3461		-25.390625
3462		-33.203125
3463		-23.437500
3464		-29.296875
3465		-19.531250
3466		-23.437500
3467		-13.671875
3468		-21.484375
3469		-9.765625
3470		-17.578125
3471		-7.812500
3472		-11.718750
3473		-3.906250
3474		-5.859375
3475		-1.953125
3476		-1.953125
3477		3.906250
3478		0.000000
3479		9.765625
3480		3.906250
3481		11.718750
3482		7.812500
3483		17.578125
3484		11.718750
3485		21.484375
3486		15.625000
3487		25.390625
3488		19.531250
3489		29.296875
3490		23.437500
3491		31.250000
3492		29.296875
3493		33.203125
3494		33.203125
3495		39.062500
3496		33.203125
3497		44.921875
3498		39.062500
3499		46.875000
3500		41.015625
3501		50.781250
3502		44.921875
3503		52.734375
3504		48.828125
3505		56.640625
3506		50.781250
3507		58.593750
3508		54.687500
3509		60.546875
3510		58.593750
3511		62.500000
3512		58.593750
3513		66.406250
3514		60.546875
3515		70.312500
3516		64.453125
3517		72.265625
3518		66.406250
3519		74.218750
3520		68.359375
3521		76.171875
3522		70.312500
3523		78.125000
3524		72.265625
3525		78.125000
3526		76.171875
3527		78.125000
3528		76.171875
3529		82.031250
3530		76.171875
3531		83.984375
3532		78.125000
3533		83.984375
3534		78.125000
3535		85.937500
3536		78.125000
3537		85.937500
3538		80.078125
3539		85.937500
3540		80.078125
3541		85.937500
3542		82.031250
3543		83.984375
3544		80.078125
3545		83.984375
3546		80.078125
3547		85.937500
3548		78.125000
3549		85.937500
3550		78.125000
3551		85.937500
3552		78.125000
3553		83.984375
3554		76.171875
3555		83.984375
3556		76.171875
3557		82.031250
3558		76.171875
3559		80.078125
3560		74.218750
3561		78.125000
3562		70.312500
3563		78.125000
3564		68.359375
3565		78.125000
3566		68.359375
3567		74.218750
3568		66.406250
3569		74.218750
3570		62.500000
3571		72.265625
3572		60.546875
3573		68.359375
3574		60.546875
3575		66.406250
3576		56.640625
3577		60.546875
3578		52.734375
3579		58.593750
3580		48.828125
3581		56.640625
3582		44.921875
3583		54.687500
3584		42.968750
3585		50.781250
3586		39.062500
3587		48.828125
3588		35.156250
3589		44.921875
3590		33.203125
3591		41.015625
3592		29.296875
3593		35.156250
3594		25.390625
3595		31.250000
3596		21.484375
3597		29.296875
3598		17.578125
3599		27.343750
3600		13.671875
3601		21.484375
3602		9.765625
3603		17.578125
3604		5.859375
3605		13.671875
3606		1.953125
3607		9.765625
3608		-1.953125
3609		5.859375
3610		-5.859375
3611		0.000000
3612		-11.718750
3613		-3.906250
3614		-15.625000
3615		-5.859375
3616		-19.531250
3617		-9.765625
3618		-23.437500
3619		-13.671875
3620		-27.343750
3621		-17.578125
3622		-31.250000
3623		-21.484375
3624		-33.203125
3625		-25.390625
3626		-37.109375
3627		-31.250000
3628		-41.015625
3629		-35.156250
3630		-46.875000
3631		-37.109375
3632		-48.828125
3633		-41.015625
3634		-52.734375
3635		-42.968750
3636		-56.640625
3637		-46.875000
3638		-58.593750
3639		-50.781250
3640		-62.500000
3641		-52.734375
3642		-62.500000
3643		-58.593750
3644		-64.453125
3645		-60.546875
3646		-70.312500
3647		-62.500000
3648		-72.265625
3649		-64.453125
3650		-74.218750
3651		-66.406250
3652		-76.171875
3653		-68.359375
3654		-76.171875
3655		-70.312500
3656		-78.125000
3657		-72.265625
3658		-80.078125
3659		-72.265625
3660		-78.125000
3661		-76.171875
3662		-80.078125
3663		-76.171875
3664		-82.031250
3665		-76.171875
3666		-82.031250
3667		-76.171875
3668		-83.984375
3669		-76.171875
3670		-82.031250
3671		-76.171875
3672		-82.031250
3673		-76.171875
3674		-82.031250
3675		-76.171875
3676		-80.078125
3677		-76.171875
3678		-78.125000
3679		-76.171875
3680		-78.125000
3681		-72.265625
3682		-78.125000
3683		-70.312500
3684		-78.125000
3685		-68.359375
3686		-76.171875
3687		-68.359375
3688		-74.218750
3689		-66.406250
3690		-72.265625
3691		-64.453125
3692		-70.312500
3693		-62.500000
3694		-64.453125
3695		-60.546875
3696		-62.500000
3697		-56.640625
3698		-62.500000
3699		-52.734375
3700		-58.593750
3701		-50.781250
3702		-54.687500
3703		-46.875000
3704		-52.734375
3705		-44.921875
3706		-48.828125
3707		-41.015625
3708		-46.875000
3709		-39.062500
3710		-41.015625
3711		-35.156250
3712		-37.109375
3713		-31.250000
3714		-35.156250
3715		-25.390625
3716		-31.250000
3717		-23.437500
3718		-27.343750
3719		-17.578125
3720		-23.437500
3721		-13.671875
3722		-19.531250
3723		-9.765625
3724		-15.625000
3725		-7.812500
3726		-9.765625
3727		-3.906250
3728		-5.859375
3729		0.000000
3730		-1.953125
3731		5.859375
3732		0.000000
3733		9.765625
3734		5.859375
3735		13.671875
3736		9.765625
3737		17.578125
3738		11.718750
3739		21.484375
3740		17.578125
3741		25.390625
3742		21.484375
3743		27.343750
3744		27.343750
3745		31.250000
3746		29.296875
3747		37.109375
3748		31.250000
3749		41.015625
3750		35.156250
3751		44.921875
3752		39.062500
3753		46.875000
3754		41.015625
3755		50.781250
3756		44.921875
3757		52.734375
3758		46.875000
3759		56.640625
3760		52.734375
3761		58.593750
3762		56.640625
3763		60.546875
3764		58.593750
3765		64.453125
3766		60.546875
3767		68.359375
3768		62.500000
3769		68.359375
3770		66.406250
3771		70.312500
3772		66.406250
3773		72.265625
3774		70.312500
3775		74.218750
3776		72.265625
3777		76.171875
3778		74.218750
3779		78.125000
3780		74.218750
3781		80.078125
3782		74.218750
3783		82.031250
3784		76.171875
3785		82.031250
3786		78.125000
3787		82.031250
3788		80.078125
3789		83.984375
3790		80.078125
3791		83.984375
3792		80.078125
3793		83.984375
3794		82.031250
3795		83.984375
3796		82.031250
3797		83.984375
3798		80.078125
3799		85.937500
3800		78.125000
3801		85.937500
3802		80.078125
3803		83.984375
3804		80.078125
3805		83.984375
3806		78.125000
3807		82.031250
3808		76.171875
3809		82.031250
3810		76.171875
3811		80.078125
3812		76.171875
3813		78.125000
3814		72.265625
3815		78.125000
3816		70.312500
3817		76.171875
3818		68.359375
3819		76.171875
3820		68.359375
3821		72.265625
3822		66.406250
3823		70.312500
3824		62.500000
3825		68.359375
3826		60.546875
3827		66.406250
3828		58.593750
3829		62.500000
3830		54.687500
3831		60.546875
3832		52.734375
3833		58.593750
3834		48.828125
3835		54.687500
3836		46.875000
3837		50.781250
3838		42.968750
3839		48.828125
3840		39.062500
3841		44.921875
3842		35.156250
3843		41.015625
3844		33.203125
3845		37.109375
3846		29.296875
3847		33.203125
3848		25.390625
3849		31.250000
3850		19.531250
3851		27.343750
3852		17.578125
3853		23.437500
3854		13.671875
3855		19.531250
3856		9.765625
3857		13.671875
3858		5.859375
3859		9.765625
3860		0.000000
3861		7.812500
3862		-3.906250
3863		1.953125
3864		-7.812500
3865		-1.953125
3866		-11.718750
3867		-5.859375
3868		-15.625000
3869		-9.765625
3870		-19.531250
3871		-13.671875
3872		-23.437500
3873		-17.578125
3874		-27.343750
3875		-21.484375
3876		-31.250000
3877		-25.390625
3878		-35.156250
3879		-29.296875
3880		-39.062500
3881		-33.203125
3882		-41.015625
3883		-37.109375
3884		-44.921875
3885		-39.062500
3886		-48.828125
3887		-44.921875
3888		-52.734375
3889		-46.875000
3890		-56.640625
3891		-50.781250
3892		-58.593750
3893		-54.687500
3894		-60.546875
3895		-56.640625
3896		-64.453125
3897		-60.546875
3898		-66.406250
3899		-62.500000
3900		-68.359375
3901		-64.453125
3902		-70.312500
3903		-66.406250
3904		-72.265625
3905		-68.359375
3906		-74.218750
3907		-70.312500
3908		-76.171875
3909		-72.265625
3910		-78.125000
3911		-74.218750
3912		-78.125000
3913		-76.171875
3914		-80.078125
3915		-76.171875
3916		-80.078125
3917		-76.171875
3918		-82.031250
3919		-78.125000
3920		-82.031250
3921		-78.125000
3922		-82.031250
3923		-78.125000
3924		-82.031250
3925		-78.125000
3926		-82.031250
3927		-78.125000
3928		-80.078125
3929		-78.125000
3930		-80.078125
3931		-76.171875
3932		-78.125000
3933		-76.171875
3934		-78.125000
3935		-74.218750
3936		-76.171875
3937		-72.265625
3938		-74.218750
3939		-70.312500
3940		-74.218750
3941		-70.312500
3942		-72.265625
3943		-68.359375
3944		-70.312500
3945		-66.406250
3946		-66.406250
3947		-62.500000
3948		-64.453125
3949		-60.546875
3950		-62.500000
3951		-58.593750
3952		-60.546875
3953		-54.687500
3954		-56.640625
3955		-50.781250
3956		-52.734375
3957		-48.828125
3958		-50.781250
3959		-44.921875
3960		-46.875000
3961		-41.015625
3962		-42.968750
3963		-39.062500
3964		-39.062500
3965		-35.156250
3966		-37.109375
3967		-31.250000
3968		-31.250000
3969		-27.343750
3970		-29.296875
3971		-23.437500
3972		-25.390625
3973		-19.531250
3974		-21.484375
3975		-13.671875
3976		-17.578125
3977		-9.765625
3978		-11.718750
3979		-7.812500
3980		-7.812500
3981		-3.906250
3982		-3.906250
3983		0.000000
3984		-1.953125
3985		5.859375
3986		3.906250
3987		9.765625
3988		7.812500
3989		13.671875
3990		11.718750
3991		17.578125
3992		15.625000
3993		21.484375
3994		19.531250
3995		25.390625
3996		23.437500
3997		29.296875
3998		27.343750
3999		33.203125
4000		31.250000
4001		37.109375
4002		35.156250
4003		39.062500
4004		37.109375
4005		42.968750
4006		41.015625
4007		46.875000
4008		44.921875
4009		48.828125
4010		46.875000
4011		52.734375
4012		50.781250
4013		54.687500
4014		54.687500
4015		58.593750
4016		56.640625
4017		62.500000
4018		60.546875
4019		64.453125
4020		62.500000
4021		66.406250
4022		64.453125
4023		68.359375
4024		66.406250
4025		70.312500
4026		68.359375
4027		72.265625
4028		70.312500
4029		74.218750
4030		72.265625
4031		76.171875
4032		74.218750
4033		78.125000
4034		76.171875
4035		78.125000
4036		76.171875
4037		80.078125
4038		78.125000
4039		82.031250
4040		80.078125
4041		82.031250
4042		80.078125
4043		83.984375
4044		80.078125
4045		83.984375
4046		82.031250
4047		83.984375
4048		82.031250
4049		83.984375
4050		80.078125
4051		83.984375
4052		82.031250
4053		83.984375
4054		80.078125
4055		83.984375
4056		80.078125
4057		83.984375
4058		80.078125
4059		82.031250
4060		78.125000
4061		82.031250
4062		78.125000
4063		82.031250
4064		76.171875
4065		80.078125
4066		74.218750
4067		78.125000
4068		74.218750
4069		78.125000
4070		72.265625
4071		76.171875
4072		70.312500
4073		74.218750
4074		68.359375
4075		70.312500
4076		64.453125
4077		70.312500
4078		62.500000
4079		68.359375
4080		60.546875
4081		64.453125
4082		56.640625
4083		62.500000
4084		54.687500
4085		58.593750
4086		50.781250
4087		56.640625
4088		48.828125
4089		54.687500
4090		44.921875
4091		50.781250
4092		41.015625
4093		46.875000
4094		39.062500
4095		42.968750
4096		35.156250
4097		39.062500
4098		31.250000
4099		37.109375
4100		27.343750
4101		33.203125
4102		23.437500
4103		29.296875
4104		19.531250
4105		25.390625
4106		15.625000
4107		21.484375
4108		11.718750
4109		17.578125
4110		7.812500
4111		13.671875
4112		3.906250
4113		9.765625
4114		0.000000
4115		3.906250
4116		-5.859375
4117		1.953125
4118		-7.812500
4119		-3.906250
4120		-11.718750
4121		-5.859375
4122		-15.625000
4123		-11.718750
4124		-21.484375
4125		-15.625000
4126		-25.390625
4127		-19.531250
4128		-29.296875
4129		-23.437500
4130		-31.250000
4131		-27.343750
4132		-37.109375
4133		-31.250000
4134		-41.015625
4135		-33.203125
4136		-42.968750
4137		-37.109375
4138		-46.875000
4139		-41.015625
4140		-50.781250
4141		-44.921875
4142		-52.734375
4143		-48.828125
4144		-56.640625
4145		-50.781250
4146		-60.546875
4147		-54.687500
4148		-62.500000
4149		-56.640625
4150		-64.453125
4151		-60.546875
4152		-66.406250
4153		-62.500000
4154		-70.312500
4155		-66.406250
4156		-72.265625
4157		-68.359375
4158		-72.265625
4159		-70.312500
4160		-74.218750
4161		-72.265625
4162		-76.171875
4163		-74.218750
4164		-78.125000
4165		-74.218750
4166		-80.078125
4167		-76.171875
4168		-80.078125
4169		-76.171875
4170		-80.078125
4171		-78.125000
4172		-82.031250
4173		-78.125000
4174		-82.031250
4175		-78.125000
4176		-82.031250
4177		-78.125000
4178		-82.031250
4179		-78.125000
4180		-80.078125
4181		-78.125000
4182		-80.078125
4183		-78.125000
4184		-80.078125
4185		-76.171875
4186		-78.125000
4187		-74.218750
4188		-78.125000
4189		-74.218750
4190		-76.171875
4191		-72.265625
4192		-74.218750
4193		-70.312500
4194		-72.265625
4195		-68.359375
4196		-72.265625
4197		-66.406250
4198		-68.359375
4199		-64.453125
4200		-66.406250
4201		-62.500000
4202		-64.453125
4203		-58.593750
4204		-60.546875
4205		-56.640625
4206		-58.593750
4207		-54.687500
4208		-56.640625
4209		-50.781250
4210		-52.734375
4211		-46.875000
4212		-48.828125
4213		-44.921875
4214		-44.921875
4215		-41.015625
4216		-42.968750
4217		-37.109375
4218		-39.062500
4219		-33.203125
4220		-35.156250
4221		-29.296875
4222		-31.250000
4223		-25.390625
4224		-27.343750
4225		-21.484375
4226		-23.437500
4227		-17.578125
4228		-19.531250
4229		-13.671875
4230		-15.625000
4231		-9.765625
4232		-11.718750
4233		-5.859375
4234		-7.812500
4235		-1.953125
4236		-3.906250
4237		3.906250
4238		0.000000
4239		5.859375
4240		3.906250
4241		9.765625
4242		9.765625
4243		13.671875
4244		11.718750
4245		17.578125
4246		17.578125
4247		21.484375
4248		21.484375
4249		25.390625
4250		25.390625
4251		31.250000
4252		29.296875
4253		33.203125
4254		33.203125
4255		37.109375
4256		35.156250
4257		41.015625
4258		39.062500
4259		44.921875
4260		42.968750
4261		46.875000
4262		46.875000
4263		50.781250
4264		48.828125
4265		54.687500
4266		50.781250
4267		56.640625
4268		54.687500
4269		60.546875
4270		58.593750
4271		62.500000
4272		60.546875
4273		64.453125
4274		62.500000
4275		66.406250
4276		64.453125
4277		70.312500
4278		68.359375
4279		70.312500
4280		68.359375
4281		72.265625
4282		72.265625
4283		74.218750
4284		74.218750
4285		78.125000
4286		74.218750
4287		78.125000
4288		76.171875
4289		80.078125
4290		78.125000
4291		80.078125
4292		78.125000
4293		82.031250
4294		80.078125
4295		82.031250
4296		80.078125
4297		83.984375
4298		80.078125
4299		83.984375
4300		82.031250
4301		83.984375
4302		80.078125
4303		83.984375
4304		80.078125
4305		83.984375
4306		80.078125
4307		83.984375
4308		80.078125
4309		83.984375
4310		80.078125
4311		83.984375
4312		78.125000
4313		82.031250
4314		78.125000
4315		82.031250
4316		76.171875
4317		80.078125
4318		76.171875
4319		78.125000
4320		74.218750
4321		78.125000
4322		72.265625
4323		76.171875
4324		70.312500
4325		74.218750
4326		68.359375
4327		72.265625
4328		66.406250
4329		70.312500
4330		64.453125
4331		68.359375
4332		60.546875
4333		66.406250
4334		58.593750
4335		62.500000
4336		56.640625
4337		60.546875
4338		52.734375
4339		56.640625
4340		50.781250
4341		54.687500
4342		46.875000
4343		50.781250
4344		42.968750
4345		48.828125
4346		39.062500
4347		44.921875
4348		37.109375
4349		41.015625
4350		33.203125
4351		39.062500
4352		29.296875
4353		35.156250
4354		25.390625
4355		31.250000
4356		21.484375
4357		27.343750
4358		17.578125
4359		23.437500
4360		13.671875
4361		19.531250
4362		9.765625
4363		15.625000
4364		5.859375
4365		11.718750
4366		1.953125
4367		7.812500
4368		-3.906250
4369		3.906250
4370		-5.859375
4371		0.000000
4372		-9.765625
4373		-3.906250
4374		-13.671875
4375		-9.765625
4376		-19.531250
4377		-13.671875
4378		-21.484375
4379		-17.578125
4380		-27.343750
4381		-21.484375
4382		-31.250000
4383		-25.390625
4384		-35.156250
4385		-29.296875
4386		-37.109375
4387		-31.250000
4388		-41.015625
4389		-35.156250
4390		-44.921875
4391		-41.015625
4392		-48.828125
4393		-42.968750
4394		-50.781250
4395		-46.875000
4396		-54.687500
4397		-50.781250
4398		-58.593750
4399		-52.734375
4400		-60.546875
4401		-56.640625
4402		-64.453125
4403		-58.593750
4404		-66.406250
4405		-62.500000
4406		-68.359375
4407		-64.453125
4408		-70.312500
4409		-66.406250
4410		-72.265625
4411		-68.359375
4412		-74.218750
4413		-70.312500
4414		-76.171875
4415		-72.265625
4416		-78.125000
4417		-74.218750
4418		-78.125000
4419		-76.171875
4420		-80.078125
4421		-76.171875
4422		-80.078125
4423		-78.125000
4424		-82.031250
4425		-78.125000
4426		-82.031250
4427		-78.125000
4428		-82.031250
4429		-78.125000
4430		-82.031250
4431		-78.125000
4432		-82.031250
4433		-80.078125
4434		-82.031250
4435		-78.125000
4436		-82.031250
4437		-78.125000
4438		-80.078125
4439		-76.171875
4440		-78.125000
4441		-74.218750
4442		-78.125000
4443		-74.218750
4444		-76.171875
4445		-72.265625
4446		-74.218750
4447		-70.312500
4448		-72.265625
4449		-68.359375
4450		-70.312500
4451		-66.406250
4452		-70.312500
4453		-64.453125
4454		-66.406250
4455		-62.500000
4456		-64.453125
4457		-58.593750
4458		-60.546875
4459		-56.640625
4460		-58.593750
4461		-52.734375
4462		-54.687500
4463		-50.781250
4464		-52.734375
4465		-46.875000
4466		-48.828125
4467		-42.968750
4468		-44.921875
4469		-39.062500
4470		-41.015625
4471		-37.109375
4472		-37.109375
4473		-31.250000
4474		-35.156250
4475		-29.296875
4476		-31.250000
4477		-25.390625
4478		-27.343750
4479		-21.484375
4480		-23.437500
4481		-15.625000
4482		-19.531250
4483		-13.671875
4484		-15.625000
4485		-9.765625
4486		-9.765625
4487		-5.859375
4488		-5.859375
4489		0.000000
4490		-1.953125
4491		3.906250
4492		1.953125
4493		7.812500
4494		5.859375
4495		11.718750
4496		9.765625
4497		15.625000
4498		13.671875
4499		19.531250
4500		17.578125
4501		23.437500
4502		21.484375
4503		27.343750
4504		23.437500
4505		31.250000
4506		29.296875
4507		35.156250
4508		33.203125
4509		37.109375
4510		37.109375
4511		41.015625
4512		39.062500
4513		44.921875
4514		42.968750
4515		48.828125
4516		46.875000
4517		50.781250
4518		48.828125
4519		54.687500
4520		52.734375
4521		56.640625
4522		54.687500
4523		60.546875
4524		58.593750
4525		62.500000
4526		60.546875
4527		64.453125
4528		62.500000
4529		68.359375
4530		64.453125
4531		70.312500
4532		68.359375
4533		72.265625
4534		70.312500
4535		74.218750
4536		72.265625
4537		76.171875
4538		72.265625
4539		76.171875
4540		74.218750
4541		78.125000
4542		76.171875
4543		80.078125
4544		78.125000
4545		80.078125
4546		78.125000
4547		82.031250
4548		78.125000
4549		82.031250
4550		80.078125
4551		82.031250
4552		80.078125
4553		83.984375
4554		80.078125
4555		83.984375
4556		80.078125
4557		83.984375
4558		80.078125
4559		83.984375
4560		80.078125
4561		83.984375
4562		80.078125
4563		82.031250
4564		78.125000
4565		82.031250
4566		78.125000
4567		82.031250
4568		76.171875
4569		80.078125
4570		76.171875
4571		80.078125
4572		74.218750
4573		78.125000
4574		72.265625
4575		76.171875
4576		70.312500
4577		76.171875
4578		70.312500
4579		72.265625
4580		66.406250
4581		70.312500
4582		64.453125
4583		68.359375
4584		62.500000
4585		66.406250
4586		60.546875
4587		64.453125
4588		56.640625
4589		62.500000
4590		54.687500
4591		58.593750
4592		50.781250
4593		56.640625
4594		48.828125
4595		52.734375
4596		44.921875
4597		50.781250
4598		41.015625
4599		46.875000
4600		39.062500
4601		42.968750
4602		35.156250
4603		39.062500
4604		31.250000
4605		37.109375
4606		27.343750
4607		33.203125
4608		23.437500
4609		29.296875
4610		19.531250
4611		25.390625
4612		15.625000
4613		21.484375
4614		11.718750
4615		17.578125
4616		7.812500
4617		13.671875
4618		3.906250
4619		9.765625
4620		0.000000
4621		5.859375
4622		-5.859375
4623		1.953125
4624		-7.812500
4625		-3.906250
4626		-11.718750
4627		-5.859375
4628		-17.578125
4629		-11.718750
4630		-21.484375
4631		-15.625000
4632		-25.390625
4633		-19.531250
4634		-29.296875
4635		-23.437500
4636		-31.250000
4637		-27.343750
4638		-35.156250
4639		-31.250000
4640		-39.062500
4641		-35.156250
4642		-44.921875
4643		-37.109375
4644		-46.875000
4645		-41.015625
4646		-50.781250
4647		-44.921875
4648		-52.734375
4649		-48.828125
4650		-56.640625
4651		-50.781250
4652		-58.593750
4653		-54.687500
4654		-62.500000
4655		-58.593750
4656		-64.453125
4657		-60.546875
4658		-68.359375
4659		-62.500000
4660		-70.312500
4661		-66.406250
4662		-72.265625
4663		-68.359375
4664		-74.218750
4665		-70.312500
4666		-76.171875
4667		-72.265625
4668		-76.171875
4669		-74.218750
4670		-78.125000
4671		-76.171875
4672		-80.078125
4673		-76.171875
4674		-80.078125
4675		-78.125000
4676		-82.031250
4677		-78.125000
4678		-82.031250
4679		-80.078125
4680		-82.031250
4681		-80.078125
4682		-83.984375
4683		-80.078125
4684		-83.984375
4685		-80.078125
4686		-82.031250
4687		-80.078125
4688		-82.031250
4689		-78.125000
4690		-82.031250
4691		-78.125000
4692		-80.078125
4693		-78.125000
4694		-80.078125
4695		-76.171875
4696		-78.125000
4697		-74.218750
4698		-76.171875
4699		-72.265625
4700		-74.218750
4701		-70.312500
4702		-72.265625
4703		-68.359375
4704		-70.312500
4705		-66.406250
4706		-68.359375
4707		-64.453125
4708		-66.406250
4709		-62.500000
4710		-64.453125
4711		-58.593750
4712		-60.546875
4713		-56.640625
4714		-58.593750
4715		-52.734375
4716		-54.687500
4717		-48.828125
4718		-50.781250
4719		-46.875000
4720		-46.875000
4721		-42.968750
4722		-44.921875
4723		-39.062500
4724		-41.015625
4725		-35.156250
4726		-37.109375
4727		-31.250000
4728		-33.203125
4729		-29.296875
4730		-29.296875
4731		-23.437500
4732		-25.390625
4733		-19.531250
4734		-23.437500
4735		-15.625000
4736		-17.578125
4737		-11.718750
4738		-13.671875
4739		-7.812500
4740		-9.765625
4741		-3.906250
4742		-5.859375
4743		0.000000
4744		-1.953125
4745		3.906250
4746		1.953125
4747		7.812500
4748		5.859375
4749		13.671875
4750		9.765625
4751		15.625000
4752		15.625000
4753		19.531250
4754		19.531250
4755		23.437500
4756		21.484375
4757		27.343750
4758		25.390625
4759		31.250000
4760		29.296875
4761		35.156250
4762		33.203125
4763		39.062500
4764		37.109375
4765		41.015625
4766		39.062500
4767		44.921875
4768		42.968750
4769		48.828125
4770		46.875000
4771		52.734375
4772		50.781250
4773		54.687500
4774		52.734375
4775		58.593750
4776		56.640625
4777		60.546875
4778		58.593750
4779		62.500000
4780		60.546875
4781		64.453125
4782		64.453125
4783		68.359375
4784		66.406250
4785		70.312500
4786		68.359375
4787		72.265625
4788		70.312500
4789		74.218750
4790		72.265625
4791		76.171875
4792		74.218750
4793		76.171875
4794		74.218750
4795		78.125000
4796		76.171875
4797		80.078125
4798		76.171875
4799		80.078125
4800		78.125000
4801		82.031250
4802		78.125000
4803		82.031250
4804		80.078125
4805		82.031250
4806		80.078125
4807		83.984375
4808		80.078125
4809		83.984375
4810		80.078125
4811		83.984375
4812		80.078125
4813		82.031250
4814		80.078125
4815		82.031250
4816		78.125000
4817		82.031250
4818		78.125000
4819		82.031250
4820		78.125000
4821		80.078125
4822		76.171875
4823		80.078125
4824		74.218750
4825		78.125000
4826		74.218750
4827		78.125000
4828		72.265625
4829		76.171875
4830		70.312500
4831		74.218750
4832		68.359375
4833		72.265625
4834		66.406250
4835		70.312500
4836		64.453125
4837		68.359375
4838		62.500000
4839		66.406250
4840		58.593750
4841		64.453125
4842		56.640625
4843		60.546875
4844		52.734375
4845		58.593750
4846		50.781250
4847		54.687500
4848		46.875000
4849		52.734375
4850		44.921875
4851		48.828125
4852		41.015625
4853		46.875000
4854		37.109375
4855		41.015625
4856		33.203125
4857		39.062500
4858		29.296875
4859		35.156250
4860		27.343750
4861		31.250000
4862		23.437500
4863		27.343750
4864		17.578125
4865		23.437500
4866		13.671875
4867		19.531250
4868		9.765625
4869		15.625000
4870		5.859375
4871		11.718750
4872		1.953125
4873		7.812500
4874		-1.953125
4875		3.906250
4876		-5.859375
4877		0.000000
4878		-9.765625
4879		-3.906250
4880		-13.671875
4881		-7.812500
4882		-17.578125
4883		-11.718750
4884		-23.437500
4885		-17.578125
4886		-25.390625
4887		-21.484375
4888		-29.296875
4889		-25.390625
4890		-35.156250
4891		-29.296875
4892		-39.062500
4893		-31.250000
4894		-41.015625
4895		-35.156250
4896		-44.921875
4897		-39.062500
4898		-48.828125
4899		-42.968750
4900		-50.781250
4901		-46.875000
4902		-54.687500
4903		-48.828125
4904		-58.593750
4905		-52.734375
4906		-60.546875
4907		-56.640625
4908		-62.500000
4909		-58.593750
4910		-66.406250
4911		-62.500000
4912		-68.359375
4913		-64.453125
4914		-70.312500
4915		-66.406250
4916		-72.265625
4917		-68.359375
4918		-74.218750
4919		-70.312500
4920		-76.171875
4921		-72.265625
4922		-78.125000
4923		-74.218750
4924		-80.078125
4925		-74.218750
4926		-80.078125
4927		-76.171875
4928		-82.031250
4929		-78.125000
4930		-82.031250
4931		-78.125000
4932		-82.031250
4933		-80.078125
4934		-82.031250
4935		-80.078125
4936		-82.031250
4937		-80.078125
4938		-82.031250
4939		-80.078125
4940		-82.031250
4941		-78.125000
4942		-82.031250
4943		-78.125000
4944		-80.078125
4945		-78.125000
4946		-80.078125
4947		-76.171875
4948		-78.125000
4949		-76.171875
4950		-78.125000
4951		-72.265625
4952		-76.171875
4953		-72.265625
4954		-74.218750
4955		-70.312500
4956		-72.265625
4957		-66.406250
4958		-70.312500
4959		-64.453125
4960		-66.406250
4961		-62.500000
4962		-66.406250
4963		-60.546875
4964		-62.500000
4965		-58.593750
4966		-60.546875
4967		-54.687500
4968		-56.640625
4969		-50.781250
4970		-52.734375
4971		-48.828125
4972		-50.781250
4973		-44.921875
4974		-46.875000
4975		-41.015625
4976		-42.968750
4977		-37.109375
4978		-39.062500
4979		-33.203125
4980		-35.156250
4981		-31.250000
4982		-31.250000
4983		-25.390625
4984		-29.296875
4985		-23.437500
4986		-23.437500
4987		-19.531250
4988		-19.531250
4989		-15.625000
4990		-15.625000
4991		-9.765625
4992		-11.718750
4993		-5.859375
4994		-7.812500
4995		-1.953125
4996		-3.906250
4997		1.953125
4998		0.000000
4999		5.859375
5000		3.906250
5001		9.765625
5002		7.812500
5003		13.671875
5004		11.718750
5005		17.578125
5006		15.625000
5007		21.484375
5008		19.531250
5009		27.343750
5010		23.437500
5011		29.296875
5012		27.343750
5013		33.203125
5014		31.250000
5015		37.109375
5016		35.156250
5017		39.062500
5018		39.062500
5019		42.968750
5020		41.015625
5021		46.875000
5022		44.921875
5023		50.781250
5024		48.828125
5025		52.734375
5026		50.781250
5027		56.640625
5028		54.687500
5029		58.593750
5030		56.640625
5031		62.500000
5032		60.546875
5033		64.453125
5034		62.500000
5035		66.406250
5036		64.453125
5037		68.359375
5038		66.406250
5039		70.312500
5040		68.359375
5041		74.218750
5042		70.312500
5043		74.218750
5044		72.265625
5045		76.171875
5046		74.218750
5047		78.125000
5048		76.171875
5049		78.125000
5050		76.171875
5051		80.078125
5052		78.125000
5053		82.031250
5054		78.125000
5055		82.031250
5056		78.125000
5057		82.031250
5058		80.078125
5059		82.031250
5060		80.078125
5061		83.984375
5062		80.078125
5063		83.984375
5064		80.078125
5065		82.031250
5066		80.078125
5067		82.031250
5068		80.078125
5069		82.031250
5070		78.125000
5071		82.031250
5072		78.125000
5073		80.078125
5074		76.171875
5075		80.078125
5076		76.171875
5077		80.078125
5078		74.218750
5079		78.125000
5080		74.218750
5081		76.171875
5082		70.312500
5083		74.218750
5084		70.312500
5085		72.265625
5086		66.406250
5087		72.265625
5088		66.406250
5089		70.312500
5090		62.500000
5091		66.406250
5092		60.546875
5093		66.406250
5094		56.640625
5095		62.500000
5096		54.687500
5097		60.546875
5098		52.734375
5099		56.640625
5100		48.828125
5101		52.734375
5102		44.921875
5103		50.781250
5104		42.968750
5105		48.828125
5106		39.062500
5107		44.921875
5108		35.156250
5109		41.015625
5110		31.250000
5111		37.109375
5112		29.296875
5113		33.203125
5114		23.437500
5115		29.296875
5116		19.531250
5117		25.390625
5118		15.625000
5119		21.484375
5120		13.671875
5121		17.578125
5122		9.765625
5123		13.671875
5124		3.906250
5125		9.765625
5126		0.000000
5127		5.859375
5128		-3.906250
5129		1.953125
5130		-7.812500
5131		-1.953125
5132		-11.718750
5133		-5.859375
5134		-15.625000
5135		-9.765625
5136		-19.531250
5137		-13.671875
5138		-23.437500
5139		-17.578125
5140		-27.343750
5141		-21.484375
5142		-31.250000
5143		-25.390625
5144		-35.156250
5145		-29.296875
5146		-39.062500
5147		-33.203125
5148		-42.968750
5149		-37.109375
5150		-46.875000
5151		-41.015625
5152		-50.781250
5153		-44.921875
5154		-52.734375
5155		-48.828125
5156		-56.640625
5157		-50.781250
5158		-58.593750
5159		-54.687500
5160		-62.500000
5161		-56.640625
5162		-64.453125
5163		-60.546875
5164		-68.359375
5165		-62.500000
5166		-70.312500
5167		-66.406250
5168		-72.265625
5169		-68.359375
5170		-74.218750
5171		-70.312500
5172		-76.171875
5173		-72.265625
5174		-78.125000
5175		-74.218750
5176		-80.078125
5177		-74.218750
5178		-80.078125
5179		-76.171875
5180		-80.078125
5181		-78.125000
5182		-82.031250
5183		-78.125000
5184		-82.031250
5185		-80.078125
5186		-82.031250
5187		-80.078125
5188		-83.984375
5189		-80.078125
5190		-82.031250
5191		-80.078125
5192		-82.031250
5193		-80.078125
5194		-82.031250
5195		-80.078125
5196		-82.031250
5197		-78.125000
5198		-82.031250
5199		-78.125000
5200		-80.078125
5201		-76.171875
5202		-78.125000
5203		-74.218750
5204		-76.171875
5205		-72.265625
5206		-74.218750
5207		-72.265625
5208		-74.218750
5209		-70.312500
5210		-72.265625
5211		-68.359375
5212		-70.312500
5213		-64.453125
5214		-66.406250
5215		-62.500000
5216		-64.453125
5217		-60.546875
5218		-62.500000
5219		-56.640625
5220		-58.593750
5221		-52.734375
5222		-56.640625
5223		-50.781250
5224		-52.734375
5225		-46.875000
5226		-48.828125
5227		-44.921875
5228		-46.875000
5229		-41.015625
5230		-42.968750
5231		-37.109375
5232		-39.062500
5233		-33.203125
5234		-35.156250
5235		-29.296875
5236		-31.250000
5237		-25.390625
5238		-27.343750
5239		-21.484375
5240		-23.437500
5241		-17.578125
5242		-19.531250
5243		-13.671875
5244		-15.625000
5245		-9.765625
5246		-11.718750
5247		-5.859375
5248		-7.812500
5249		-1.953125
5250		-3.906250
5251		1.953125
5252		1.953125
5253		5.859375
5254		5.859375
5255		11.718750
5256		9.765625
5257		15.625000
5258		13.671875
5259		17.578125
5260		17.578125
5261		23.437500
5262		21.484375
5263		27.343750
5264		25.390625
5265		31.250000
5266		29.296875
5267		33.203125
5268		31.250000
5269		37.109375
5270		35.156250
5271		41.015625
5272		39.062500
5273		44.921875
5274		42.968750
5275		46.875000
5276		46.875000
5277		50.781250
5278		48.828125
5279		52.734375
5280		50.781250
5281		56.640625
5282		54.687500
5283		58.593750
5284		58.593750
5285		62.500000
5286		60.546875
5287		64.453125
5288		62.500000
5289		66.406250
5290		64.453125
5291		68.359375
5292		66.406250
5293		72.265625
5294		68.359375
5295		72.265625
5296		70.312500
5297		74.218750
5298		72.265625
5299		76.171875
5300		74.218750
5301		78.125000
5302		76.171875
5303		80.078125
5304		76.171875
5305		80.078125
5306		76.171875
5307		80.078125
5308		78.125000
5309		82.031250
5310		80.078125
5311		82.031250
5312		80.078125
5313		82.031250
5314		80.078125
5315		82.031250
5316		80.078125
5317		83.984375
5318		80.078125
5319		83.984375
5320		80.078125
5321		82.031250
5322		78.125000
5323		82.031250
5324		78.125000
5325		82.031250
5326		76.171875
5327		80.078125
5328		76.171875
5329		80.078125
5330		76.171875
5331		78.125000
5332		74.218750
5333		78.125000
5334		72.265625
5335		76.171875
5336		70.312500
5337		74.218750
5338		66.406250
5339		72.265625
5340		66.406250
5341		70.312500
5342		64.453125
5343		68.359375
5344		62.500000
5345		66.406250
5346		58.593750
5347		64.453125
5348		56.640625
5349		60.546875
5350		54.687500
5351		58.593750
5352		50.781250
5353		56.640625
5354		48.828125
5355		52.734375
5356		44.921875
5357		48.828125
5358		41.015625
5359		46.875000
5360		37.109375
5361		42.968750
5362		33.203125
5363		39.062500
5364		31.250000
5365		35.156250
5366		27.343750
5367		31.250000
5368		23.437500
5369		29.296875
5370		19.531250
5371		25.390625
5372		15.625000
5373		21.484375
5374		11.718750
5375		17.578125
5376		7.812500
5377		13.671875
5378		3.906250
5379		9.765625
5380		-1.953125
5381		3.906250
5382		-5.859375
5383		0.000000
5384		-9.765625
5385		-3.906250
5386		-13.671875
5387		-7.812500
5388		-17.578125
5389		-9.765625
5390		-21.484375
5391		-15.625000
5392		-25.390625
5393		-19.531250
5394		-29.296875
5395		-23.437500
5396		-33.203125
5397		-27.343750
5398		-37.109375
5399		-31.250000
5400		-41.015625
5401		-35.156250
5402		-44.921875
5403		-39.062500
5404		-46.875000
5405		-42.968750
5406		-50.781250
5407		-46.875000
5408		-54.687500
5409		-48.828125
5410		-58.593750
5411		-52.734375
5412		-60.546875
5413		-54.687500
5414		-62.500000
5415		-58.593750
5416		-66.406250
5417		-60.546875
5418		-68.359375
5419		-64.453125
5420		-70.312500
5421		-66.406250
5422		-72.265625
5423		-68.359375
5424		-74.218750
5425		-70.312500
5426		-76.171875
5427		-72.265625
5428		-78.125000
5429		-74.218750
5430		-80.078125
5431		-76.171875
5432		-80.078125
5433		-76.171875
5434		-82.031250
5435		-78.125000
5436		-82.031250
5437		-78.125000
5438		-82.031250
5439		-80.078125
5440		-83.984375
5441		-80.078125
5442		-82.031250
5443		-80.078125
5444		-82.031250
5445		-80.078125
5446		-82.031250
5447		-80.078125
5448		-82.031250
5449		-78.125000
5450		-82.031250
5451		-78.125000
5452		-80.078125
5453		-78.125000
5454		-80.078125
5455		-76.171875
5456		-78.125000
5457		-74.218750
5458		-76.171875
5459		-72.265625
5460		-74.218750
5461		-70.312500
5462		-72.265625
5463		-68.359375
5464		-70.312500
5465		-66.406250
5466		-68.359375
5467		-64.453125
5468		-66.406250
5469		-60.546875
5470		-64.453125
5471		-58.593750
5472		-60.546875
5473		-56.640625
5474		-58.593750
5475		-52.734375
5476		-54.687500
5477		-48.828125
5478		-50.781250
5479		-46.875000
5480		-48.828125
5481		-41.015625
5482		-44.921875
5483		-39.062500
5484		-41.015625
5485		-35.156250
5486		-37.109375
5487		-31.250000
5488		-33.203125
5489		-27.343750
5490		-29.296875
5491		-23.437500
5492		-25.390625
5493		-21.484375
5494		-21.484375
5495		-15.625000
5496		-17.578125
5497		-11.718750
5498		-13.671875
5499		-7.812500
5500		-9.765625
5501		-3.906250
5502		-5.859375
5503		0.000000
5504		-1.953125
5505		3.906250
5506		1.953125
5507		7.812500
5508		5.859375
5509		11.718750
5510		11.718750
5511		15.625000
5512		13.671875
5513		21.484375
5514		17.578125
5515		23.437500
5516		21.484375
5517		27.343750
5518		25.390625
5519		31.250000
5520		29.296875
5521		35.156250
5522		33.203125
5523		39.062500
5524		37.109375
5525		41.015625
5526		41.015625
5527		44.921875
5528		42.968750
5529		48.828125
5530		46.875000
5531		50.781250
5532		50.781250
5533		54.687500
5534		52.734375
5535		56.640625
5536		56.640625
5537		60.546875
5538		58.593750
5539		62.500000
5540		60.546875
5541		66.406250
5542		64.453125
5543		68.359375
5544		66.406250
5545		70.312500
5546		66.406250
5547		72.265625
5548		70.312500
5549		74.218750
5550		72.265625
5551		76.171875
5552		74.218750
5553		76.171875
5554		74.218750
5555		78.125000
5556		76.171875
5557		80.078125
5558		76.171875
5559		80.078125
5560		78.125000
5561		80.078125
5562		78.125000
5563		82.031250
5564		80.078125
5565		82.031250
5566		80.078125
5567		82.031250
5568		80.078125
5569		82.031250
5570		80.078125
5571		83.984375
5572		80.078125
5573		82.031250
5574		78.125000
5575		82.031250
5576		80.078125
5577		82.031250
5578		78.125000
5579		82.031250
5580		76.171875
5581		80.078125
5582		76.171875
5583		80.078125
5584		74.218750
5585		78.125000
5586		74.218750
5587		76.171875
5588		72.265625
5589		76.171875
5590		68.359375
5591		74.218750
5592		68.359375
5593		72.265625
5594		66.406250
5595		70.312500
5596		62.500000
5597		68.359375
5598		60.546875
5599		64.453125
5600		58.593750
5601		62.500000
5602		56.640625
5603		60.546875
5604		52.734375
5605		58.593750
5606		50.781250
5607		54.687500
5608		46.875000
5609		50.781250
5610		42.968750
5611		48.828125
5612		39.062500
5613		44.921875
5614		37.109375
5615		42.968750
5616		33.203125
5617		39.062500
5618		29.296875
5619		35.156250
5620		25.390625
5621		31.250000
5622		21.484375
5623		27.343750
5624		17.578125
5625		23.437500
5626		13.671875
5627		19.531250
5628		9.765625
5629		15.625000
5630		5.859375
5631		11.718750
5632		0.000000
5633		7.812500
5634		-1.953125
5635		3.906250
5636		-5.859375
5637		-1.953125
5638		-9.765625
5639		-5.859375
5640		-15.625000
5641		-9.765625
5642		-17.578125
5643		-11.718750
5644		-23.437500
5645		-17.578125
5646		-27.343750
5647		-21.484375
5648		-31.250000
5649		-25.390625
5650		-35.156250
5651		-29.296875
5652		-39.062500
5653		-33.203125
5654		-41.015625
5655		-37.109375
5656		-44.921875
5657		-41.015625
5658		-48.828125
5659		-42.968750
5660		-52.734375
5661		-46.875000
5662		-54.687500
5663		-50.781250
5664		-58.593750
5665		-52.734375
5666		-62.500000
5667		-56.640625
5668		-64.453125
5669		-58.593750
5670		-66.406250
5671		-62.500000
5672		-70.312500
5673		-64.453125
5674		-72.265625
5675		-66.406250
5676		-72.265625
5677		-70.312500
5678		-74.218750
5679		-72.265625
5680		-78.125000
5681		-72.265625
5682		-78.125000
5683		-74.218750
5684		-80.078125
5685		-76.171875
5686		-80.078125
5687		-78.125000
5688		-82.031250
5689		-78.125000
5690		-82.031250
5691		-80.078125
5692		-82.031250
5693		-80.078125
5694		-82.031250
5695		-80.078125
5696		-83.984375
5697		-80.078125
5698		-82.031250
5699		-80.078125
5700		-82.031250
5701		-78.125000
5702		-82.031250
5703		-78.125000
5704		-82.031250
5705		-76.171875
5706		-80.078125
5707		-76.171875
5708		-80.078125
5709		-76.171875
5710		-78.125000
5711		-74.218750
5712		-76.171875
5713		-72.265625
5714		-74.218750
5715		-70.312500
5716		-72.265625
5717		-68.359375
5718		-70.312500
5719		-66.406250
5720		-68.359375
5721		-62.500000
5722		-64.453125
5723		-60.546875
5724		-64.453125
5725		-56.640625
5726		-60.546875
5727		-54.687500
5728		-56.640625
5729		-52.734375
5730		-52.734375
5731		-48.828125
5732		-50.781250
5733		-44.921875
5734		-46.875000
5735		-41.015625
5736		-44.921875
5737		-37.109375
5738		-39.062500
5739		-35.156250
5740		-37.109375
5741		-29.296875
5742		-33.203125
5743		-27.343750
5744		-29.296875
5745		-23.437500
5746		-25.390625
5747		-19.531250
5748		-21.484375
5749		-15.625000
5750		-17.578125
5751		-9.765625
5752		-13.671875
5753		-5.859375
5754		-7.812500
5755		-1.953125
5756		-3.906250
5757		1.953125
5758		0.000000
5759		5.859375
5760		3.906250
5761		9.765625
5762		7.812500
5763		13.671875
5764		11.718750
5765		17.578125
5766		15.625000
5767		21.484375
5768		19.531250
5769		25.390625
5770		23.437500
5771		29.296875
5772		27.343750
5773		33.203125
5774		31.250000
5775		37.109375
5776		33.203125
5777		39.062500
5778		39.062500
5779		42.968750
5780		41.015625
5781		46.875000
5782		42.968750
5783		50.781250
5784		46.875000
5785		52.734375
5786		50.781250
5787		56.640625
5788		52.734375
5789		60.546875
5790		54.687500
5791		62.500000
5792		58.593750
5793		64.453125
5794		62.500000
5795		66.406250
5796		64.453125
5797		68.359375
5798		66.406250
5799		72.265625
5800		66.406250
5801		72.265625
5802		68.359375
5803		74.218750
5804		72.265625
5805		76.171875
5806		72.265625
5807		78.125000
5808		74.218750
5809		80.078125
5810		76.171875
5811		80.078125
5812		78.125000
5813		80.078125
5814		78.125000
5815		82.031250
5816		78.125000
5817		83.984375
5818		78.125000
5819		83.984375
5820		78.125000
5821		83.984375
5822		78.125000
5823		83.984375
5824		78.125000
5825		83.984375
5826		78.125000
5827		83.984375
5828		80.078125
5829		82.031250
5830		78.125000
5831		82.031250
5832		78.125000
5833		82.031250
5834		76.171875
5835		80.078125
5836		76.171875
5837		78.125000
5838		74.218750
5839		78.125000
5840		72.265625
5841		76.171875
5842		70.312500
5843		74.218750
5844		68.359375
5845		72.265625
5846		66.406250
5847		70.312500
5848		64.453125
5849		68.359375
5850		62.500000
5851		66.406250
5852		60.546875
5853		64.453125
5854		56.640625
5855		62.500000
5856		54.687500
5857		58.593750
5858		52.734375
5859		56.640625
5860		48.828125
5861		52.734375
5862		44.921875
5863		50.781250
5864		42.968750
5865		46.875000
5866		39.062500
5867		42.968750
5868		35.156250
5869		41.015625
5870		31.250000
5871		37.109375
5872		27.343750
5873		33.203125
5874		23.437500
5875		29.296875
5876		19.531250
5877		25.390625
5878		15.625000
5879		21.484375
5880		11.718750
5881		17.578125
5882		7.812500
5883		13.671875
5884		3.906250
5885		9.765625
5886		0.000000
5887		5.859375
5888		-3.906250
5889		1.953125
5890		-7.812500
5891		-1.953125
5892		-11.718750
5893		-5.859375
5894		-15.625000
5895		-9.765625
5896		-19.531250
5897		-15.625000
5898		-23.437500
5899		-19.531250
5900		-27.343750
5901		-23.437500
5902		-31.250000
5903		-25.390625
5904		-35.156250
5905		-31.250000
5906		-39.062500
5907		-35.156250
5908		-42.968750
5909		-39.062500
5910		-46.875000
5911		-41.015625
5912		-50.781250
5913		-44.921875
5914		-52.734375
5915		-48.828125
5916		-56.640625
5917		-52.734375
5918		-58.593750
5919		-54.687500
5920		-62.500000
5921		-58.593750
5922		-64.453125
5923		-60.546875
5924		-66.406250
5925		-62.500000
5926		-70.312500
5927		-66.406250
5928		-72.265625
5929		-68.359375
5930		-74.218750
5931		-70.312500
5932		-78.125000
5933		-70.312500
5934		-80.078125
5935		-72.265625
5936		-82.031250
5937		-72.265625
5938		-80.078125
5939		-76.171875
5940		-80.078125
5941		-78.125000
5942		-82.031250
5943		-78.125000
5944		-82.031250
5945		-80.078125
5946		-82.031250
5947		-80.078125
5948		-85.937500
5949		-78.125000
5950		-85.937500
5951		-78.125000
5952		-85.937500
5953		-76.171875
5954		-85.937500
5955		-78.125000
5956		-82.031250
5957		-78.125000
5958		-80.078125
5959		-78.125000
5960		-80.078125
5961		-76.171875
5962		-78.125000
5963		-76.171875
5964		-76.171875
5965		-74.218750
5966		-78.125000
5967		-68.359375
5968		-76.171875
5969		-68.359375
5970		-74.218750
5971		-64.453125
5972		-68.359375
5973		-64.453125
5974		-66.406250
5975		-62.500000
5976		-64.453125
5977		-60.546875
5978		-60.546875
5979		-56.640625
5980		-58.593750
5981		-54.687500
5982		-56.640625
5983		-46.875000
5984		-56.640625
5985		-44.921875
5986		-52.734375
5987		-41.015625
5988		-48.828125
5989		-41.015625
5990		-41.015625
5991		-37.109375
5992		-39.062500
5993		-33.203125
5994		-35.156250
5995		-29.296875
5996		-31.250000
5997		-25.390625
5998		-27.343750
5999		-21.484375
6000		-25.390625
6001		-15.625000
6002		-21.484375
6003		-9.765625
6004		-17.578125
6005		-7.812500
6006		-11.718750
6007		-5.859375
6008		-7.812500
6009		-1.953125
6010		-1.953125
6011		1.953125
6012		1.953125
6013		5.859375
6014		5.859375
6015		11.718750
6016		7.812500
6017		17.578125
6018		11.718750
6019		21.484375
6020		15.625000
6021		25.390625
6022		21.484375
6023		27.343750
6024		25.390625
6025		29.296875
6026		29.296875
6027		33.203125
6028		33.203125
6029		37.109375
6030		35.156250
6031		41.015625
6032		39.062500
6033		46.875000
6034		39.062500
6035		50.781250
6036		42.968750
6037		54.687500
6038		44.921875
6039		54.687500
6040		52.734375
6041		56.640625
6042		54.687500
6043		58.593750
6044		58.593750
6045		62.500000
6046		60.546875
6047		64.453125
6048		62.500000
6049		66.406250
6050		62.500000
6051		72.265625
6052		64.453125
6053		74.218750
6054		66.406250
6055		76.171875
6056		70.312500
6057		74.218750
6058		72.265625
6059		76.171875
6060		74.218750
6061		78.125000
6062		76.171875
6063		78.125000
6064		78.125000
6065		80.078125
6066		76.171875
6067		83.984375
6068		76.171875
6069		85.937500
6070		76.171875
6071		85.937500
6072		76.171875
6073		85.937500
6074		80.078125
6075		82.031250
6076		80.078125
6077		82.031250
6078		80.078125
6079		82.031250
6080		80.078125
6081		82.031250
6082		80.078125
6083		82.031250
6084		76.171875
6085		85.937500
6086		74.218750
6087		83.984375
6088		74.218750
6089		83.984375
6090		76.171875
6091		78.125000
6092		74.218750
6093		76.171875
6094		72.265625
6095		76.171875
6096		70.312500
6097		74.218750
6098		68.359375
6099		72.265625
6100		64.453125
6101		72.265625
6102		60.546875
6103		70.312500
6104		58.593750
6105		68.359375
6106		60.546875
6107		64.453125
6108		56.640625
6109		60.546875
6110		52.734375
6111		58.593750
6112		50.781250
6113		54.687500
6114		46.875000
6115		52.734375
6116		44.921875
6117		48.828125
6118		41.015625
6119		46.875000
6120		37.109375
6121		44.921875
6122		35.156250
6123		39.062500
6124		31.250000
6125		35.156250
6126		27.343750
6127		31.250000
6128		23.437500
6129		29.296875
6130		19.531250
6131		23.437500
6132		15.625000
6133		19.531250
6134		11.718750
6135		17.578125
6136		5.859375
6137		13.671875
6138		1.953125
6139		9.765625
6140		0.000000
6141		3.906250
6142		-5.859375
6143		0.000000
6144		-9.765625
6145		-3.906250
6146		-13.671875
6147		-7.812500
6148		-17.578125
6149		-11.718750
6150		-21.484375
6151		-15.625000
6152		-25.390625
6153		-19.531250
6154		-31.250000
6155		-21.484375
6156		-33.203125
6157		-27.343750
6158		-37.109375
6159		-31.250000
6160		-41.015625
6161		-35.156250
6162		-42.968750
6163		-39.062500
6164		-46.875000
6165		-42.968750
6166		-50.781250
6167		-46.875000
6168		-54.687500
6169		-48.828125
6170		-56.640625
6171		-52.734375
6172		-60.546875
6173		-54.687500
6174		-62.500000
6175		-58.593750
6176		-64.453125
6177		-60.546875
6178		-68.359375
6179		-64.453125
6180		-70.312500
6181		-66.406250
6182		-72.265625
6183		-68.359375
6184		-74.218750
6185		-70.312500
6186		-76.171875
6187		-72.265625
6188		-78.125000
6189		-74.218750
6190		-78.125000
6191		-76.171875
6192		-80.078125
6193		-76.171875
6194		-80.078125
6195		-78.125000
6196		-82.031250
6197		-78.125000
6198		-82.031250
6199		-80.078125
6200		-82.031250
6201		-80.078125
6202		-82.031250
6203		-80.078125
6204		-82.031250
6205		-80.078125
6206		-82.031250
6207		-80.078125
6208		-82.031250
6209		-78.125000
6210		-82.031250
6211		-78.125000
6212		-80.078125
6213		-76.171875
6214		-78.125000
6215		-76.171875
6216		-78.125000
6217		-74.218750
6218		-76.171875
6219		-72.265625
6220		-74.218750
6221		-70.312500
6222		-72.265625
6223		-68.359375
6224		-70.312500
6225		-66.406250
6226		-68.359375
6227		-64.453125
6228		-66.406250
6229		-60.546875
6230		-62.500000
6231		-58.593750
6232		-60.546875
6233		-54.687500
6234		-56.640625
6235		-52.734375
6236		-54.687500
6237		-48.828125
6238		-50.781250
6239		-46.875000
6240		-46.875000
6241		-42.968750
6242		-44.921875
6243		-39.062500
6244		-41.015625
6245		-35.156250
6246		-37.109375
6247		-31.250000
6248		-33.203125
6249		-27.343750
6250		-29.296875
6251		-23.437500
6252		-27.343750
6253		-19.531250
6254		-21.484375
6255		-15.625000
6256		-17.578125
6257		-11.718750
6258		-13.671875
6259		-7.812500
6260		-9.765625
6261		-3.906250
6262		-5.859375
6263		0.000000
6264		0.000000
6265		3.906250
6266		3.906250
6267		7.812500
6268		7.812500
6269		13.671875
6270		11.718750
6271		15.625000
6272		15.625000
6273		21.484375
6274		19.531250
6275		25.390625
6276		23.437500
6277		27.343750
6278		27.343750
6279		31.250000
6280		29.296875
6281		35.156250
6282		33.203125
6283		39.062500
6284		37.109375
6285		42.968750
6286		41.015625
6287		46.875000
6288		42.968750
6289		48.828125
6290		46.875000
6291		52.734375
6292		50.781250
6293		54.687500
6294		52.734375
6295		58.593750
6296		56.640625
6297		60.546875
6298		58.593750
6299		62.500000
6300		62.500000
6301		66.406250
6302		64.453125
6303		68.359375
6304		66.406250
6305		70.312500
6306		68.359375
6307		72.265625
6308		70.312500
6309		74.218750
6310		72.265625
6311		76.171875
6312		74.218750
6313		76.171875
6314		76.171875
6315		78.125000
6316		76.171875
6317		80.078125
6318		76.171875
6319		82.031250
6320		78.125000
6321		82.031250
6322		80.078125
6323		82.031250
6324		80.078125
6325		82.031250
6326		80.078125
6327		83.984375
6328		80.078125
6329		83.984375
6330		80.078125
6331		82.031250
6332		80.078125
6333		82.031250
6334		80.078125
6335		82.031250
6336		78.125000
6337		83.984375
6338		78.125000
6339		82.031250
6340		78.125000
6341		80.078125
6342		76.171875
6343		80.078125
6344		76.171875
6345		80.078125
6346		74.218750
6347		76.171875
6348		72.265625
6349		76.171875
6350		70.312500
6351		74.218750
6352		66.406250
6353		72.265625
6354		66.406250
6355		70.312500
6356		64.453125
6357		68.359375
6358		60.546875
6359		64.453125
6360		58.593750
6361		62.500000
6362		56.640625
6363		60.546875
6364		52.734375
6365		56.640625
6366		50.781250
6367		54.687500
6368		44.921875
6369		52.734375
6370		42.968750
6371		48.828125
6372		41.015625
6373		46.875000
6374		37.109375
6375		41.015625
6376		33.203125
6377		39.062500
6378		29.296875
6379		35.156250
6380		25.390625
6381		31.250000
6382		21.484375
6383		27.343750
6384		17.578125
6385		23.437500
6386		13.671875
6387		19.531250
6388		9.765625
6389		15.625000
6390		5.859375
6391		11.718750
6392		1.953125
6393		7.812500
6394		-1.953125
6395		3.906250
6396		-5.859375
6397		0.000000
6398		-9.765625
6399		-3.906250
6400		-13.671875
6401		-9.765625
6402		-17.578125
6403		-13.671875
6404		-21.484375
6405		-17.578125
6406		-27.343750
6407		-21.484375
6408		-29.296875
6409		-25.390625
6410		-33.203125
6411		-29.296875
6412		-37.109375
6413		-33.203125
6414		-41.015625
6415		-37.109375
6416		-44.921875
6417		-39.062500
6418		-48.828125
6419		-42.968750
6420		-52.734375
6421		-46.875000
6422		-54.687500
6423		-50.781250
6424		-58.593750
6425		-52.734375
6426		-60.546875
6427		-56.640625
6428		-62.500000
6429		-58.593750
6430		-66.406250
6431		-62.500000
6432		-68.359375
6433		-64.453125
6434		-70.312500
6435		-66.406250
6436		-72.265625
6437		-68.359375
6438		-74.218750
6439		-72.265625
6440		-76.171875
6441		-72.265625
6442		-78.125000
6443		-74.218750
6444		-80.078125
6445		-76.171875
6446		-80.078125
6447		-78.125000
6448		-80.078125
6449		-78.125000
6450		-82.031250
6451		-80.078125
6452		-82.031250
6453		-80.078125
6454		-82.031250
6455		-80.078125
6456		-82.031250
6457		-80.078125
6458		-82.031250
6459		-80.078125
6460		-82.031250
6461		-80.078125
6462		-82.031250
6463		-78.125000
6464		-80.078125
6465		-78.125000
6466		-80.078125
6467		-76.171875
6468		-78.125000
6469		-76.171875
6470		-76.171875
6471		-74.218750
6472		-76.171875
6473		-72.265625
6474		-74.218750
6475		-70.312500
6476		-72.265625
6477		-68.359375
6478		-70.312500
6479		-66.406250
6480		-66.406250
6481		-62.500000
6482		-64.453125
6483		-60.546875
6484		-62.500000
6485		-56.640625
6486		-58.593750
6487		-54.687500
6488		-56.640625
6489		-50.781250
6490		-52.734375
6491		-48.828125
6492		-48.828125
6493		-44.921875
6494		-46.875000
6495		-41.015625
6496		-42.968750
6497		-37.109375
6498		-39.062500
6499		-35.156250
6500		-35.156250
6501		-29.296875
6502		-31.250000
6503		-25.390625
6504		-29.296875
6505		-23.437500
6506		-23.437500
6507		-17.578125
6508		-19.531250
6509		-13.671875
6510		-15.625000
6511		-9.765625
6512		-11.718750
6513		-5.859375
6514		-7.812500
6515		-1.953125
6516		-3.906250
6517		1.953125
6518		0.000000
6519		5.859375
6520		3.906250
6521		9.765625
6522		7.812500
6523		13.671875
6524		11.718750
6525		17.578125
6526		15.625000
6527		21.484375
6528		19.531250
6529		25.390625
6530		23.437500
6531		29.296875
6532		27.343750
6533		33.203125
6534		31.250000
6535		37.109375
6536		35.156250
6537		41.015625
6538		37.109375
6539		42.968750
6540		42.968750
6541		46.875000
6542		44.921875
6543		50.781250
6544		48.828125
6545		52.734375
6546		52.734375
6547		56.640625
6548		54.687500
6549		58.593750
6550		56.640625
6551		60.546875
6552		60.546875
6553		64.453125
6554		62.500000
6555		68.359375
6556		64.453125
6557		70.312500
6558		66.406250
6559		70.312500
6560		70.312500
6561		72.265625
6562		70.312500
6563		74.218750
6564		72.265625
6565		76.171875
6566		74.218750
6567		78.125000
6568		76.171875
6569		78.125000
6570		76.171875
6571		82.031250
6572		76.171875
6573		82.031250
6574		80.078125
6575		82.031250
6576		80.078125
6577		82.031250
6578		80.078125
6579		82.031250
6580		80.078125
6581		83.984375
6582		80.078125
6583		82.031250
6584		80.078125
6585		82.031250
6586		80.078125
6587		82.031250
6588		78.125000
6589		83.984375
6590		78.125000
6591		83.984375
6592		78.125000
6593		82.031250
6594		78.125000
6595		80.078125
6596		76.171875
6597		80.078125
6598		74.218750
6599		78.125000
6600		74.218750
6601		76.171875
6602		72.265625
6603		76.171875
6604		68.359375
6605		74.218750
6606		66.406250
6607		72.265625
6608		66.406250
6609		70.312500
6610		64.453125
6611		68.359375
6612		60.546875
6613		64.453125
6614		58.593750
6615		62.500000
6616		56.640625
6617		60.546875
6618		52.734375
6619		56.640625
6620		48.828125
6621		54.687500
6622		44.921875
6623		52.734375
6624		42.968750
6625		48.828125
6626		39.062500
6627		44.921875
6628		35.156250
6629		41.015625
6630		33.203125
6631		37.109375
6632		29.296875
6633		33.203125
6634		25.390625
6635		29.296875
6636		21.484375
6637		27.343750
6638		15.625000
6639		23.437500
6640		13.671875
6641		19.531250
6642		9.765625
6643		13.671875
6644		5.859375
6645		9.765625
6646		1.953125
6647		5.859375
6648		-3.906250
6649		1.953125
6650		-7.812500
6651		-1.953125
6652		-11.718750
6653		-5.859375
6654		-15.625000
6655		-9.765625
6656		-21.484375
6657		-11.718750
6658		-23.437500
6659		-17.578125
6660		-27.343750
6661		-21.484375
6662		-31.250000
6663		-25.390625
6664		-35.156250
6665		-29.296875
6666		-39.062500
6667		-33.203125
6668		-42.968750
6669		-37.109375
6670		-44.921875
6671		-41.015625
6672		-48.828125
6673		-42.968750
6674		-52.734375
6675		-46.875000
6676		-54.687500
6677		-50.781250
6678		-58.593750
6679		-52.734375
6680		-62.500000
6681		-56.640625
6682		-64.453125
6683		-60.546875
6684		-66.406250
6685		-62.500000
6686		-68.359375
6687		-64.453125
6688		-72.265625
6689		-66.406250
6690		-74.218750
6691		-68.359375
6692		-74.218750
6693		-72.265625
6694		-76.171875
6695		-74.218750
6696		-78.125000
6697		-74.218750
6698		-78.125000
6699		-76.171875
6700		-80.078125
6701		-78.125000
6702		-80.078125
6703		-78.125000
6704		-82.031250
6705		-78.125000
6706		-83.984375
6707		-78.125000
6708		-83.984375
6709		-78.125000
6710		-82.031250
6711		-80.078125
6712		-82.031250
6713		-80.078125
6714		-82.031250
6715		-78.125000
6716		-80.078125
6717		-78.125000
6718		-80.078125
6719		-78.125000
6720		-78.125000
6721		-76.171875
6722		-78.125000
6723		-72.265625
6724		-78.125000
6725		-72.265625
6726		-74.218750
6727		-70.312500
6728		-72.265625
6729		-68.359375
6730		-70.312500
6731		-66.406250
6732		-68.359375
6733		-64.453125
6734		-66.406250
6735		-62.500000
6736		-62.500000
6737		-58.593750
6738		-60.546875
6739		-54.687500
6740		-58.593750
6741		-52.734375
6742		-54.687500
6743		-50.781250
6744		-52.734375
6745		-46.875000
6746		-48.828125
6747		-42.968750
6748		-44.921875
6749		-41.015625
6750		-41.015625
6751		-37.109375
6752		-37.109375
6753		-33.203125
6754		-35.156250
6755		-29.296875
6756		-31.250000
6757		-25.390625
6758		-25.390625
6759		-21.484375
6760		-21.484375
6761		-17.578125
6762		-17.578125
6763		-13.671875
6764		-13.671875
6765		-9.765625
6766		-9.765625
6767		-5.859375
6768		-5.859375
6769		0.000000
6770		-1.953125
6771		3.906250
6772		1.953125
6773		7.812500
6774		5.859375
6775		11.718750
6776		9.765625
6777		15.625000
6778		13.671875
6779		19.531250
6780		17.578125
6781		23.437500
6782		21.484375
6783		27.343750
6784		25.390625
6785		31.250000
6786		29.296875
6787		35.156250
6788		33.203125
6789		37.109375
6790		37.109375
6791		41.015625
6792		39.062500
6793		44.921875
6794		42.968750
6795		48.828125
6796		46.875000
6797		50.781250
6798		48.828125
6799		54.687500
6800		52.734375
6801		56.640625
6802		54.687500
6803		60.546875
6804		58.593750
6805		62.500000
6806		60.546875
6807		64.453125
6808		62.500000
6809		66.406250
6810		66.406250
6811		70.312500
6812		68.359375
6813		72.265625
6814		70.312500
6815		74.218750
6816		72.265625
6817		76.171875
6818		74.218750
6819		76.171875
6820		74.218750
6821		78.125000
6822		76.171875
6823		80.078125
6824		78.125000
6825		80.078125
6826		78.125000
6827		82.031250
6828		80.078125
6829		82.031250
6830		80.078125
6831		82.031250
6832		80.078125
6833		83.984375
6834		80.078125
6835		83.984375
6836		82.031250
6837		83.984375
6838		80.078125
6839		83.984375
6840		80.078125
6841		82.031250
6842		80.078125
6843		82.031250
6844		80.078125
6845		82.031250
6846		78.125000
6847		82.031250
6848		78.125000
6849		80.078125
6850		76.171875
6851		80.078125
6852		74.218750
6853		78.125000
6854		72.265625
6855		76.171875
6856		72.265625
6857		74.218750
6858		68.359375
6859		72.265625
6860		66.406250
6861		70.312500
6862		64.453125
6863		68.359375
6864		62.500000
6865		66.406250
6866		60.546875
6867		64.453125
6868		56.640625
6869		62.500000
6870		54.687500
6871		58.593750
6872		50.781250
6873		56.640625
6874		48.828125
6875		52.734375
6876		44.921875
6877		50.781250
6878		42.968750
6879		46.875000
6880		37.109375
6881		42.968750
6882		35.156250
6883		41.015625
6884		31.250000
6885		37.109375
6886		27.343750
6887		33.203125
6888		23.437500
6889		29.296875
6890		19.531250
6891		25.390625
6892		15.625000
6893		21.484375
6894		11.718750
6895		17.578125
6896		7.812500
6897		13.671875
6898		3.906250
6899		9.765625
6900		0.000000
6901		5.859375
6902		-3.906250
6903		1.953125
6904		-7.812500
6905		-3.906250
6906		-11.718750
6907		-7.812500
6908		-15.625000
6909		-11.718750
6910		-19.531250
6911		-15.625000
6912		-23.437500
6913		-19.531250
6914		-27.343750
6915		-23.437500
6916		-33.203125
6917		-27.343750
6918		-37.109375
6919		-31.250000
6920		-39.062500
6921		-35.156250
6922		-42.968750
6923		-39.062500
6924		-46.875000
6925		-41.015625
6926		-50.781250
6927		-44.921875
6928		-52.734375
6929		-48.828125
6930		-56.640625
6931		-50.781250
6932		-58.593750
6933		-54.687500
6934		-62.500000
6935		-58.593750
6936		-64.453125
6937		-60.546875
6938		-66.406250
6939		-62.500000
6940		-70.312500
6941		-66.406250
6942		-72.265625
6943		-68.359375
6944		-72.265625
6945		-70.312500
6946		-76.171875
6947		-72.265625
6948		-76.171875
6949		-74.218750
6950		-78.125000
6951		-74.218750
6952		-80.078125
6953		-76.171875
6954		-80.078125
6955		-78.125000
6956		-82.031250
6957		-78.125000
6958		-82.031250
6959		-78.125000
6960		-82.031250
6961		-80.078125
6962		-82.031250
6963		-80.078125
6964		-82.031250
6965		-80.078125
6966		-82.031250
6967		-78.125000
6968		-82.031250
6969		-78.125000
6970		-80.078125
6971		-78.125000
6972		-78.125000
6973		-76.171875
6974		-78.125000
6975		-74.218750
6976		-76.171875
6977		-74.218750
6978		-76.171875
6979		-72.265625
6980		-74.218750
6981		-70.312500
6982		-72.265625
6983		-68.359375
6984		-70.312500
6985		-66.406250
6986		-66.406250
6987		-62.500000
6988		-64.453125
6989		-60.546875
6990		-62.500000
6991		-58.593750
6992		-58.593750
6993		-54.687500
6994		-56.640625
6995		-52.734375
6996		-52.734375
6997		-48.828125
6998		-50.781250
6999		-44.921875
7000		-46.875000
7001		-42.968750
7002		-42.968750
7003		-39.062500
7004		-39.062500
7005		-35.156250
7006		-37.109375
7007		-31.250000
7008		-33.203125
7009		-27.343750
7010		-29.296875
7011		-23.437500
7012		-25.390625
7013		-19.531250
7014		-21.484375
7015		-15.625000
7016		-15.625000
7017		-11.718750
7018		-11.718750
7019		-7.812500
7020		-7.812500
7021		-3.906250
7022		-3.906250
7023		1.953125
7024		0.000000
7025		5.859375
7026		3.906250
7027		9.765625
7028		7.812500
7029		13.671875
7030		11.718750
7031		17.578125
7032		15.625000
7033		21.484375
7034		19.531250
7035		25.390625
7036		23.437500
7037		29.296875
7038		27.343750
7039		33.203125
7040		31.250000
7041		35.156250
7042		33.203125
7043		39.062500
7044		39.062500
7045		42.968750
7046		41.015625
7047		46.875000
7048		44.921875
7049		50.781250
7050		48.828125
7051		52.734375
7052		50.781250
7053		54.687500
7054		54.687500
7055		58.593750
7056		56.640625
7057		60.546875
7058		60.546875
7059		64.453125
7060		62.500000
7061		66.406250
7062		64.453125
7063		68.359375
7064		66.406250
7065		70.312500
7066		68.359375
7067		72.265625
7068		70.312500
7069		74.218750
7070		72.265625
7071		76.171875
7072		74.218750
7073		78.125000
7074		76.171875
7075		78.125000
7076		76.171875
7077		80.078125
7078		78.125000
7079		80.078125
7080		80.078125
7081		82.031250
7082		80.078125
7083		82.031250
7084		80.078125
7085		82.031250
7086		80.078125
7087		83.984375
7088		82.031250
7089		83.984375
7090		82.031250
7091		83.984375
7092		80.078125
7093		83.984375
7094		80.078125
7095		82.031250
7096		80.078125
7097		82.031250
7098		80.078125
7099		82.031250
7100		78.125000
7101		80.078125
7102		76.171875
7103		80.078125
7104		76.171875
7105		78.125000
7106		74.218750
7107		78.125000
7108		72.265625
7109		76.171875
7110		70.312500
7111		74.218750
7112		68.359375
7113		72.265625
7114		66.406250
7115		70.312500
7116		64.453125
7117		68.359375
7118		62.500000
7119		66.406250
7120		58.593750
7121		64.453125
7122		56.640625
7123		60.546875
7124		52.734375
7125		58.593750
7126		50.781250
7127		54.687500
7128		46.875000
7129		52.734375
7130		44.921875
7131		48.828125
7132		41.015625
7133		44.921875
7134		37.109375
7135		42.968750
7136		33.203125
7137		39.062500
7138		29.296875
7139		35.156250
7140		25.390625
7141		31.250000
7142		21.484375
7143		27.343750
7144		19.531250
7145		23.437500
7146		15.625000
7147		19.531250
7148		9.765625
7149		15.625000
7150		5.859375
7151		11.718750
7152		1.953125
7153		7.812500
7154		-1.953125
7155		3.906250
7156		-5.859375
7157		0.000000
7158		-9.765625
7159		-3.906250
7160		-13.671875
7161		-7.812500
7162		-17.578125
7163		-11.718750
7164		-21.484375
7165		-15.625000
7166		-25.390625
7167		-19.531250
7168		-29.296875
7169		-25.390625
7170		-33.203125
7171		-27.343750
7172		-37.109375
7173		-33.203125
7174		-41.015625
7175		-35.156250
7176		-44.921875
7177		-39.062500
7178		-48.828125
7179		-42.968750
7180		-50.781250
7181		-46.875000
7182		-54.687500
7183		-48.828125
7184		-58.593750
7185		-52.734375
7186		-60.546875
7187		-56.640625
7188		-62.500000
7189		-58.593750
7190		-64.453125
7191		-60.546875
7192		-68.359375
7193		-64.453125
7194		-70.312500
7195		-66.406250
7196		-72.265625
7197		-68.359375
7198		-74.218750
7199		-70.312500
7200		-76.171875
7201		-72.265625
7202		-76.171875
7203		-74.218750
7204		-78.125000
7205		-76.171875
7206		-80.078125
7207		-76.171875
7208		-80.078125
7209		-78.125000
7210		-80.078125
7211		-78.125000
7212		-82.031250
7213		-78.125000
7214		-82.031250
7215		-80.078125
7216		-82.031250
7217		-80.078125
7218		-82.031250
7219		-78.125000
7220		-80.078125
7221		-78.125000
7222		-80.078125
7223		-78.125000
7224		-80.078125
7225		-76.171875
7226		-78.125000
7227		-76.171875
7228		-78.125000
7229		-74.218750
7230		-76.171875
7231		-72.265625
7232		-74.218750
7233		-72.265625
7234		-72.265625
7235		-70.312500
7236		-70.312500
7237		-68.359375
7238		-68.359375
7239		-64.453125
7240		-66.406250
7241		-62.500000
7242		-64.453125
7243		-60.546875
7244		-62.500000
7245		-56.640625
7246		-58.593750
7247		-54.687500
7248		-54.687500
7249		-50.781250
7250		-52.734375
7251		-46.875000
7252		-48.828125
7253		-44.921875
7254		-44.921875
7255		-41.015625
7256		-41.015625
7257		-37.109375
7258		-39.062500
7259		-33.203125
7260		-35.156250
7261		-29.296875
7262		-31.250000
7263		-25.390625
7264		-27.343750
7265		-21.484375
7266		-23.437500
7267		-17.578125
7268		-19.531250
7269		-13.671875
7270		-15.625000
7271		-9.765625
7272		-11.718750
7273		-5.859375
7274		-7.812500
7275		-1.953125
7276		-3.906250
7277		1.953125
7278		1.953125
7279		5.859375
7280		5.859375
7281		11.718750
7282		9.765625
7283		13.671875
7284		13.671875
7285		17.578125
7286		17.578125
7287		23.437500
7288		21.484375
7289		25.390625
7290		25.390625
7291		29.296875
7292		29.296875
7293		33.203125
7294		31.250000
7295		37.109375
7296		35.156250
7297		41.015625
7298		39.062500
7299		44.921875
7300		42.968750
7301		46.875000
7302		46.875000
7303		50.781250
7304		48.828125
7305		52.734375
7306		52.734375
7307		56.640625
7308		54.687500
7309		58.593750
7310		58.593750
7311		62.500000
7312		60.546875
7313		64.453125
7314		62.500000
7315		66.406250
7316		64.453125
7317		68.359375
7318		66.406250
7319		70.312500
7320		70.312500
7321		72.265625
7322		72.265625
7323		74.218750
7324		74.218750
7325		76.171875
7326		74.218750
7327		78.125000
7328		76.171875
7329		80.078125
7330		78.125000
7331		80.078125
7332		78.125000
7333		82.031250
7334		80.078125
7335		82.031250
7336		80.078125
7337		82.031250
7338		80.078125
7339		82.031250
7340		80.078125
7341		83.984375
7342		82.031250
7343		83.984375
7344		82.031250
7345		83.984375
7346		80.078125
7347		83.984375
7348		80.078125
7349		82.031250
7350		78.125000
7351		82.031250
7352		78.125000
7353		82.031250
7354		78.125000
7355		80.078125
7356		76.171875
7357		80.078125
7358		76.171875
7359		78.125000
7360		74.218750
7361		76.171875
7362		72.265625
7363		76.171875
7364		70.312500
7365		74.218750
7366		68.359375
7367		72.265625
7368		66.406250
7369		70.312500
7370		64.453125
7371		66.406250
7372		60.546875
7373		64.453125
7374		58.593750
7375		62.500000
7376		54.687500
7377		60.546875
7378		52.734375
7379		56.640625
7380		48.828125
7381		54.687500
7382		46.875000
7383		50.781250
7384		42.968750
7385		48.828125
7386		39.062500
7387		44.921875
7388		37.109375
7389		41.015625
7390		33.203125
7391		37.109375
7392		29.296875
7393		33.203125
7394		25.390625
7395		29.296875
7396		21.484375
7397		27.343750
7398		17.578125
7399		23.437500
7400		13.671875
7401		19.531250
7402		9.765625
7403		13.671875
7404		5.859375
7405		9.765625
7406		1.953125
7407		5.859375
7408		-1.953125
7409		1.953125
7410		-5.859375
7411		-1.953125
7412		-11.718750
7413		-5.859375
7414		-15.625000
7415		-9.765625
7416		-19.531250
7417		-13.671875
7418		-23.437500
7419		-17.578125
7420		-27.343750
7421		-21.484375
7422		-31.250000
7423		-25.390625
7424		-35.156250
7425		-29.296875
7426		-39.062500
7427		-33.203125
7428		-42.968750
7429		-37.109375
7430		-44.921875
7431		-41.015625
7432		-48.828125
7433		-44.921875
7434		-52.734375
7435		-46.875000
7436		-54.687500
7437		-50.781250
7438		-58.593750
7439		-54.687500
7440		-60.546875
7441		-56.640625
7442		-64.453125
7443		-60.546875
7444		-66.406250
7445		-62.500000
7446		-68.359375
7447		-64.453125
7448		-70.312500
7449		-66.406250
7450		-72.265625
7451		-68.359375
7452		-74.218750
7453		-70.312500
7454		-76.171875
7455		-72.265625
7456		-78.125000
7457		-74.218750
7458		-78.125000
7459		-76.171875
7460		-80.078125
7461		-78.125000
7462		-80.078125
7463		-78.125000
7464		-82.031250
7465		-78.125000
7466		-82.031250
7467		-80.078125
7468		-82.031250
7469		-80.078125
7470		-82.031250
7471		-80.078125
7472		-82.031250
7473		-78.125000
7474		-80.078125
7475		-78.125000
7476		-80.078125
7477		-78.125000
7478		-80.078125
7479		-76.171875
7480		-78.125000
7481		-76.171875
7482		-76.171875
7483		-74.218750
7484		-76.171875
7485		-72.265625
7486		-74.218750
7487		-70.312500
7488		-72.265625
7489		-68.359375
7490		-70.312500
7491		-66.406250
7492		-68.359375
7493		-64.453125
7494		-64.453125
7495		-60.546875
7496		-62.500000
7497		-58.593750
7498		-60.546875
7499		-56.640625
7500		-56.640625
7501		-52.734375
7502		-54.687500
7503		-50.781250
7504		-50.781250
7505		-46.875000
7506		-46.875000
7507		-42.968750
7508		-44.921875
7509		-39.062500
7510		-41.015625
7511		-35.156250
7512		-37.109375
7513		-31.250000
7514		-33.203125
7515		-27.343750
7516		-29.296875
7517		-25.390625
7518		-25.390625
7519		-21.484375
7520		-21.484375
7521		-15.625000
7522		-17.578125
7523		-11.718750
7524		-13.671875
7525		-7.812500
7526		-9.765625
7527		-3.906250
7528		-5.859375
7529		0.000000
7530		-1.953125
7531		3.906250
7532		1.953125
7533		7.812500
7534		5.859375
7535		11.718750
7536		9.765625
7537		15.625000
7538		13.671875
7539		19.531250
7540		17.578125
7541		23.437500
7542		21.484375
7543		27.343750
7544		25.390625
7545		31.250000
7546		29.296875
7547		35.156250
7548		33.203125
7549		39.062500
7550		37.109375
7551		41.015625
7552		41.015625
7553		44.921875
7554		44.921875
7555		48.828125
7556		46.875000
7557		52.734375
7558		50.781250
7559		54.687500
7560		52.734375
7561		56.640625
7562		56.640625
7563		60.546875
7564		58.593750
7565		62.500000
7566		60.546875
7567		66.406250
7568		64.453125
7569		68.359375
7570		66.406250
7571		70.312500
7572		68.359375
7573		72.265625
7574		70.312500
7575		74.218750
7576		72.265625
7577		76.171875
7578		74.218750
7579		76.171875
7580		74.218750
7581		78.125000
7582		76.171875
7583		80.078125
7584		76.171875
7585		82.031250
7586		80.078125
7587		82.031250
7588		78.125000
7589		83.984375
7590		80.078125
7591		82.031250
7592		82.031250
7593		83.984375
7594		82.031250
7595		83.984375
7596		80.078125
7597		83.984375
7598		80.078125
7599		83.984375
7600		80.078125
7601		85.937500
7602		80.078125
7603		82.031250
7604		78.125000
7605		83.984375
7606		78.125000
7607		82.031250
7608		76.171875
7609		83.984375
7610		76.171875
7611		80.078125
7612		74.218750
7613		78.125000
7614		72.265625
7615		78.125000
7616		70.312500
7617		76.171875
7618		68.359375
7619		74.218750
7620		66.406250
7621		72.265625
7622		64.453125
7623		70.312500
7624		60.546875
7625		68.359375
7626		60.546875
7627		64.453125
7628		56.640625
7629		62.500000
7630		54.687500
7631		58.593750
7632		50.781250
7633		58.593750
7634		48.828125
7635		54.687500
7636		44.921875
7637		50.781250
7638		41.015625
7639		46.875000
7640		39.062500
7641		42.968750
7642		35.156250
7643		41.015625
7644		31.250000
7645		37.109375
7646		25.390625
7647		33.203125
7648		21.484375
7649		31.250000
7650		17.578125
7651		25.390625
7652		15.625000
7653		21.484375
7654		9.765625
7655		17.578125
7656		7.812500
7657		13.671875
7658		1.953125
7659		9.765625
7660		0.000000
7661		5.859375
7662		-3.906250
7663		1.953125
7664		-9.765625
7665		-1.953125
7666		-11.718750
7667		-5.859375
7668		-15.625000
7669		-7.812500
7670		-19.531250
7671		-13.671875
7672		-25.390625
7673		-17.578125
7674		-27.343750
7675		-23.437500
7676		-31.250000
7677		-23.437500
7678		-35.156250
7679		-31.250000
7680		-41.015625
7681		-35.156250
7682		-44.921875
7683		-37.109375
7684		-46.875000
7685		-41.015625
7686		-50.781250
7687		-44.921875
7688		-56.640625
7689		-48.828125
7690		-56.640625
7691		-48.828125
7692		-60.546875
7693		-52.734375
7694		-62.500000
7695		-56.640625
7696		-64.453125
7697		-60.546875
7698		-68.359375
7699		-62.500000
7700		-72.265625
7701		-62.500000
7702		-72.265625
7703		-66.406250
7704		-74.218750
7705		-70.312500
7706		-78.125000
7707		-68.359375
7708		-80.078125
7709		-70.312500
7710		-78.125000
7711		-74.218750
7712		-78.125000
7713		-76.171875
7714		-80.078125
7715		-76.171875
7716		-83.984375
7717		-76.171875
7718		-83.984375
7719		-76.171875
7720		-82.031250
7721		-80.078125
7722		-83.984375
7723		-76.171875
7724		-85.937500
7725		-76.171875
7726		-83.984375
7727		-76.171875
7728		-80.078125
7729		-78.125000
7730		-80.078125
7731		-76.171875
7732		-82.031250
7733		-72.265625
7734		-80.078125
7735		-72.265625
7736		-76.171875
7737		-74.218750
7738		-74.218750
7739		-70.312500
7740		-76.171875
7741		-66.406250
7742		-72.265625
7743		-64.453125
7744		-68.359375
7745		-66.406250
7746		-66.406250
7747		-62.500000
7748		-66.406250
7749		-58.593750
7750		-64.453125
7751		-56.640625
7752		-60.546875
7753		-54.687500
7754		-56.640625
7755		-50.781250
7756		-54.687500
7757		-44.921875
7758		-50.781250
7759		-44.921875
7760		-48.828125
7761		-41.015625
7762		-42.968750
7763		-37.109375
7764		-39.062500
7765		-33.203125
7766		-37.109375
7767		-27.343750
7768		-31.250000
7769		-25.390625
7770		-27.343750
7771		-23.437500
7772		-23.437500
7773		-15.625000
7774		-23.437500
7775		-13.671875
7776		-15.625000
7777		-9.765625
7778		-11.718750
7779		-7.812500
7780		-7.812500
7781		-1.953125
7782		-3.906250
7783		1.953125
7784		-3.906250
7785		7.812500
7786		3.906250
7787		9.765625
7788		7.812500
7789		13.671875
7790		9.765625
7791		19.531250
7792		15.625000
7793		23.437500
7794		19.531250
7795		25.390625
7796		23.437500
7797		29.296875
7798		27.343750
7799		33.203125
7800		29.296875
7801		39.062500
7802		33.203125
7803		41.015625
7804		39.062500
7805		44.921875
7806		41.015625
7807		50.781250
7808		41.015625
7809		50.781250
7810		46.875000
7811		52.734375
7812		50.781250
7813		56.640625
7814		54.687500
7815		58.593750
7816		56.640625
7817		64.453125
7818		56.640625
7819		64.453125
7820		60.546875
7821		66.406250
7822		64.453125
7823		68.359375
7824		64.453125
7825		74.218750
7826		68.359375
7827		74.218750
7828		70.312500
7829		74.218750
7830		72.265625
7831		76.171875
7832		74.218750
7833		80.078125
7834		74.218750
7835		82.031250
7836		76.171875
7837		80.078125
7838		78.125000
7839		82.031250
7840		76.171875
7841		85.937500
7842		76.171875
7843		83.984375
7844		78.125000
7845		83.984375
7846		80.078125
7847		83.984375
7848		80.078125
7849		83.984375
7850		78.125000
7851		85.937500
7852		78.125000
7853		83.984375
7854		80.078125
7855		82.031250
7856		78.125000
7857		83.984375
7858		78.125000
7859		82.031250
7860		76.171875
7861		82.031250
7862		78.125000
7863		80.078125
7864		76.171875
7865		78.125000
7866		74.218750
7867		78.125000
7868		70.312500
7869		78.125000
7870		70.312500
7871		74.218750
7872		68.359375
7873		72.265625
7874		66.406250
7875		72.265625
7876		64.453125
7877		68.359375
7878		62.500000
7879		66.406250
7880		58.593750
7881		64.453125
7882		56.640625
7883		60.546875
7884		54.687500
7885		58.593750
7886		50.781250
7887		56.640625
7888		46.875000
7889		52.734375
7890		42.968750
7891		48.828125
7892		39.062500
7893		44.921875
7894		37.109375
7895		42.968750
7896		33.203125
7897		39.062500
7898		29.296875
7899		35.156250
7900		25.390625
7901		31.250000
7902		23.437500
7903		27.343750
7904		19.531250
7905		23.437500
7906		13.671875
7907		19.531250
7908		9.765625
7909		15.625000
7910		5.859375
7911		11.718750
7912		1.953125
7913		7.812500
7914		-1.953125
7915		3.906250
7916		-5.859375
7917		0.000000
7918		-9.765625
7919		-3.906250
7920		-13.671875
7921		-7.812500
7922		-17.578125
7923		-11.718750
7924		-21.484375
7925		-15.625000
7926		-25.390625
7927		-19.531250
7928		-29.296875
7929		-23.437500
7930		-33.203125
7931		-27.343750
7932		-39.062500
7933		-33.203125
7934		-41.015625
7935		-35.156250
7936		-44.921875
7937		-39.062500
7938		-48.828125
7939		-41.015625
7940		-52.734375
7941		-44.921875
7942		-54.687500
7943		-48.828125
7944		-58.593750
7945		-52.734375
7946		-60.546875
7947		-56.640625
7948		-62.500000
7949		-58.593750
7950		-66.406250
7951		-60.546875
7952		-68.359375
7953		-62.500000
7954		-70.312500
7955		-64.453125
7956		-74.218750
7957		-66.406250
7958		-76.171875
7959		-70.312500
7960		-76.171875
7961		-72.265625
7962		-76.171875
7963		-72.265625
7964		-78.125000
7965		-76.171875
7966		-80.078125
7967		-76.171875
7968		-82.031250
7969		-76.171875
7970		-82.031250
7971		-78.125000
7972		-83.984375
7973		-76.171875
7974		-82.031250
7975		-78.125000
7976		-82.031250
7977		-78.125000
7978		-82.031250
7979		-78.125000
7980		-80.078125
7981		-78.125000
7982		-80.078125
7983		-76.171875
7984		-80.078125
7985		-76.171875
7986		-80.078125
7987		-74.218750
7988		-78.125000
7989		-72.265625
7990		-76.171875
7991		-72.265625
7992		-76.171875
7993		-70.312500
7994		-74.218750
7995		-68.359375
7996		-70.312500
7997		-66.406250
7998		-70.312500
7999		-64.453125
8000		-66.406250
8001		-60.546875
8002		-64.453125
8003		-58.593750
8004		-62.500000
8005		-56.640625
8006		-60.546875
8007		-52.734375
8008		-56.640625
8009		-48.828125
8010		-52.734375
8011		-46.875000
8012		-50.781250
8013		-44.921875
8014		-44.921875
8015		-41.015625
8016		-42.968750
8017		-35.156250
8018		-39.062500
8019		-33.203125
8020		-35.156250
8021		-29.296875
8022		-31.250000
8023		-23.437500
8024		-27.343750
8025		-21.484375
8026		-23.437500
8027		-17.578125
8028		-19.531250
8029		-13.671875
8030		-15.625000
8031		-9.765625
8032		-11.718750
8033		-5.859375
8034		-7.812500
8035		0.000000
8036		-3.906250
8037		3.906250
8038		1.953125
8039		7.812500
8040		3.906250
8041		11.718750
8042		9.765625
8043		15.625000
8044		11.718750
8045		19.531250
8046		17.578125
8047		21.484375
8048		21.484375
8049		25.390625
8050		25.390625
8051		31.250000
8052		29.296875
8053		35.156250
8054		33.203125
8055		37.109375
8056		35.156250
8057		41.015625
8058		39.062500
8059		44.921875
8060		42.968750
8061		48.828125
8062		46.875000
8063		50.781250
8064		48.828125
8065		54.687500
8066		52.734375
8067		58.593750
8068		54.687500
8069		60.546875
8070		56.640625
8071		62.500000
8072		60.546875
8073		66.406250
8074		62.500000
8075		66.406250
8076		66.406250
8077		70.312500
8078		68.359375
8079		72.265625
8080		70.312500
8081		74.218750
8082		72.265625
8083		74.218750
8084		74.218750
8085		76.171875
8086		74.218750
8087		78.125000
8088		76.171875
8089		80.078125
8090		76.171875
8091		82.031250
8092		78.125000
8093		82.031250
8094		78.125000
8095		82.031250
8096		80.078125
8097		83.984375
8098		80.078125
8099		82.031250
8100		80.078125
8101		83.984375
8102		80.078125
8103		83.984375
8104		80.078125
8105		83.984375
8106		78.125000
8107		83.984375
8108		80.078125
8109		83.984375
8110		80.078125
8111		82.031250
8112		78.125000
8113		82.031250
8114		76.171875
8115		80.078125
8116		76.171875
8117		80.078125
8118		74.218750
8119		80.078125
8120		74.218750
8121		78.125000
8122		72.265625
8123		76.171875
8124		70.312500
8125		74.218750
8126		66.406250
8127		72.265625
8128		66.406250
8129		70.312500
8130		64.453125
8131		68.359375
8132		60.546875
8133		64.453125
8134		58.593750
8135		62.500000
8136		54.687500
8137		60.546875
8138		52.734375
8139		58.593750
8140		48.828125
8141		54.687500
8142		46.875000
8143		50.781250
8144		42.968750
8145		48.828125
8146		39.062500
8147		44.921875
8148		35.156250
8149		41.015625
8150		33.203125
8151		37.109375
8152		29.296875
8153		35.156250
8154		25.390625
8155		31.250000
8156		19.531250
8157		27.343750
8158		17.578125
8159		21.484375
8160		13.671875
8161		19.531250
8162		7.812500
8163		15.625000
8164		5.859375
8165		9.765625
8166		1.953125
8167		5.859375
8168		-3.906250
8169		1.953125
8170		-5.859375
8171		-1.953125
8172		-11.718750
8173		-5.859375
8174		-15.625000
8175		-9.765625
8176		-19.531250
8177		-13.671875
8178		-23.437500
8179		-17.578125
8180		-27.343750
8181		-21.484375
8182		-31.250000
8183		-25.390625
8184		-35.156250
8185		-29.296875
8186		-39.062500
8187		-33.203125
8188		-42.968750
8189		-37.109375
8190		-44.921875
8191		-41.015625
8192		-50.781250
8193		-44.921875
8194		-52.734375
8195		-46.875000
8196		-56.640625
8197		-50.781250
8198		-58.593750
8199		-54.687500
8200		-60.546875
8201		-56.640625
8202		-64.453125
8203		-58.593750
8204		-66.406250
8205		-62.500000
8206		-68.359375
8207		-64.453125
8208		-72.265625
8209		-66.406250
8210		-72.265625
8211		-70.312500
8212		-74.218750
8213		-70.312500
8214		-76.171875
8215		-72.265625
8216		-78.125000
8217		-74.218750
8218		-78.125000
8219		-74.218750
8220		-80.078125
8221		-76.171875
8222		-80.078125
8223		-78.125000
8224		-82.031250
8225		-78.125000
8226		-82.031250
8227		-78.125000
8228		-82.031250
8229		-78.125000
8230		-82.031250
8231		-78.125000
8232		-82.031250
8233		-78.125000
8234		-80.078125
8235		-78.125000
8236		-82.031250
8237		-78.125000
8238		-80.078125
8239		-76.171875
8240		-78.125000
8241		-76.171875
8242		-76.171875
8243		-74.218750
8244		-76.171875
8245		-72.265625
8246		-74.218750
8247		-70.312500
8248		-72.265625
8249		-68.359375
8250		-70.312500
8251		-66.406250
8252		-68.359375
8253		-64.453125
8254		-66.406250
8255		-60.546875
8256		-62.500000
8257		-58.593750
8258		-60.546875
8259		-56.640625
8260		-58.593750
8261		-50.781250
8262		-54.687500
8263		-48.828125
8264		-50.781250
8265		-46.875000
8266		-46.875000
8267		-42.968750
8268		-44.921875
8269		-39.062500
8270		-41.015625
8271		-35.156250
8272		-37.109375
8273		-31.250000
8274		-33.203125
8275		-27.343750
8276		-29.296875
8277		-23.437500
8278		-25.390625
8279		-21.484375
8280		-21.484375
8281		-15.625000
8282		-17.578125
8283		-11.718750
8284		-13.671875
8285		-7.812500
8286		-9.765625
8287		-3.906250
8288		-5.859375
8289		0.000000
8290		-1.953125
8291		3.906250
8292		1.953125
8293		7.812500
8294		5.859375
8295		11.718750
8296		9.765625
8297		15.625000
8298		13.671875
8299		19.531250
8300		19.531250
8301		23.437500
8302		21.484375
8303		27.343750
8304		25.390625
8305		31.250000
8306		29.296875
8307		35.156250
8308		33.203125
8309		39.062500
8310		37.109375
8311		42.968750
8312		41.015625
8313		46.875000
8314		42.968750
8315		48.828125
8316		46.875000
8317		50.781250
8318		50.781250
8319		54.687500
8320		52.734375
8321		58.593750
8322		56.640625
8323		60.546875
8324		58.593750
8325		62.500000
8326		62.500000
8327		66.406250
8328		62.500000
8329		68.359375
8330		66.406250
8331		70.312500
8332		68.359375
8333		72.265625
8334		70.312500
8335		74.218750
8336		72.265625
8337		76.171875
8338		74.218750
8339		78.125000
8340		74.218750
8341		78.125000
8342		76.171875
8343		80.078125
8344		78.125000
8345		82.031250
8346		78.125000
8347		82.031250
8348		78.125000
8349		82.031250
8350		80.078125
8351		82.031250
8352		80.078125
8353		83.984375
8354		80.078125
8355		83.984375
8356		80.078125
8357		83.984375
8358		80.078125
8359		83.984375
8360		80.078125
8361		83.984375
8362		80.078125
8363		82.031250
8364		78.125000
8365		82.031250
8366		78.125000
8367		80.078125
8368		78.125000
8369		80.078125
8370		76.171875
8371		80.078125
8372		74.218750
8373		78.125000
8374		72.265625
8375		76.171875
8376		70.312500
8377		74.218750
8378		70.312500
8379		74.218750
8380		66.406250
8381		70.312500
8382		64.453125
8383		70.312500
8384		62.500000
8385		66.406250
8386		58.593750
8387		64.453125
8388		56.640625
8389		60.546875
8390		54.687500
8391		58.593750
8392		50.781250
8393		56.640625
8394		48.828125
8395		52.734375
8396		44.921875
8397		48.828125
8398		42.968750
8399		46.875000
8400		39.062500
8401		42.968750
8402		35.156250
8403		39.062500
8404		31.250000
8405		37.109375
8406		27.343750
8407		33.203125
8408		23.437500
8409		29.296875
8410		19.531250
8411		25.390625
8412		15.625000
8413		21.484375
8414		11.718750
8415		17.578125
8416		7.812500
8417		13.671875
8418		3.906250
8419		9.765625
8420		0.000000
8421		5.859375
8422		-3.906250
8423		1.953125
8424		-9.765625
8425		-3.906250
8426		-13.671875
8427		-7.812500
8428		-17.578125
8429		-11.718750
8430		-21.484375
8431		-15.625000
8432		-25.390625
8433		-19.531250
8434		-29.296875
8435		-23.437500
8436		-33.203125
8437		-27.343750
8438		-37.109375
8439		-31.250000
8440		-39.062500
8441		-35.156250
8442		-42.968750
8443		-37.109375
8444		-46.875000
8445		-42.968750
8446		-50.781250
8447		-44.921875
8448		-54.687500
8449		-48.828125
8450		-56.640625
8451		-50.781250
8452		-58.593750
8453		-54.687500
8454		-62.500000
8455		-58.593750
8456		-64.453125
8457		-60.546875
8458		-68.359375
8459		-62.500000
8460		-70.312500
8461		-66.406250
8462		-72.265625
8463		-66.406250
8464		-74.218750
8465		-70.312500
8466		-74.218750
8467		-72.265625
8468		-76.171875
8469		-74.218750
8470		-80.078125
8471		-74.218750
8472		-80.078125
8473		-76.171875
8474		-80.078125
8475		-76.171875
8476		-80.078125
8477		-78.125000
8478		-82.031250
8479		-78.125000
8480		-82.031250
8481		-78.125000
8482		-83.984375
8483		-78.125000
8484		-82.031250
8485		-78.125000
8486		-80.078125
8487		-80.078125
8488		-82.031250
8489		-78.125000
8490		-80.078125
8491		-76.171875
8492		-78.125000
8493		-76.171875
8494		-78.125000
8495		-74.218750
8496		-76.171875
8497		-74.218750
8498		-76.171875
8499		-72.265625
8500		-74.218750
8501		-70.312500
8502		-72.265625
8503		-68.359375
8504		-70.312500
8505		-66.406250
8506		-68.359375
8507		-62.500000
8508		-64.453125
8509		-60.546875
8510		-62.500000
8511		-56.640625
8512		-58.593750
8513		-54.687500
8514		-56.640625
8515		-50.781250
8516		-52.734375
8517		-48.828125
8518		-50.781250
8519		-44.921875
8520		-46.875000
8521		-41.015625
8522		-42.968750
8523		-37.109375
8524		-39.062500
8525		-35.156250
8526		-35.156250
8527		-31.250000
8528		-33.203125
8529		-27.343750
8530		-29.296875
8531		-23.437500
8532		-25.390625
8533		-17.578125
8534		-19.531250
8535		-15.625000
8536		-15.625000
8537		-11.718750
8538		-11.718750
8539		-5.859375
8540		-7.812500
8541		-1.953125
8542		-3.906250
8543		1.953125
8544		0.000000
8545		5.859375
8546		3.906250
8547		9.765625
8548		7.812500
8549		13.671875
8550		11.718750
8551		17.578125
8552		15.625000
8553		21.484375
8554		19.531250
8555		27.343750
8556		23.437500
8557		29.296875
8558		27.343750
8559		33.203125
8560		31.250000
8561		37.109375
8562		35.156250
8563		39.062500
8564		39.062500
8565		42.968750
8566		41.015625
8567		46.875000
8568		44.921875
8569		48.828125
8570		48.828125
8571		52.734375
8572		50.781250
8573		56.640625
8574		54.687500
8575		58.593750
8576		56.640625
8577		60.546875
8578		60.546875
8579		64.453125
8580		62.500000
8581		66.406250
8582		64.453125
8583		68.359375
8584		66.406250
8585		70.312500
8586		68.359375
8587		72.265625
8588		70.312500
8589		74.218750
8590		72.265625
8591		76.171875
8592		74.218750
8593		78.125000
8594		76.171875
8595		80.078125
8596		76.171875
8597		80.078125
8598		78.125000
8599		82.031250
8600		78.125000
8601		82.031250
8602		80.078125
8603		82.031250
8604		80.078125
8605		83.984375
8606		80.078125
8607		83.984375
8608		80.078125
8609		83.984375
8610		80.078125
8611		83.984375
8612		80.078125
8613		83.984375
8614		80.078125
8615		83.984375
8616		80.078125
8617		83.984375
8618		78.125000
8619		82.031250
8620		78.125000
8621		80.078125
8622		76.171875
8623		80.078125
8624		76.171875
8625		78.125000
8626		74.218750
8627		78.125000
8628		72.265625
8629		76.171875
8630		70.312500
8631		74.218750
8632		68.359375
8633		72.265625
8634		66.406250
8635		70.312500
8636		64.453125
8637		68.359375
8638		62.500000
8639		66.406250
8640		58.593750
8641		62.500000
8642		54.687500
8643		60.546875
8644		52.734375
8645		58.593750
8646		50.781250
8647		54.687500
8648		46.875000
8649		52.734375
8650		42.968750
8651		48.828125
8652		41.015625
8653		46.875000
8654		37.109375
8655		42.968750
8656		33.203125
8657		39.062500
8658		29.296875
8659		35.156250
8660		25.390625
8661		31.250000
8662		21.484375
8663		27.343750
8664		19.531250
8665		23.437500
8666		13.671875
8667		19.531250
8668		9.765625
8669		17.578125
8670		5.859375
8671		11.718750
8672		1.953125
8673		7.812500
8674		-1.953125
8675		3.906250
8676		-5.859375
8677		0.000000
8678		-9.765625
8679		-3.906250
8680		-13.671875
8681		-7.812500
8682		-17.578125
8683		-11.718750
8684		-21.484375
8685		-15.625000
8686		-25.390625
8687		-19.531250
8688		-31.250000
8689		-25.390625
8690		-33.203125
8691		-27.343750
8692		-37.109375
8693		-31.250000
8694		-41.015625
8695		-35.156250
8696		-44.921875
8697		-39.062500
8698		-48.828125
8699		-42.968750
8700		-52.734375
8701		-46.875000
8702		-54.687500
8703		-48.828125
8704		-56.640625
8705		-52.734375
8706		-60.546875
8707		-54.687500
8708		-62.500000
8709		-56.640625
8710		-66.406250
8711		-60.546875
8712		-68.359375
8713		-64.453125
8714		-70.312500
8715		-66.406250
8716		-72.265625
8717		-68.359375
8718		-74.218750
8719		-70.312500
8720		-76.171875
8721		-72.265625
8722		-76.171875
8723		-74.218750
8724		-78.125000
8725		-76.171875
8726		-80.078125
8727		-76.171875
8728		-80.078125
8729		-78.125000
8730		-82.031250
8731		-78.125000
8732		-82.031250
8733		-78.125000
8734		-82.031250
8735		-78.125000
8736		-82.031250
8737		-80.078125
8738		-82.031250
8739		-78.125000
8740		-82.031250
8741		-78.125000
8742		-80.078125
8743		-78.125000
8744		-80.078125
8745		-76.171875
8746		-78.125000
8747		-74.218750
8748		-78.125000
8749		-74.218750
8750		-76.171875
8751		-72.265625
8752		-76.171875
8753		-70.312500
8754		-72.265625
8755		-68.359375
8756		-70.312500
8757		-66.406250
8758		-68.359375
8759		-64.453125
8760		-66.406250
8761		-62.500000
8762		-64.453125
8763		-58.593750
8764		-60.546875
8765		-56.640625
8766		-58.593750
8767		-52.734375
8768		-54.687500
8769		-50.781250
8770		-52.734375
8771		-46.875000
8772		-48.828125
8773		-42.968750
8774		-44.921875
8775		-41.015625
8776		-41.015625
8777		-37.109375
8778		-39.062500
8779		-33.203125
8780		-35.156250
8781		-29.296875
8782		-31.250000
8783		-25.390625
8784		-27.343750
8785		-21.484375
8786		-23.437500
8787		-17.578125
8788		-19.531250
8789		-13.671875
8790		-13.671875
8791		-9.765625
8792		-11.718750
8793		-5.859375
8794		-7.812500
8795		-1.953125
8796		-3.906250
8797		3.906250
8798		1.953125
8799		7.812500
8800		5.859375
8801		11.718750
8802		9.765625
8803		15.625000
8804		13.671875
8805		19.531250
8806		17.578125
8807		23.437500
8808		21.484375
8809		27.343750
8810		25.390625
8811		29.296875
8812		29.296875
8813		33.203125
8814		33.203125
8815		39.062500
8816		37.109375
8817		41.015625
8818		39.062500
8819		44.921875
8820		42.968750
8821		46.875000
8822		46.875000
8823		50.781250
8824		48.828125
8825		54.687500
8826		52.734375
8827		56.640625
8828		54.687500
8829		60.546875
8830		58.593750
8831		62.500000
8832		60.546875
8833		64.453125
8834		62.500000
8835		68.359375
8836		64.453125
8837		70.312500
8838		68.359375
8839		72.265625
8840		68.359375
8841		74.218750
8842		70.312500
8843		76.171875
8844		74.218750
8845		76.171875
8846		74.218750
8847		78.125000
8848		76.171875
8849		80.078125
8850		78.125000
8851		80.078125
8852		78.125000
8853		82.031250
8854		80.078125
8855		82.031250
8856		80.078125
8857		82.031250
8858		80.078125
8859		83.984375
8860		80.078125
8861		83.984375
8862		80.078125
8863		83.984375
8864		80.078125
8865		83.984375
8866		80.078125
8867		83.984375
8868		80.078125
8869		83.984375
8870		80.078125
8871		82.031250
8872		78.125000
8873		82.031250
8874		76.171875
8875		82.031250
8876		76.171875
8877		80.078125
8878		74.218750
8879		78.125000
8880		74.218750
8881		78.125000
8882		72.265625
8883		76.171875
8884		68.359375
8885		74.218750
8886		68.359375
8887		72.265625
8888		66.406250
8889		70.312500
8890		62.500000
8891		66.406250
8892		60.546875
8893		64.453125
8894		58.593750
8895		62.500000
8896		54.687500
8897		60.546875
8898		52.734375
8899		56.640625
8900		48.828125
8901		54.687500
8902		44.921875
8903		50.781250
8904		42.968750
8905		48.828125
8906		39.062500
8907		44.921875
8908		35.156250
8909		41.015625
8910		33.203125
8911		37.109375
8912		29.296875
8913		33.203125
8914		25.390625
8915		29.296875
8916		21.484375
8917		27.343750
8918		15.625000
8919		23.437500
8920		13.671875
8921		19.531250
8922		9.765625
8923		13.671875
8924		3.906250
8925		9.765625
8926		0.000000
8927		5.859375
8928		-3.906250
8929		1.953125
8930		-7.812500
8931		-1.953125
8932		-11.718750
8933		-5.859375
8934		-15.625000
8935		-9.765625
8936		-19.531250
8937		-13.671875
8938		-23.437500
8939		-17.578125
8940		-27.343750
8941		-21.484375
8942		-31.250000
8943		-25.390625
8944		-35.156250
8945		-29.296875
8946		-39.062500
8947		-33.203125
8948		-42.968750
8949		-37.109375
8950		-46.875000
8951		-41.015625
8952		-50.781250
8953		-42.968750
8954		-52.734375
8955		-46.875000
8956		-54.687500
8957		-50.781250
8958		-58.593750
8959		-52.734375
8960		-62.500000
8961		-56.640625
8962		-64.453125
8963		-60.546875
8964		-66.406250
8965		-62.500000
8966		-68.359375
8967		-64.453125
8968		-72.265625
8969		-66.406250
8970		-74.218750
8971		-68.359375
8972		-74.218750
8973		-70.312500
8974		-76.171875
8975		-72.265625
8976		-78.125000
8977		-74.218750
8978		-80.078125
8979		-76.171875
8980		-80.078125
8981		-76.171875
8982		-82.031250
8983		-78.125000
8984		-82.031250
8985		-78.125000
8986		-83.984375
8987		-78.125000
8988		-82.031250
8989		-80.078125
8990		-82.031250
8991		-80.078125
8992		-82.031250
8993		-78.125000
8994		-82.031250
8995		-78.125000
8996		-80.078125
8997		-78.125000
8998		-80.078125
8999		-76.171875
9000		-78.125000
9001		-74.218750
9002		-78.125000
9003		-72.265625
9004		-76.171875
9005		-72.265625
9006		-74.218750
9007		-70.312500
9008		-72.265625
9009		-68.359375
9010		-70.312500
9011		-66.406250
9012		-68.359375
9013		-62.500000
9014		-64.453125
9015		-60.546875
9016		-64.453125
9017		-58.593750
9018		-60.546875
9019		-54.687500
9020		-58.593750
9021		-52.734375
9022		-54.687500
9023		-48.828125
9024		-50.781250
9025		-46.875000
9026		-48.828125
9027		-42.968750
9028		-44.921875
9029		-39.062500
9030		-41.015625
9031		-35.156250
9032		-37.109375
9033		-31.250000
9034		-33.203125
9035		-27.343750
9036		-29.296875
9037		-23.437500
9038		-27.343750
9039		-19.531250
9040		-21.484375
9041		-15.625000
9042		-17.578125
9043		-11.718750
9044		-13.671875
9045		-7.812500
9046		-9.765625
9047		-3.906250
9048		-5.859375
9049		0.000000
9050		-1.953125
9051		3.906250
9052		1.953125
9053		7.812500
9054		5.859375
9055		11.718750
9056		11.718750
9057		15.625000
9058		15.625000
9059		21.484375
9060		19.531250
9061		25.390625
9062		21.484375
9063		27.343750
9064		25.390625
9065		31.250000
9066		29.296875
9067		35.156250
9068		33.203125
9069		39.062500
9070		37.109375
9071		42.968750
9072		41.015625
9073		44.921875
9074		44.921875
9075		48.828125
9076		46.875000
9077		52.734375
9078		50.781250
9079		54.687500
9080		52.734375
9081		58.593750
9082		56.640625
9083		60.546875
9084		58.593750
9085		62.500000
9086		62.500000
9087		66.406250
9088		64.453125
9089		68.359375
9090		66.406250
9091		70.312500
9092		68.359375
9093		72.265625
9094		70.312500
9095		74.218750
9096		72.265625
9097		76.171875
9098		74.218750
9099		76.171875
9100		76.171875
9101		78.125000
9102		76.171875
9103		80.078125
9104		78.125000
9105		82.031250
9106		78.125000
9107		82.031250
9108		80.078125
9109		82.031250
9110		78.125000
9111		83.984375
9112		80.078125
9113		83.984375
9114		80.078125
9115		83.984375
9116		80.078125
9117		83.984375
9118		80.078125
9119		83.984375
9120		80.078125
9121		83.984375
9122		80.078125
9123		83.984375
9124		80.078125
9125		82.031250
9126		78.125000
9127		82.031250
9128		78.125000
9129		80.078125
9130		76.171875
9131		78.125000
9132		74.218750
9133		78.125000
9134		72.265625
9135		76.171875
9136		72.265625
9137		76.171875
9138		70.312500
9139		74.218750
9140		68.359375
9141		70.312500
9142		64.453125
9143		68.359375
9144		62.500000
9145		66.406250
9146		60.546875
9147		64.453125
9148		56.640625
9149		62.500000
9150		54.687500
9151		58.593750
9152		50.781250
9153		56.640625
9154		48.828125
9155		52.734375
9156		44.921875
9157		50.781250
9158		41.015625
9159		46.875000
9160		37.109375
9161		42.968750
9162		35.156250
9163		39.062500
9164		31.250000
9165		37.109375
9166		27.343750
9167		33.203125
9168		23.437500
9169		29.296875
9170		19.531250
9171		25.390625
9172		15.625000
9173		21.484375
9174		11.718750
9175		17.578125
9176		5.859375
9177		13.671875
9178		3.906250
9179		9.765625
9180		0.000000
9181		5.859375
9182		-3.906250
9183		0.000000
9184		-9.765625
9185		-1.953125
9186		-11.718750
9187		-7.812500
9188		-17.578125
9189		-9.765625
9190		-19.531250
9191		-15.625000
9192		-23.437500
9193		-19.531250
9194		-29.296875
9195		-23.437500
9196		-33.203125
9197		-27.343750
9198		-35.156250
9199		-31.250000
9200		-41.015625
9201		-35.156250
9202		-42.968750
9203		-39.062500
9204		-46.875000
9205		-41.015625
9206		-48.828125
9207		-44.921875
9208		-52.734375
9209		-48.828125
9210		-56.640625
9211		-52.734375
9212		-58.593750
9213		-54.687500
9214		-62.500000
9215		-58.593750
9216		-64.453125
9217		-60.546875
9218		-66.406250
9219		-62.500000
9220		-70.312500
9221		-64.453125
9222		-72.265625
9223		-66.406250
9224		-74.218750
9225		-70.312500
9226		-76.171875
9227		-72.265625
9228		-78.125000
9229		-72.265625
9230		-78.125000
9231		-74.218750
9232		-80.078125
9233		-76.171875
9234		-80.078125
9235		-76.171875
9236		-80.078125
9237		-78.125000
9238		-82.031250
9239		-78.125000
9240		-82.031250
9241		-78.125000
9242		-82.031250
9243		-80.078125
9244		-82.031250
9245		-78.125000
9246		-82.031250
9247		-78.125000
9248		-80.078125
9249		-78.125000
9250		-80.078125
9251		-76.171875
9252		-78.125000
9253		-76.171875
9254		-78.125000
9255		-74.218750
9256		-76.171875
9257		-74.218750
9258		-74.218750
9259		-72.265625
9260		-72.265625
9261		-68.359375
9262		-72.265625
9263		-68.359375
9264		-68.359375
9265		-64.453125
9266		-66.406250
9267		-62.500000
9268		-64.453125
9269		-60.546875
9270		-62.500000
9271		-58.593750
9272		-58.593750
9273		-52.734375
9274		-56.640625
9275		-50.781250
9276		-52.734375
9277		-48.828125
9278		-50.781250
9279		-44.921875
9280		-46.875000
9281		-41.015625
9282		-42.968750
9283		-37.109375
9284		-39.062500
9285		-33.203125
9286		-35.156250
9287		-29.296875
9288		-31.250000
9289		-25.390625
9290		-29.296875
9291		-23.437500
9292		-23.437500
9293		-19.531250
9294		-19.531250
9295		-15.625000
9296		-15.625000
9297		-9.765625
9298		-11.718750
9299		-7.812500
9300		-7.812500
9301		-1.953125
9302		-3.906250
9303		1.953125
9304		0.000000
9305		5.859375
9306		3.906250
9307		9.765625
9308		7.812500
9309		13.671875
9310		11.718750
9311		19.531250
9312		15.625000
9313		21.484375
9314		19.531250
9315		25.390625
9316		23.437500
9317		29.296875
9318		27.343750
9319		33.203125
9320		31.250000
9321		37.109375
9322		35.156250
9323		41.015625
9324		39.062500
9325		42.968750
9326		42.968750
9327		46.875000
9328		44.921875
9329		50.781250
9330		46.875000
9331		52.734375
9332		50.781250
9333		56.640625
9334		54.687500
9335		58.593750
9336		56.640625
9337		62.500000
9338		60.546875
9339		64.453125
9340		62.500000
9341		66.406250
9342		64.453125
9343		68.359375
9344		66.406250
9345		70.312500
9346		70.312500
9347		74.218750
9348		70.312500
9349		74.218750
9350		72.265625
9351		76.171875
9352		74.218750
9353		78.125000
9354		76.171875
9355		80.078125
9356		76.171875
9357		82.031250
9358		78.125000
9359		80.078125
9360		80.078125
9361		82.031250
9362		78.125000
9363		83.984375
9364		80.078125
9365		83.984375
9366		82.031250
9367		83.984375
9368		80.078125
9369		83.984375
9370		80.078125
9371		83.984375
9372		80.078125
9373		83.984375
9374		80.078125
9375		83.984375
9376		80.078125
9377		82.031250
9378		78.125000
9379		82.031250
9380		78.125000
9381		82.031250
9382		76.171875
9383		80.078125
9384		74.218750
9385		80.078125
9386		74.218750
9387		78.125000
9388		72.265625
9389		76.171875
9390		70.312500
9391		74.218750
9392		68.359375
9393		72.265625
9394		66.406250
9395		70.312500
9396		64.453125
9397		68.359375
9398		62.500000
9399		66.406250
9400		58.593750
9401		62.500000
9402		56.640625
9403		60.546875
9404		52.734375
9405		58.593750
9406		48.828125
9407		54.687500
9408		46.875000
9409		52.734375
9410		44.921875
9411		48.828125
9412		41.015625
9413		44.921875
9414		37.109375
9415		42.968750
9416		33.203125
9417		39.062500
9418		29.296875
9419		35.156250
9420		25.390625
9421		31.250000
9422		21.484375
9423		27.343750
9424		17.578125
9425		23.437500
9426		13.671875
9427		19.531250
9428		9.765625
9429		15.625000
9430		5.859375
9431		11.718750
9432		1.953125
9433		7.812500
9434		-1.953125
9435		3.906250
9436		-5.859375
9437		0.000000
9438		-9.765625
9439		-3.906250
9440		-13.671875
9441		-7.812500
9442		-17.578125
9443		-11.718750
9444		-21.484375
9445		-15.625000
9446		-25.390625
9447		-19.531250
9448		-29.296875
9449		-23.437500
9450		-33.203125
9451		-27.343750
9452		-37.109375
9453		-31.250000
9454		-41.015625
9455		-35.156250
9456		-44.921875
9457		-39.062500
9458		-46.875000
9459		-42.968750
9460		-50.781250
9461		-46.875000
9462		-54.687500
9463		-50.781250
9464		-56.640625
9465		-52.734375
9466		-60.546875
9467		-56.640625
9468		-62.500000
9469		-58.593750
9470		-64.453125
9471		-60.546875
9472		-68.359375
9473		-64.453125
9474		-70.312500
9475		-66.406250
9476		-72.265625
9477		-68.359375
9478		-74.218750
9479		-70.312500
9480		-76.171875
9481		-72.265625
9482		-78.125000
9483		-74.218750
9484		-78.125000
9485		-76.171875
9486		-80.078125
9487		-76.171875
9488		-80.078125
9489		-76.171875
9490		-82.031250
9491		-78.125000
9492		-80.078125
9493		-78.125000
9494		-82.031250
9495		-78.125000
9496		-82.031250
9497		-78.125000
9498		-82.031250
9499		-78.125000
9500		-80.078125
9501		-78.125000
9502		-80.078125
9503		-78.125000
9504		-80.078125
9505		-76.171875
9506		-78.125000
9507		-76.171875
9508		-78.125000
9509		-74.218750
9510		-76.171875
9511		-72.265625
9512		-74.218750
9513		-70.312500
9514		-74.218750
9515		-68.359375
9516		-70.312500
9517		-66.406250
9518		-68.359375
9519		-64.453125
9520		-66.406250
9521		-60.546875
9522		-64.453125
9523		-58.593750
9524		-60.546875
9525		-56.640625
9526		-58.593750
9527		-52.734375
9528		-54.687500
9529		-50.781250
9530		-52.734375
9531		-46.875000
9532		-48.828125
9533		-42.968750
9534		-46.875000
9535		-41.015625
9536		-41.015625
9537		-37.109375
9538		-39.062500
9539		-33.203125
9540		-35.156250
9541		-29.296875
9542		-31.250000
9543		-25.390625
9544		-27.343750
9545		-21.484375
9546		-23.437500
9547		-17.578125
9548		-19.531250
9549		-13.671875
9550		-15.625000
9551		-9.765625
9552		-9.765625
9553		-5.859375
9554		-7.812500
9555		-1.953125
9556		-1.953125
9557		3.906250
9558		1.953125
9559		7.812500
9560		5.859375
9561		11.718750
9562		9.765625
9563		15.625000
9564		11.718750
9565		19.531250
9566		17.578125
9567		23.437500
9568		21.484375
9569		27.343750
9570		25.390625
9571		31.250000
9572		29.296875
9573		35.156250
9574		33.203125
9575		37.109375
9576		35.156250
9577		41.015625
9578		39.062500
9579		44.921875
9580		42.968750
9581		48.828125
9582		44.921875
9583		50.781250
9584		48.828125
9585		54.687500
9586		52.734375
9587		56.640625
9588		56.640625
9589		60.546875
9590		56.640625
9591		62.500000
9592		60.546875
9593		64.453125
9594		64.453125
9595		66.406250
9596		66.406250
9597		70.312500
9598		68.359375
9599		72.265625
9600		70.312500
9601		74.218750
9602		72.265625
9603		76.171875
9604		74.218750
9605		76.171875
9606		76.171875
9607		78.125000
9608		76.171875
9609		80.078125
9610		78.125000
9611		80.078125
9612		78.125000
9613		82.031250
9614		80.078125
9615		82.031250
9616		80.078125
9617		83.984375
9618		80.078125
9619		83.984375
9620		80.078125
9621		83.984375
9622		82.031250
9623		83.984375
9624		82.031250
9625		83.984375
9626		80.078125
9627		83.984375
9628		80.078125
9629		83.984375
9630		78.125000
9631		82.031250
9632		78.125000
9633		82.031250
9634		78.125000
9635		80.078125
9636		76.171875
9637		80.078125
9638		74.218750
9639		78.125000
9640		74.218750
9641		78.125000
9642		72.265625
9643		76.171875
9644		70.312500
9645		74.218750
9646		68.359375
9647		72.265625
9648		66.406250
9649		70.312500
9650		62.500000
9651		68.359375
9652		60.546875
9653		64.453125
9654		58.593750
9655		62.500000
9656		54.687500
9657		60.546875
9658		52.734375
9659		58.593750
9660		48.828125
9661		54.687500
9662		46.875000
9663		50.781250
9664		42.968750
9665		48.828125
9666		39.062500
9667		44.921875
9668		37.109375
9669		41.015625
9670		33.203125
9671		39.062500
9672		29.296875
9673		35.156250
9674		25.390625
9675		31.250000
9676		21.484375
9677		27.343750
9678		17.578125
9679		21.484375
9680		13.671875
9681		19.531250
9682		7.812500
9683		15.625000
9684		5.859375
9685		9.765625
9686		1.953125
9687		7.812500
9688		-1.953125
9689		1.953125
9690		-7.812500
9691		-1.953125
9692		-11.718750
9693		-5.859375
9694		-15.625000
9695		-9.765625
9696		-19.531250
9697		-13.671875
9698		-23.437500
9699		-17.578125
9700		-27.343750
9701		-21.484375
9702		-31.250000
9703		-25.390625
9704		-35.156250
9705		-29.296875
9706		-39.062500
9707		-33.203125
9708		-41.015625
9709		-37.109375
9710		-44.921875
9711		-41.015625
9712		-48.828125
9713		-44.921875
9714		-52.734375
9715		-46.875000
9716		-54.687500
9717		-50.781250
9718		-58.593750
9719		-52.734375
9720		-60.546875
9721		-56.640625
9722		-64.453125
9723		-58.593750
9724		-66.406250
9725		-62.500000
9726		-68.359375
9727		-64.453125
9728		-70.312500
9729		-66.406250
9730		-72.265625
9731		-68.359375
9732		-74.218750
9733		-70.312500
9734		-76.171875
9735		-72.265625
9736		-78.125000
9737		-74.218750
9738		-78.125000
9739		-76.171875
9740		-80.078125
9741		-76.171875
9742		-80.078125
9743		-76.171875
9744		-82.031250
9745		-78.125000
9746		-82.031250
9747		-78.125000
9748		-82.031250
9749		-78.125000
9750		-82.031250
9751		-78.125000
9752		-82.031250
9753		-78.125000
9754		-80.078125
9755		-78.125000
9756		-82.031250
9757		-76.171875
9758		-80.078125
9759		-74.218750
9760		-78.125000
9761		-74.218750
9762		-76.171875
9763		-74.218750
9764		-76.171875
9765		-70.312500
9766		-74.218750
9767		-70.312500
9768		-72.265625
9769		-68.359375
9770		-70.312500
9771		-66.406250
9772		-68.359375
9773		-60.546875
9774		-66.406250
9775		-60.546875
9776		-64.453125
9777		-56.640625
9778		-60.546875
9779		-54.687500
9780		-56.640625
9781		-52.734375
9782		-54.687500
9783		-46.875000
9784		-52.734375
9785		-44.921875
9786		-48.828125
9787		-41.015625
9788		-46.875000
9789		-37.109375
9790		-42.968750
9791		-33.203125
9792		-39.062500
9793		-29.296875
9794		-35.156250
9795		-27.343750
9796		-29.296875
9797		-23.437500
9798		-25.390625
9799		-17.578125
9800		-21.484375
9801		-13.671875
9802		-17.578125
9803		-9.765625
9804		-13.671875
9805		-5.859375
9806		-9.765625
9807		-1.953125
9808		-7.812500
9809		1.953125
9810		-3.906250
9811		3.906250
9812		1.953125
9813		7.812500
9814		7.812500
9815		11.718750
9816		9.765625
9817		17.578125
9818		13.671875
9819		21.484375
9820		17.578125
9821		27.343750
9822		21.484375
9823		31.250000
9824		25.390625
9825		33.203125
9826		29.296875
9827		37.109375
9828		33.203125
9829		39.062500
9830		37.109375
9831		42.968750
9832		41.015625
9833		48.828125
9834		41.015625
9835		50.781250
9836		46.875000
9837		54.687500
9838		48.828125
9839		56.640625
9840		52.734375
9841		60.546875
9842		54.687500
9843		62.500000
9844		56.640625
9845		64.453125
9846		62.500000
9847		66.406250
9848		64.453125
9849		70.312500
9850		64.453125
9851		72.265625
9852		66.406250
9853		74.218750
9854		68.359375
9855		76.171875
9856		70.312500
9857		78.125000
9858		72.265625
9859		80.078125
9860		74.218750
9861		80.078125
9862		76.171875
9863		80.078125
9864		78.125000
9865		82.031250
9866		76.171875
9867		83.984375
9868		78.125000
9869		83.984375
9870		78.125000
9871		83.984375
9872		78.125000
9873		85.937500
9874		78.125000
9875		85.937500
9876		78.125000
9877		85.937500
9878		80.078125
9879		83.984375
9880		80.078125
9881		82.031250
9882		78.125000
9883		83.984375
9884		78.125000
9885		83.984375
9886		76.171875
9887		83.984375
9888		76.171875
9889		82.031250
9890		74.218750
9891		80.078125
9892		72.265625
9893		80.078125
9894		72.265625
9895		78.125000
9896		72.265625
9897		74.218750
9898		70.312500
9899		74.218750
9900		64.453125
9901		72.265625
9902		62.500000
9903		70.312500
9904		60.546875
9905		68.359375
9906		58.593750
9907		66.406250
9908		54.687500
9909		64.453125
9910		52.734375
9911		60.546875
9912		52.734375
9913		56.640625
9914		48.828125
9915		52.734375
9916		42.968750
9917		50.781250
9918		41.015625
9919		48.828125
9920		37.109375
9921		44.921875
9922		33.203125
9923		41.015625
9924		29.296875
9925		39.062500
9926		25.390625
9927		35.156250
9928		23.437500
9929		31.250000
9930		19.531250
9931		25.390625
9932		13.671875
9933		21.484375
9934		9.765625
9935		19.531250
9936		7.812500
9937		15.625000
9938		1.953125
9939		11.718750
9940		-1.953125
9941		7.812500
9942		-7.812500
9943		3.906250
9944		-9.765625
9945		-1.953125
9946		-11.718750
9947		-7.812500
9948		-15.625000
9949		-11.718750
9950		-23.437500
9951		-15.625000
9952		-25.390625
9953		-15.625000
9954		-31.250000
9955		-21.484375
9956		-35.156250
9957		-25.390625
9958		-37.109375
9959		-27.343750
9960		-41.015625
9961		-33.203125
9962		-42.968750
9963		-35.156250
9964		-46.875000
9965		-41.015625
9966		-50.781250
9967		-44.921875
9968		-54.687500
9969		-46.875000
9970		-58.593750
9971		-48.828125
9972		-60.546875
9973		-52.734375
9974		-64.453125
9975		-54.687500
9976		-66.406250
9977		-58.593750
9978		-68.359375
9979		-60.546875
9980		-68.359375
9981		-66.406250
9982		-70.312500
9983		-68.359375
9984		-76.171875
9985		-68.359375
9986		-78.125000
9987		-70.312500
9988		-78.125000
9989		-70.312500
9990		-80.078125
9991		-72.265625
9992		-80.078125
9993		-72.265625
9994		-82.031250
9995		-74.218750
9996		-82.031250
9997		-76.171875
9998		-80.078125
9999		-78.125000
10000		-83.984375
