Channel              :		CH1
Frequency            :		1.973kHz
Period               :		0.507ms
PK-PK                :		148.4mV
Probe attenuation    :		1X
Voltage per ADC value:		0.122070mV
Time interval        :		2.00000us

index		CH1_Voltage(mV)
1		74.218750
2		74.218750
3		70.312500
4		74.218750
5		70.312500
6		74.218750
7		70.312500
8		74.218750
9		70.312500
10		74.218750
11		70.312500
12		72.265625
13		68.359375
14		72.265625
15		66.406250
16		72.265625
17		66.406250
18		70.312500
19		66.406250
20		68.359375
21		64.453125
22		68.359375
23		62.500000
24		66.406250
25		60.546875
26		64.453125
27		58.593750
28		62.500000
29		56.640625
30		60.546875
31		52.734375
32		58.593750
33		52.734375
34		56.640625
35		50.781250
36		54.687500
37		46.875000
38		50.781250
39		44.921875
40		48.828125
41		41.015625
42		46.875000
43		39.062500
44		42.968750
45		37.109375
46		41.015625
47		33.203125
48		37.109375
49		31.250000
50		35.156250
51		27.343750
52		33.203125
53		23.437500
54		29.296875
55		21.484375
56		25.390625
57		17.578125
58		21.484375
59		13.671875
60		19.531250
61		11.718750
62		15.625000
63		7.812500
64		11.718750
65		3.906250
66		9.765625
67		1.953125
68		5.859375
69		-1.953125
70		1.953125
71		-5.859375
72		0.000000
73		-9.765625
74		-3.906250
75		-11.718750
76		-7.812500
77		-15.625000
78		-9.765625
79		-19.531250
80		-13.671875
81		-21.484375
82		-17.578125
83		-25.390625
84		-19.531250
85		-27.343750
86		-23.437500
87		-31.250000
88		-27.343750
89		-33.203125
90		-29.296875
91		-37.109375
92		-31.250000
93		-39.062500
94		-35.156250
95		-41.015625
96		-37.109375
97		-44.921875
98		-39.062500
99		-46.875000
100		-42.968750
101		-48.828125
102		-44.921875
103		-50.781250
104		-46.875000
105		-52.734375
106		-48.828125
107		-54.687500
108		-50.781250
109		-56.640625
110		-50.781250
111		-56.640625
112		-54.687500
113		-58.593750
114		-54.687500
115		-58.593750
116		-54.687500
117		-60.546875
118		-56.640625
119		-60.546875
120		-58.593750
121		-62.500000
122		-58.593750
123		-62.500000
124		-58.593750
125		-62.500000
126		-60.546875
127		-62.500000
128		-58.593750
129		-62.500000
130		-58.593750
131		-62.500000
132		-58.593750
133		-62.500000
134		-58.593750
135		-60.546875
136		-58.593750
137		-60.546875
138		-56.640625
139		-60.546875
140		-56.640625
141		-58.593750
142		-54.687500
143		-56.640625
144		-52.734375
145		-54.687500
146		-50.781250
147		-54.687500
148		-50.781250
149		-52.734375
150		-46.875000
151		-50.781250
152		-46.875000
153		-46.875000
154		-44.921875
155		-46.875000
156		-41.015625
157		-44.921875
158		-39.062500
159		-41.015625
160		-37.109375
161		-39.062500
162		-35.156250
163		-35.156250
164		-31.250000
165		-33.203125
166		-29.296875
167		-29.296875
168		-25.390625
169		-27.343750
170		-23.437500
171		-23.437500
172		-17.578125
173		-21.484375
174		-15.625000
175		-17.578125
176		-13.671875
177		-15.625000
178		-9.765625
179		-11.718750
180		-5.859375
181		-7.812500
182		-3.906250
183		-3.906250
184		1.953125
185		-1.953125
186		3.906250
187		1.953125
188		7.812500
189		5.859375
190		11.718750
191		9.765625
192		13.671875
193		11.718750
194		17.578125
195		15.625000
196		21.484375
197		17.578125
198		23.437500
199		21.484375
200		27.343750
201		25.390625
202		29.296875
203		27.343750
204		33.203125
205		31.250000
206		35.156250
207		33.203125
208		39.062500
209		37.109375
210		41.015625
211		39.062500
212		44.921875
213		42.968750
214		46.875000
215		44.921875
216		48.828125
217		46.875000
218		52.734375
219		48.828125
220		54.687500
221		52.734375
222		56.640625
223		52.734375
224		58.593750
225		56.640625
226		60.546875
227		58.593750
228		62.500000
229		58.593750
230		64.453125
231		62.500000
232		66.406250
233		64.453125
234		68.359375
235		64.453125
236		68.359375
237		66.406250
238		70.312500
239		68.359375
240		70.312500
241		68.359375
242		72.265625
243		70.312500
244		72.265625
245		70.312500
246		74.218750
247		70.312500
248		74.218750
249		70.312500
250		74.218750
251		70.312500
252		74.218750
253		72.265625
254		74.218750
255		72.265625
256		74.218750
257		70.312500
258		74.218750
259		70.312500
260		74.218750
261		70.312500
262		74.218750
263		70.312500
264		74.218750
265		68.359375
266		72.265625
267		68.359375
268		72.265625
269		66.406250
270		70.312500
271		66.406250
272		68.359375
273		64.453125
274		68.359375
275		62.500000
276		66.406250
277		60.546875
278		64.453125
279		60.546875
280		62.500000
281		56.640625
282		62.500000
283		54.687500
284		60.546875
285		52.734375
286		58.593750
287		50.781250
288		54.687500
289		48.828125
290		52.734375
291		44.921875
292		50.781250
293		42.968750
294		48.828125
295		41.015625
296		44.921875
297		37.109375
298		42.968750
299		35.156250
300		39.062500
301		31.250000
302		37.109375
303		29.296875
304		33.203125
305		25.390625
306		31.250000
307		21.484375
308		29.296875
309		19.531250
310		25.390625
311		15.625000
312		21.484375
313		13.671875
314		17.578125
315		9.765625
316		13.671875
317		5.859375
318		11.718750
319		3.906250
320		7.812500
321		0.000000
322		3.906250
323		-3.906250
324		1.953125
325		-7.812500
326		-1.953125
327		-9.765625
328		-5.859375
329		-13.671875
330		-9.765625
331		-17.578125
332		-11.718750
333		-19.531250
334		-15.625000
335		-23.437500
336		-17.578125
337		-25.390625
338		-21.484375
339		-31.250000
340		-25.390625
341		-33.203125
342		-27.343750
343		-35.156250
344		-29.296875
345		-39.062500
346		-33.203125
347		-41.015625
348		-35.156250
349		-42.968750
350		-39.062500
351		-44.921875
352		-41.015625
353		-46.875000
354		-42.968750
355		-48.828125
356		-44.921875
357		-52.734375
358		-46.875000
359		-52.734375
360		-48.828125
361		-54.687500
362		-50.781250
363		-56.640625
364		-52.734375
365		-58.593750
366		-54.687500
367		-58.593750
368		-54.687500
369		-60.546875
370		-56.640625
371		-60.546875
372		-58.593750
373		-62.500000
374		-58.593750
375		-62.500000
376		-58.593750
377		-62.500000
378		-58.593750
379		-62.500000
380		-58.593750
381		-62.500000
382		-58.593750
383		-62.500000
384		-58.593750
385		-62.500000
386		-58.593750
387		-60.546875
388		-58.593750
389		-60.546875
390		-56.640625
391		-60.546875
392		-56.640625
393		-58.593750
394		-54.687500
395		-58.593750
396		-54.687500
397		-56.640625
398		-52.734375
399		-54.687500
400		-50.781250
401		-52.734375
402		-48.828125
403		-52.734375
404		-48.828125
405		-48.828125
406		-44.921875
407		-46.875000
408		-42.968750
409		-44.921875
410		-41.015625
411		-42.968750
412		-39.062500
413		-41.015625
414		-35.156250
415		-37.109375
416		-33.203125
417		-35.156250
418		-29.296875
419		-31.250000
420		-27.343750
421		-29.296875
422		-23.437500
423		-27.343750
424		-21.484375
425		-25.390625
426		-19.531250
427		-19.531250
428		-15.625000
429		-17.578125
430		-11.718750
431		-13.671875
432		-9.765625
433		-11.718750
434		-5.859375
435		-7.812500
436		-1.953125
437		-3.906250
438		1.953125
439		0.000000
440		3.906250
441		1.953125
442		7.812500
443		5.859375
444		11.718750
445		9.765625
446		15.625000
447		13.671875
448		17.578125
449		15.625000
450		21.484375
451		19.531250
452		25.390625
453		21.484375
454		27.343750
455		25.390625
456		31.250000
457		29.296875
458		33.203125
459		31.250000
460		37.109375
461		35.156250
462		39.062500
463		37.109375
464		42.968750
465		41.015625
466		44.921875
467		42.968750
468		48.828125
469		46.875000
470		50.781250
471		48.828125
472		52.734375
473		50.781250
474		54.687500
475		52.734375
476		56.640625
477		54.687500
478		58.593750
479		56.640625
480		60.546875
481		58.593750
482		64.453125
483		60.546875
484		64.453125
485		62.500000
486		66.406250
487		62.500000
488		68.359375
489		66.406250
490		68.359375
491		66.406250
492		70.312500
493		68.359375
494		70.312500
495		68.359375
496		72.265625
497		68.359375
498		72.265625
499		70.312500
500		74.218750
501		70.312500
502		74.218750
503		70.312500
504		74.218750
505		72.265625
506		74.218750
507		72.265625
508		74.218750
509		70.312500
510		74.218750
511		70.312500
512		74.218750
513		70.312500
514		74.218750
515		70.312500
516		72.265625
517		68.359375
518		72.265625
519		66.406250
520		72.265625
521		68.359375
522		70.312500
523		66.406250
524		70.312500
525		64.453125
526		68.359375
527		64.453125
528		66.406250
529		62.500000
530		66.406250
531		60.546875
532		64.453125
533		56.640625
534		62.500000
535		56.640625
536		60.546875
537		54.687500
538		58.593750
539		52.734375
540		56.640625
541		48.828125
542		54.687500
543		46.875000
544		52.734375
545		44.921875
546		48.828125
547		41.015625
548		46.875000
549		39.062500
550		42.968750
551		37.109375
552		41.015625
553		33.203125
554		39.062500
555		31.250000
556		35.156250
557		27.343750
558		31.250000
559		25.390625
560		29.296875
561		21.484375
562		25.390625
563		17.578125
564		23.437500
565		15.625000
566		19.531250
567		11.718750
568		17.578125
569		7.812500
570		13.671875
571		3.906250
572		9.765625
573		1.953125
574		5.859375
575		-1.953125
576		1.953125
577		-5.859375
578		0.000000
579		-7.812500
580		-3.906250
581		-11.718750
582		-7.812500
583		-15.625000
584		-9.765625
585		-19.531250
586		-13.671875
587		-21.484375
588		-17.578125
589		-25.390625
590		-19.531250
591		-27.343750
592		-23.437500
593		-31.250000
594		-25.390625
595		-35.156250
596		-29.296875
597		-37.109375
598		-31.250000
599		-39.062500
600		-35.156250
601		-42.968750
602		-37.109375
603		-44.921875
604		-41.015625
605		-46.875000
606		-41.015625
607		-48.828125
608		-44.921875
609		-50.781250
610		-46.875000
611		-52.734375
612		-48.828125
613		-54.687500
614		-50.781250
615		-56.640625
616		-50.781250
617		-56.640625
618		-52.734375
619		-58.593750
620		-54.687500
621		-60.546875
622		-56.640625
623		-60.546875
624		-58.593750
625		-62.500000
626		-58.593750
627		-62.500000
628		-58.593750
629		-62.500000
630		-58.593750
631		-62.500000
632		-60.546875
633		-62.500000
634		-60.546875
635		-62.500000
636		-60.546875
637		-62.500000
638		-58.593750
639		-62.500000
640		-58.593750
641		-60.546875
642		-58.593750
643		-62.500000
644		-56.640625
645		-60.546875
646		-56.640625
647		-60.546875
648		-54.687500
649		-56.640625
650		-54.687500
651		-56.640625
652		-52.734375
653		-54.687500
654		-50.781250
655		-54.687500
656		-48.828125
657		-50.781250
658		-46.875000
659		-48.828125
660		-44.921875
661		-46.875000
662		-42.968750
663		-44.921875
664		-41.015625
665		-41.015625
666		-37.109375
667		-41.015625
668		-35.156250
669		-37.109375
670		-33.203125
671		-35.156250
672		-29.296875
673		-31.250000
674		-27.343750
675		-29.296875
676		-23.437500
677		-25.390625
678		-21.484375
679		-23.437500
680		-17.578125
681		-19.531250
682		-13.671875
683		-15.625000
684		-11.718750
685		-11.718750
686		-7.812500
687		-9.765625
688		-3.906250
689		-7.812500
690		-1.953125
691		-1.953125
692		1.953125
693		0.000000
694		5.859375
695		3.906250
696		7.812500
697		7.812500
698		11.718750
699		9.765625
700		15.625000
701		13.671875
702		17.578125
703		15.625000
704		21.484375
705		19.531250
706		25.390625
707		23.437500
708		27.343750
709		27.343750
710		33.203125
711		29.296875
712		35.156250
713		33.203125
714		37.109375
715		35.156250
716		39.062500
717		39.062500
718		42.968750
719		41.015625
720		44.921875
721		42.968750
722		48.828125
723		46.875000
724		50.781250
725		48.828125
726		52.734375
727		50.781250
728		54.687500
729		52.734375
730		56.640625
731		54.687500
732		60.546875
733		56.640625
734		60.546875
735		58.593750
736		62.500000
737		60.546875
738		64.453125
739		62.500000
740		66.406250
741		64.453125
742		68.359375
743		66.406250
744		70.312500
745		66.406250
746		70.312500
747		68.359375
748		70.312500
749		68.359375
750		72.265625
751		68.359375
752		72.265625
753		70.312500
754		74.218750
755		70.312500
756		74.218750
757		70.312500
758		74.218750
759		72.265625
760		74.218750
761		70.312500
762		74.218750
763		70.312500
764		74.218750
765		70.312500
766		74.218750
767		70.312500
768		72.265625
769		70.312500
770		72.265625
771		68.359375
772		72.265625
773		68.359375
774		72.265625
775		66.406250
776		70.312500
777		64.453125
778		68.359375
779		64.453125
780		68.359375
781		62.500000
782		66.406250
783		60.546875
784		64.453125
785		58.593750
786		62.500000
787		56.640625
788		60.546875
789		54.687500
790		58.593750
791		52.734375
792		56.640625
793		50.781250
794		54.687500
795		48.828125
796		52.734375
797		44.921875
798		50.781250
799		42.968750
800		48.828125
801		41.015625
802		44.921875
803		37.109375
804		42.968750
805		33.203125
806		39.062500
807		31.250000
808		37.109375
809		29.296875
810		33.203125
811		25.390625
812		31.250000
813		23.437500
814		27.343750
815		19.531250
816		23.437500
817		15.625000
818		21.484375
819		11.718750
820		17.578125
821		9.765625
822		13.671875
823		5.859375
824		11.718750
825		1.953125
826		7.812500
827		-1.953125
828		3.906250
829		-3.906250
830		1.953125
831		-7.812500
832		-1.953125
833		-9.765625
834		-5.859375
835		-13.671875
836		-9.765625
837		-17.578125
838		-11.718750
839		-19.531250
840		-13.671875
841		-23.437500
842		-17.578125
843		-27.343750
844		-21.484375
845		-29.296875
846		-23.437500
847		-33.203125
848		-27.343750
849		-35.156250
850		-31.250000
851		-39.062500
852		-33.203125
853		-41.015625
854		-37.109375
855		-44.921875
856		-39.062500
857		-44.921875
858		-41.015625
859		-46.875000
860		-42.968750
861		-50.781250
862		-44.921875
863		-52.734375
864		-46.875000
865		-54.687500
866		-50.781250
867		-56.640625
868		-52.734375
869		-56.640625
870		-52.734375
871		-58.593750
872		-54.687500
873		-60.546875
874		-56.640625
875		-60.546875
876		-56.640625
877		-62.500000
878		-58.593750
879		-62.500000
880		-58.593750
881		-62.500000
882		-60.546875
883		-64.453125
884		-60.546875
885		-64.453125
886		-60.546875
887		-64.453125
888		-60.546875
889		-64.453125
890		-60.546875
891		-62.500000
892		-60.546875
893		-62.500000
894		-60.546875
895		-62.500000
896		-58.593750
897		-60.546875
898		-58.593750
899		-60.546875
900		-56.640625
901		-58.593750
902		-54.687500
903		-56.640625
904		-54.687500
905		-56.640625
906		-52.734375
907		-54.687500
908		-50.781250
909		-52.734375
910		-48.828125
911		-50.781250
912		-46.875000
913		-50.781250
914		-44.921875
915		-46.875000
916		-42.968750
917		-44.921875
918		-39.062500
919		-41.015625
920		-37.109375
921		-39.062500
922		-35.156250
923		-37.109375
924		-31.250000
925		-33.203125
926		-29.296875
927		-31.250000
928		-25.390625
929		-29.296875
930		-23.437500
931		-25.390625
932		-19.531250
933		-21.484375
934		-15.625000
935		-17.578125
936		-13.671875
937		-15.625000
938		-9.765625
939		-11.718750
940		-5.859375
941		-9.765625
942		-3.906250
943		-5.859375
944		0.000000
945		-1.953125
946		3.906250
947		1.953125
948		7.812500
949		3.906250
950		9.765625
951		7.812500
952		13.671875
953		11.718750
954		15.625000
955		13.671875
956		19.531250
957		17.578125
958		23.437500
959		21.484375
960		25.390625
961		23.437500
962		29.296875
963		27.343750
964		31.250000
965		29.296875
966		35.156250
967		33.203125
968		37.109375
969		37.109375
970		41.015625
971		39.062500
972		44.921875
973		42.968750
974		46.875000
975		44.921875
976		48.828125
977		46.875000
978		50.781250
979		48.828125
980		54.687500
981		50.781250
982		56.640625
983		54.687500
984		58.593750
985		56.640625
986		60.546875
987		58.593750
988		62.500000
989		60.546875
990		64.453125
991		62.500000
992		64.453125
993		62.500000
994		66.406250
995		64.453125
996		68.359375
997		64.453125
998		70.312500
999		66.406250
1000		70.312500
1001		68.359375
1002		70.312500
1003		68.359375
1004		72.265625
1005		68.359375
1006		72.265625
1007		68.359375
1008		74.218750
1009		70.312500
1010		72.265625
1011		70.312500
1012		72.265625
1013		70.312500
1014		74.218750
1015		70.312500
1016		74.218750
1017		70.312500
1018		74.218750
1019		70.312500
1020		72.265625
1021		70.312500
1022		72.265625
1023		68.359375
1024		72.265625
1025		68.359375
1026		72.265625
1027		68.359375
1028		70.312500
1029		66.406250
1030		70.312500
1031		64.453125
1032		68.359375
1033		64.453125
1034		66.406250
1035		60.546875
1036		66.406250
1037		60.546875
1038		64.453125
1039		58.593750
1040		62.500000
1041		56.640625
1042		60.546875
1043		54.687500
1044		58.593750
1045		50.781250
1046		56.640625
1047		48.828125
1048		54.687500
1049		46.875000
1050		52.734375
1051		44.921875
1052		48.828125
1053		42.968750
1054		46.875000
1055		39.062500
1056		44.921875
1057		35.156250
1058		41.015625
1059		33.203125
1060		39.062500
1061		31.250000
1062		37.109375
1063		27.343750
1064		33.203125
1065		25.390625
1066		29.296875
1067		21.484375
1068		27.343750
1069		17.578125
1070		23.437500
1071		13.671875
1072		19.531250
1073		11.718750
1074		15.625000
1075		7.812500
1076		13.671875
1077		3.906250
1078		9.765625
1079		0.000000
1080		5.859375
1081		-1.953125
1082		3.906250
1083		-5.859375
1084		0.000000
1085		-7.812500
1086		-3.906250
1087		-11.718750
1088		-5.859375
1089		-15.625000
1090		-9.765625
1091		-19.531250
1092		-13.671875
1093		-21.484375
1094		-15.625000
1095		-25.390625
1096		-19.531250
1097		-27.343750
1098		-23.437500
1099		-31.250000
1100		-25.390625
1101		-33.203125
1102		-29.296875
1103		-37.109375
1104		-31.250000
1105		-39.062500
1106		-35.156250
1107		-41.015625
1108		-37.109375
1109		-44.921875
1110		-39.062500
1111		-46.875000
1112		-42.968750
1113		-48.828125
1114		-44.921875
1115		-50.781250
1116		-46.875000
1117		-52.734375
1118		-48.828125
1119		-54.687500
1120		-50.781250
1121		-56.640625
1122		-52.734375
1123		-58.593750
1124		-54.687500
1125		-58.593750
1126		-54.687500
1127		-60.546875
1128		-56.640625
1129		-60.546875
1130		-58.593750
1131		-62.500000
1132		-58.593750
1133		-62.500000
1134		-60.546875
1135		-62.500000
1136		-58.593750
1137		-64.453125
1138		-60.546875
1139		-62.500000
1140		-60.546875
1141		-64.453125
1142		-60.546875
1143		-62.500000
1144		-60.546875
1145		-62.500000
1146		-60.546875
1147		-62.500000
1148		-58.593750
1149		-62.500000
1150		-58.593750
1151		-60.546875
1152		-56.640625
1153		-60.546875
1154		-56.640625
1155		-58.593750
1156		-54.687500
1157		-56.640625
1158		-52.734375
1159		-56.640625
1160		-52.734375
1161		-52.734375
1162		-50.781250
1163		-52.734375
1164		-46.875000
1165		-50.781250
1166		-44.921875
1167		-48.828125
1168		-42.968750
1169		-46.875000
1170		-41.015625
1171		-42.968750
1172		-39.062500
1173		-41.015625
1174		-37.109375
1175		-37.109375
1176		-33.203125
1177		-35.156250
1178		-31.250000
1179		-33.203125
1180		-27.343750
1181		-31.250000
1182		-23.437500
1183		-27.343750
1184		-21.484375
1185		-23.437500
1186		-17.578125
1187		-19.531250
1188		-15.625000
1189		-17.578125
1190		-11.718750
1191		-13.671875
1192		-7.812500
1193		-9.765625
1194		-5.859375
1195		-7.812500
1196		-1.953125
1197		-3.906250
1198		1.953125
1199		0.000000
1200		3.906250
1201		1.953125
1202		7.812500
1203		5.859375
1204		11.718750
1205		9.765625
1206		13.671875
1207		11.718750
1208		19.531250
1209		15.625000
1210		21.484375
1211		19.531250
1212		23.437500
1213		21.484375
1214		27.343750
1215		25.390625
1216		31.250000
1217		29.296875
1218		33.203125
1219		31.250000
1220		37.109375
1221		35.156250
1222		39.062500
1223		37.109375
1224		42.968750
1225		41.015625
1226		44.921875
1227		41.015625
1228		46.875000
1229		44.921875
1230		50.781250
1231		48.828125
1232		52.734375
1233		50.781250
1234		54.687500
1235		52.734375
1236		56.640625
1237		54.687500
1238		58.593750
1239		56.640625
1240		60.546875
1241		58.593750
1242		62.500000
1243		60.546875
1244		64.453125
1245		62.500000
1246		66.406250
1247		64.453125
1248		68.359375
1249		62.500000
1250		70.312500
1251		64.453125
1252		72.265625
1253		66.406250
1254		72.265625
1255		66.406250
1256		72.265625
1257		70.312500
1258		72.265625
1259		70.312500
1260		74.218750
1261		70.312500
1262		74.218750
1263		72.265625
1264		74.218750
1265		70.312500
1266		76.171875
1267		70.312500
1268		76.171875
1269		68.359375
1270		76.171875
1271		68.359375
1272		76.171875
1273		68.359375
1274		74.218750
1275		70.312500
1276		72.265625
1277		68.359375
1278		72.265625
1279		68.359375
1280		70.312500
1281		66.406250
1282		72.265625
1283		64.453125
1284		70.312500
1285		62.500000
1286		70.312500
1287		60.546875
1288		68.359375
1289		58.593750
1290		66.406250
1291		56.640625
1292		66.406250
1293		56.640625
1294		64.453125
1295		56.640625
1296		60.546875
1297		54.687500
1298		58.593750
1299		48.828125
1300		58.593750
1301		48.828125
1302		54.687500
1303		44.921875
1304		52.734375
1305		42.968750
1306		50.781250
1307		41.015625
1308		46.875000
1309		37.109375
1310		44.921875
1311		35.156250
1312		41.015625
1313		33.203125
1314		37.109375
1315		29.296875
1316		35.156250
1317		25.390625
1318		33.203125
1319		21.484375
1320		31.250000
1321		17.578125
1322		27.343750
1323		15.625000
1324		23.437500
1325		11.718750
1326		19.531250
1327		9.765625
1328		17.578125
1329		7.812500
1330		11.718750
1331		1.953125
1332		9.765625
1333		0.000000
1334		7.812500
1335		-3.906250
1336		3.906250
1337		-7.812500
1338		0.000000
1339		-11.718750
1340		-3.906250
1341		-13.671875
1342		-3.906250
1343		-17.578125
1344		-7.812500
1345		-19.531250
1346		-13.671875
1347		-21.484375
1348		-17.578125
1349		-27.343750
1350		-19.531250
1351		-31.250000
1352		-21.484375
1353		-33.203125
1354		-25.390625
1355		-37.109375
1356		-27.343750
1357		-39.062500
1358		-31.250000
1359		-42.968750
1360		-33.203125
1361		-42.968750
1362		-37.109375
1363		-44.921875
1364		-41.015625
1365		-48.828125
1366		-42.968750
1367		-50.781250
1368		-42.968750
1369		-52.734375
1370		-44.921875
1371		-54.687500
1372		-46.875000
1373		-56.640625
1374		-48.828125
1375		-58.593750
1376		-50.781250
1377		-58.593750
1378		-52.734375
1379		-58.593750
1380		-54.687500
1381		-60.546875
1382		-56.640625
1383		-62.500000
1384		-56.640625
1385		-64.453125
1386		-56.640625
1387		-64.453125
1388		-56.640625
1389		-64.453125
1390		-58.593750
1391		-64.453125
1392		-56.640625
1393		-64.453125
1394		-58.593750
1395		-62.500000
1396		-60.546875
1397		-62.500000
1398		-60.546875
1399		-64.453125
1400		-56.640625
1401		-64.453125
1402		-56.640625
1403		-62.500000
1404		-54.687500
1405		-62.500000
1406		-54.687500
1407		-60.546875
1408		-54.687500
1409		-58.593750
1410		-52.734375
1411		-56.640625
1412		-50.781250
1413		-54.687500
1414		-50.781250
1415		-54.687500
1416		-46.875000
1417		-54.687500
1418		-44.921875
1419		-50.781250
1420		-42.968750
1421		-48.828125
1422		-41.015625
1423		-46.875000
1424		-39.062500
1425		-44.921875
1426		-35.156250
1427		-41.015625
1428		-33.203125
1429		-37.109375
1430		-31.250000
1431		-33.203125
1432		-29.296875
1433		-33.203125
1434		-25.390625
1435		-29.296875
1436		-21.484375
1437		-25.390625
1438		-17.578125
1439		-23.437500
1440		-15.625000
1441		-21.484375
1442		-11.718750
1443		-17.578125
1444		-7.812500
1445		-13.671875
1446		-7.812500
1447		-9.765625
1448		-3.906250
1449		-5.859375
1450		1.953125
1451		-3.906250
1452		5.859375
1453		0.000000
1454		7.812500
1455		1.953125
1456		11.718750
1457		5.859375
1458		15.625000
1459		9.765625
1460		19.531250
1461		11.718750
1462		19.531250
1463		17.578125
1464		23.437500
1465		21.484375
1466		25.390625
1467		21.484375
1468		31.250000
1469		25.390625
1470		33.203125
1471		27.343750
1472		37.109375
1473		31.250000
1474		39.062500
1475		35.156250
1476		42.968750
1477		37.109375
1478		44.921875
1479		41.015625
1480		46.875000
1481		44.921875
1482		48.828125
1483		46.875000
1484		54.687500
1485		46.875000
1486		56.640625
1487		48.828125
1488		56.640625
1489		52.734375
1490		60.546875
1491		54.687500
1492		62.500000
1493		56.640625
1494		62.500000
1495		58.593750
1496		64.453125
1497		62.500000
1498		64.453125
1499		62.500000
1500		68.359375
1501		62.500000
1502		70.312500
1503		64.453125
1504		72.265625
1505		64.453125
1506		72.265625
1507		66.406250
1508		74.218750
1509		66.406250
1510		74.218750
1511		68.359375
1512		74.218750
1513		70.312500
1514		72.265625
1515		70.312500
1516		74.218750
1517		68.359375
1518		76.171875
1519		70.312500
1520		76.171875
1521		68.359375
1522		76.171875
1523		68.359375
1524		76.171875
1525		68.359375
1526		76.171875
1527		66.406250
1528		76.171875
1529		68.359375
1530		74.218750
1531		68.359375
1532		72.265625
1533		66.406250
1534		72.265625
1535		64.453125
1536		72.265625
1537		64.453125
1538		72.265625
1539		62.500000
1540		70.312500
1541		60.546875
1542		68.359375
1543		58.593750
1544		66.406250
1545		58.593750
1546		64.453125
1547		58.593750
1548		60.546875
1549		54.687500
1550		58.593750
1551		50.781250
1552		58.593750
1553		48.828125
1554		56.640625
1555		46.875000
1556		54.687500
1557		42.968750
1558		52.734375
1559		41.015625
1560		48.828125
1561		39.062500
1562		46.875000
1563		37.109375
1564		42.968750
1565		35.156250
1566		39.062500
1567		31.250000
1568		37.109375
1569		27.343750
1570		35.156250
1571		25.390625
1572		33.203125
1573		21.484375
1574		31.250000
1575		17.578125
1576		27.343750
1577		13.671875
1578		23.437500
1579		13.671875
1580		19.531250
1581		9.765625
1582		15.625000
1583		3.906250
1584		11.718750
1585		0.000000
1586		9.765625
1587		-3.906250
1588		5.859375
1589		-5.859375
1590		3.906250
1591		-7.812500
1592		0.000000
1593		-11.718750
1594		-1.953125
1595		-15.625000
1596		-5.859375
1597		-17.578125
1598		-11.718750
1599		-19.531250
1600		-15.625000
1601		-25.390625
1602		-17.578125
1603		-29.296875
1604		-19.531250
1605		-31.250000
1606		-23.437500
1607		-33.203125
1608		-25.390625
1609		-37.109375
1610		-29.296875
1611		-41.015625
1612		-31.250000
1613		-41.015625
1614		-33.203125
1615		-42.968750
1616		-39.062500
1617		-46.875000
1618		-41.015625
1619		-48.828125
1620		-41.015625
1621		-50.781250
1622		-42.968750
1623		-54.687500
1624		-44.921875
1625		-56.640625
1626		-46.875000
1627		-56.640625
1628		-48.828125
1629		-58.593750
1630		-50.781250
1631		-58.593750
1632		-54.687500
1633		-58.593750
1634		-56.640625
1635		-62.500000
1636		-54.687500
1637		-62.500000
1638		-56.640625
1639		-64.453125
1640		-56.640625
1641		-64.453125
1642		-56.640625
1643		-66.406250
1644		-58.593750
1645		-66.406250
1646		-58.593750
1647		-64.453125
1648		-58.593750
1649		-62.500000
1650		-60.546875
1651		-64.453125
1652		-56.640625
1653		-64.453125
1654		-56.640625
1655		-62.500000
1656		-56.640625
1657		-62.500000
1658		-56.640625
1659		-62.500000
1660		-54.687500
1661		-60.546875
1662		-52.734375
1663		-58.593750
1664		-52.734375
1665		-54.687500
1666		-52.734375
1667		-52.734375
1668		-50.781250
1669		-54.687500
1670		-46.875000
1671		-52.734375
1672		-44.921875
1673		-50.781250
1674		-42.968750
1675		-48.828125
1676		-39.062500
1677		-44.921875
1678		-37.109375
1679		-42.968750
1680		-35.156250
1681		-37.109375
1682		-33.203125
1683		-35.156250
1684		-31.250000
1685		-33.203125
1686		-25.390625
1687		-31.250000
1688		-23.437500
1689		-29.296875
1690		-19.531250
1691		-25.390625
1692		-17.578125
1693		-23.437500
1694		-13.671875
1695		-19.531250
1696		-9.765625
1697		-15.625000
1698		-9.765625
1699		-11.718750
1700		-5.859375
1701		-7.812500
1702		0.000000
1703		-5.859375
1704		1.953125
1705		-3.906250
1706		5.859375
1707		0.000000
1708		7.812500
1709		3.906250
1710		11.718750
1711		5.859375
1712		15.625000
1713		9.765625
1714		17.578125
1715		15.625000
1716		21.484375
1717		19.531250
1718		23.437500
1719		21.484375
1720		29.296875
1721		23.437500
1722		31.250000
1723		25.390625
1724		35.156250
1725		29.296875
1726		37.109375
1727		33.203125
1728		41.015625
1729		35.156250
1730		42.968750
1731		37.109375
1732		44.921875
1733		42.968750
1734		46.875000
1735		44.921875
1736		50.781250
1737		46.875000
1738		52.734375
1739		48.828125
1740		54.687500
1741		50.781250
1742		58.593750
1743		52.734375
1744		60.546875
1745		54.687500
1746		62.500000
1747		56.640625
1748		62.500000
1749		60.546875
1750		64.453125
1751		62.500000
1752		66.406250
1753		62.500000
1754		70.312500
1755		62.500000
1756		70.312500
1757		64.453125
1758		72.265625
1759		64.453125
1760		72.265625
1761		66.406250
1762		74.218750
1763		66.406250
1764		74.218750
1765		70.312500
1766		74.218750
1767		70.312500
1768		72.265625
1769		68.359375
1770		76.171875
1771		68.359375
1772		76.171875
1773		70.312500
1774		76.171875
1775		68.359375
1776		76.171875
1777		68.359375
1778		76.171875
1779		68.359375
1780		76.171875
1781		68.359375
1782		74.218750
1783		70.312500
1784		72.265625
1785		66.406250
1786		72.265625
1787		66.406250
1788		72.265625
1789		64.453125
1790		72.265625
1791		64.453125
1792		70.312500
1793		62.500000
1794		68.359375
1795		60.546875
1796		68.359375
1797		58.593750
1798		66.406250
1799		58.593750
1800		62.500000
1801		56.640625
1802		60.546875
1803		52.734375
1804		60.546875
1805		50.781250
1806		58.593750
1807		48.828125
1808		56.640625
1809		44.921875
1810		54.687500
1811		42.968750
1812		50.781250
1813		41.015625
1814		48.828125
1815		41.015625
1816		46.875000
1817		37.109375
1818		41.015625
1819		31.250000
1820		39.062500
1821		29.296875
1822		37.109375
1823		27.343750
1824		35.156250
1825		23.437500
1826		31.250000
1827		19.531250
1828		29.296875
1829		15.625000
1830		25.390625
1831		13.671875
1832		21.484375
1833		11.718750
1834		17.578125
1835		7.812500
1836		13.671875
1837		1.953125
1838		11.718750
1839		0.000000
1840		9.765625
1841		-3.906250
1842		5.859375
1843		-5.859375
1844		1.953125
1845		-9.765625
1846		-1.953125
1847		-13.671875
1848		-3.906250
1849		-15.625000
1850		-7.812500
1851		-17.578125
1852		-13.671875
1853		-23.437500
1854		-15.625000
1855		-27.343750
1856		-17.578125
1857		-29.296875
1858		-21.484375
1859		-33.203125
1860		-23.437500
1861		-35.156250
1862		-27.343750
1863		-39.062500
1864		-29.296875
1865		-39.062500
1866		-33.203125
1867		-41.015625
1868		-37.109375
1869		-46.875000
1870		-39.062500
1871		-48.828125
1872		-41.015625
1873		-50.781250
1874		-42.968750
1875		-52.734375
1876		-44.921875
1877		-54.687500
1878		-46.875000
1879		-56.640625
1880		-48.828125
1881		-56.640625
1882		-50.781250
1883		-56.640625
1884		-54.687500
1885		-58.593750
1886		-54.687500
1887		-62.500000
1888		-54.687500
1889		-62.500000
1890		-54.687500
1891		-62.500000
1892		-56.640625
1893		-64.453125
1894		-56.640625
1895		-64.453125
1896		-56.640625
1897		-64.453125
1898		-58.593750
1899		-64.453125
1900		-58.593750
1901		-62.500000
1902		-60.546875
1903		-64.453125
1904		-56.640625
1905		-64.453125
1906		-56.640625
1907		-62.500000
1908		-56.640625
1909		-62.500000
1910		-54.687500
1911		-62.500000
1912		-54.687500
1913		-60.546875
1914		-54.687500
1915		-60.546875
1916		-52.734375
1917		-56.640625
1918		-52.734375
1919		-54.687500
1920		-50.781250
1921		-54.687500
1922		-46.875000
1923		-54.687500
1924		-44.921875
1925		-50.781250
1926		-42.968750
1927		-48.828125
1928		-41.015625
1929		-46.875000
1930		-39.062500
1931		-44.921875
1932		-37.109375
1933		-41.015625
1934		-35.156250
1935		-37.109375
1936		-33.203125
1937		-35.156250
1938		-27.343750
1939		-33.203125
1940		-25.390625
1941		-31.250000
1942		-21.484375
1943		-27.343750
1944		-19.531250
1945		-25.390625
1946		-15.625000
1947		-21.484375
1948		-11.718750
1949		-17.578125
1950		-11.718750
1951		-13.671875
1952		-7.812500
1953		-9.765625
1954		-1.953125
1955		-7.812500
1956		0.000000
1957		-3.906250
1958		3.906250
1959		-1.953125
1960		7.812500
1961		1.953125
1962		11.718750
1963		5.859375
1964		13.671875
1965		9.765625
1966		17.578125
1967		13.671875
1968		17.578125
1969		17.578125
1970		21.484375
1971		19.531250
1972		27.343750
1973		21.484375
1974		29.296875
1975		23.437500
1976		33.203125
1977		27.343750
1978		37.109375
1979		29.296875
1980		39.062500
1981		33.203125
1982		42.968750
1983		37.109375
1984		42.968750
1985		41.015625
1986		44.921875
1987		42.968750
1988		48.828125
1989		44.921875
1990		52.734375
1991		46.875000
1992		54.687500
1993		48.828125
1994		56.640625
1995		50.781250
1996		58.593750
1997		52.734375
1998		62.500000
1999		54.687500
2000		62.500000
2001		60.546875
2002		62.500000
2003		60.546875
2004		64.453125
2005		60.546875
2006		68.359375
2007		62.500000
2008		70.312500
2009		64.453125
2010		72.265625
2011		64.453125
2012		72.265625
2013		66.406250
2014		74.218750
2015		66.406250
2016		74.218750
2017		70.312500
2018		74.218750
2019		70.312500
2020		74.218750
2021		68.359375
2022		76.171875
2023		68.359375
2024		76.171875
2025		70.312500
2026		76.171875
2027		68.359375
2028		76.171875
2029		68.359375
2030		76.171875
2031		68.359375
2032		76.171875
2033		68.359375
2034		76.171875
2035		70.312500
2036		72.265625
2037		68.359375
2038		74.218750
2039		66.406250
2040		74.218750
2041		64.453125
2042		72.265625
2043		64.453125
2044		72.265625
2045		62.500000
2046		70.312500
2047		60.546875
2048		68.359375
2049		60.546875
2050		66.406250
2051		60.546875
2052		64.453125
2053		58.593750
2054		62.500000
2055		52.734375
2056		60.546875
2057		50.781250
2058		60.546875
2059		48.828125
2060		56.640625
2061		46.875000
2062		54.687500
2063		44.921875
2064		52.734375
2065		42.968750
2066		50.781250
2067		41.015625
2068		48.828125
2069		39.062500
2070		42.968750
2071		33.203125
2072		41.015625
2073		29.296875
2074		39.062500
2075		27.343750
2076		37.109375
2077		25.390625
2078		33.203125
2079		21.484375
2080		31.250000
2081		17.578125
2082		27.343750
2083		15.625000
2084		23.437500
2085		13.671875
2086		19.531250
2087		9.765625
2088		15.625000
2089		3.906250
2090		13.671875
2091		1.953125
2092		9.765625
2093		-1.953125
2094		7.812500
2095		-3.906250
2096		3.906250
2097		-7.812500
2098		0.000000
2099		-11.718750
2100		-1.953125
2101		-13.671875
2102		-7.812500
2103		-15.625000
2104		-11.718750
2105		-21.484375
2106		-13.671875
2107		-25.390625
2108		-15.625000
2109		-27.343750
2110		-19.531250
2111		-31.250000
2112		-21.484375
2113		-33.203125
2114		-25.390625
2115		-37.109375
2116		-27.343750
2117		-37.109375
2118		-31.250000
2119		-39.062500
2120		-35.156250
2121		-44.921875
2122		-37.109375
2123		-46.875000
2124		-39.062500
2125		-48.828125
2126		-41.015625
2127		-50.781250
2128		-42.968750
2129		-52.734375
2130		-44.921875
2131		-54.687500
2132		-46.875000
2133		-56.640625
2134		-48.828125
2135		-56.640625
2136		-50.781250
2137		-56.640625
2138		-54.687500
2139		-60.546875
2140		-54.687500
2141		-62.500000
2142		-54.687500
2143		-62.500000
2144		-56.640625
2145		-64.453125
2146		-56.640625
2147		-64.453125
2148		-56.640625
2149		-64.453125
2150		-58.593750
2151		-64.453125
2152		-58.593750
2153		-62.500000
2154		-60.546875
2155		-64.453125
2156		-56.640625
2157		-64.453125
2158		-56.640625
2159		-64.453125
2160		-56.640625
2161		-64.453125
2162		-56.640625
2163		-62.500000
2164		-54.687500
2165		-62.500000
2166		-54.687500
2167		-60.546875
2168		-52.734375
2169		-56.640625
2170		-54.687500
2171		-56.640625
2172		-52.734375
2173		-56.640625
2174		-48.828125
2175		-54.687500
2176		-46.875000
2177		-52.734375
2178		-44.921875
2179		-50.781250
2180		-42.968750
2181		-48.828125
2182		-41.015625
2183		-46.875000
2184		-37.109375
2185		-42.968750
2186		-37.109375
2187		-39.062500
2188		-33.203125
2189		-37.109375
2190		-29.296875
2191		-35.156250
2192		-27.343750
2193		-33.203125
2194		-23.437500
2195		-29.296875
2196		-21.484375
2197		-27.343750
2198		-17.578125
2199		-23.437500
2200		-13.671875
2201		-19.531250
2202		-11.718750
2203		-15.625000
2204		-9.765625
2205		-11.718750
2206		-5.859375
2207		-11.718750
2208		-1.953125
2209		-7.812500
2210		1.953125
2211		-3.906250
2212		5.859375
2213		0.000000
2214		9.765625
2215		1.953125
2216		13.671875
2217		5.859375
2218		15.625000
2219		9.765625
2220		15.625000
2221		15.625000
2222		19.531250
2223		17.578125
2224		25.390625
2225		19.531250
2226		29.296875
2227		21.484375
2228		31.250000
2229		25.390625
2230		35.156250
2231		29.296875
2232		37.109375
2233		31.250000
2234		39.062500
2235		35.156250
2236		41.015625
2237		39.062500
2238		42.968750
2239		42.968750
2240		48.828125
2241		42.968750
2242		50.781250
2243		44.921875
2244		52.734375
2245		48.828125
2246		54.687500
2247		50.781250
2248		58.593750
2249		52.734375
2250		60.546875
2251		54.687500
2252		62.500000
2253		58.593750
2254		62.500000
2255		60.546875
2256		64.453125
2257		60.546875
2258		68.359375
2259		60.546875
2260		68.359375
2261		62.500000
2262		70.312500
2263		64.453125
2264		72.265625
2265		64.453125
2266		74.218750
2267		66.406250
2268		74.218750
2269		68.359375
2270		74.218750
2271		70.312500
2272		74.218750
2273		68.359375
2274		74.218750
2275		68.359375
2276		76.171875
2277		68.359375
2278		76.171875
2279		68.359375
2280		76.171875
2281		70.312500
2282		76.171875
2283		68.359375
2284		76.171875
2285		68.359375
2286		76.171875
2287		70.312500
2288		74.218750
2289		68.359375
2290		72.265625
2291		66.406250
2292		74.218750
2293		66.406250
2294		72.265625
2295		64.453125
2296		72.265625
2297		62.500000
2298		70.312500
2299		62.500000
2300		70.312500
2301		60.546875
2302		68.359375
2303		60.546875
2304		64.453125
2305		58.593750
2306		62.500000
2307		54.687500
2308		62.500000
2309		52.734375
2310		60.546875
2311		50.781250
2312		58.593750
2313		48.828125
2314		56.640625
2315		44.921875
2316		54.687500
2317		42.968750
2318		52.734375
2319		42.968750
2320		48.828125
2321		41.015625
2322		44.921875
2323		37.109375
2324		42.968750
2325		33.203125
2326		42.968750
2327		31.250000
2328		39.062500
2329		27.343750
2330		35.156250
2331		23.437500
2332		33.203125
2333		21.484375
2334		29.296875
2335		17.578125
2336		25.390625
2337		15.625000
2338		21.484375
2339		13.671875
2340		17.578125
2341		7.812500
2342		15.625000
2343		3.906250
2344		13.671875
2345		0.000000
2346		9.765625
2347		-1.953125
2348		7.812500
2349		-5.859375
2350		1.953125
2351		-9.765625
2352		0.000000
2353		-9.765625
2354		-3.906250
2355		-13.671875
2356		-9.765625
2357		-19.531250
2358		-11.718750
2359		-21.484375
2360		-13.671875
2361		-25.390625
2362		-17.578125
2363		-29.296875
2364		-19.531250
2365		-31.250000
2366		-21.484375
2367		-35.156250
2368		-25.390625
2369		-35.156250
2370		-29.296875
2371		-37.109375
2372		-33.203125
2373		-41.015625
2374		-37.109375
2375		-44.921875
2376		-37.109375
2377		-46.875000
2378		-39.062500
2379		-50.781250
2380		-41.015625
2381		-50.781250
2382		-44.921875
2383		-52.734375
2384		-46.875000
2385		-54.687500
2386		-48.828125
2387		-54.687500
2388		-50.781250
2389		-56.640625
2390		-52.734375
2391		-60.546875
2392		-52.734375
2393		-60.546875
2394		-54.687500
2395		-62.500000
2396		-54.687500
2397		-62.500000
2398		-56.640625
2399		-64.453125
2400		-56.640625
2401		-64.453125
2402		-56.640625
2403		-64.453125
2404		-56.640625
2405		-62.500000
2406		-60.546875
2407		-64.453125
2408		-58.593750
2409		-64.453125
2410		-58.593750
2411		-64.453125
2412		-56.640625
2413		-64.453125
2414		-56.640625
2415		-62.500000
2416		-56.640625
2417		-62.500000
2418		-54.687500
2419		-60.546875
2420		-54.687500
2421		-58.593750
2422		-54.687500
2423		-56.640625
2424		-52.734375
2425		-56.640625
2426		-48.828125
2427		-54.687500
2428		-46.875000
2429		-54.687500
2430		-46.875000
2431		-50.781250
2432		-42.968750
2433		-48.828125
2434		-41.015625
2435		-46.875000
2436		-39.062500
2437		-44.921875
2438		-39.062500
2439		-41.015625
2440		-37.109375
2441		-37.109375
2442		-31.250000
2443		-37.109375
2444		-29.296875
2445		-35.156250
2446		-25.390625
2447		-31.250000
2448		-23.437500
2449		-29.296875
2450		-19.531250
2451		-25.390625
2452		-17.578125
2453		-21.484375
2454		-15.625000
2455		-17.578125
2456		-11.718750
2457		-13.671875
2458		-7.812500
2459		-11.718750
2460		-3.906250
2461		-9.765625
2462		0.000000
2463		-5.859375
2464		3.906250
2465		-3.906250
2466		5.859375
2467		0.000000
2468		9.765625
2469		3.906250
2470		13.671875
2471		7.812500
2472		13.671875
2473		13.671875
2474		17.578125
2475		15.625000
2476		23.437500
2477		17.578125
2478		25.390625
2479		19.531250
2480		29.296875
2481		23.437500
2482		33.203125
2483		27.343750
2484		35.156250
2485		29.296875
2486		39.062500
2487		33.203125
2488		41.015625
2489		37.109375
2490		42.968750
2491		41.015625
2492		46.875000
2493		41.015625
2494		48.828125
2495		44.921875
2496		52.734375
2497		46.875000
2498		54.687500
2499		48.828125
2500		56.640625
2501		50.781250
2502		58.593750
2503		52.734375
2504		60.546875
2505		56.640625
2506		60.546875
2507		58.593750
2508		62.500000
2509		60.546875
2510		66.406250
2511		60.546875
2512		68.359375
2513		62.500000
2514		68.359375
2515		64.453125
2516		70.312500
2517		64.453125
2518		72.265625
2519		66.406250
2520		72.265625
2521		66.406250
2522		72.265625
2523		70.312500
2524		72.265625
2525		68.359375
2526		76.171875
2527		68.359375
2528		76.171875
2529		68.359375
2530		76.171875
2531		68.359375
2532		76.171875
2533		70.312500
2534		76.171875
2535		70.312500
2536		76.171875
2537		70.312500
2538		76.171875
2539		70.312500
2540		74.218750
2541		70.312500
2542		72.265625
2543		68.359375
2544		74.218750
2545		66.406250
2546		74.218750
2547		64.453125
2548		72.265625
2549		64.453125
2550		72.265625
2551		62.500000
2552		70.312500
2553		62.500000
2554		70.312500
2555		62.500000
2556		68.359375
2557		60.546875
2558		64.453125
2559		56.640625
2560		64.453125
2561		54.687500
2562		62.500000
2563		52.734375
2564		60.546875
2565		50.781250
2566		58.593750
2567		48.828125
2568		56.640625
2569		46.875000
2570		54.687500
2571		44.921875
2572		50.781250
2573		42.968750
2574		46.875000
2575		39.062500
2576		44.921875
2577		35.156250
2578		42.968750
2579		31.250000
2580		41.015625
2581		27.343750
2582		37.109375
2583		25.390625
2584		33.203125
2585		23.437500
2586		31.250000
2587		19.531250
2588		29.296875
2589		17.578125
2590		23.437500
2591		15.625000
2592		19.531250
2593		9.765625
2594		17.578125
2595		7.812500
2596		15.625000
2597		3.906250
2598		11.718750
2599		0.000000
2600		7.812500
2601		-3.906250
2602		5.859375
2603		-7.812500
2604		1.953125
2605		-7.812500
2606		0.000000
2607		-11.718750
2608		-7.812500
2609		-17.578125
2610		-9.765625
2611		-21.484375
2612		-11.718750
2613		-23.437500
2614		-13.671875
2615		-27.343750
2616		-17.578125
2617		-29.296875
2618		-19.531250
2619		-33.203125
2620		-23.437500
2621		-35.156250
2622		-27.343750
2623		-35.156250
2624		-31.250000
2625		-39.062500
2626		-35.156250
2627		-42.968750
2628		-35.156250
2629		-44.921875
2630		-37.109375
2631		-48.828125
2632		-39.062500
2633		-50.781250
2634		-42.968750
2635		-52.734375
2636		-44.921875
2637		-54.687500
2638		-46.875000
2639		-54.687500
2640		-48.828125
2641		-54.687500
2642		-52.734375
2643		-58.593750
2644		-52.734375
2645		-60.546875
2646		-52.734375
2647		-60.546875
2648		-54.687500
2649		-62.500000
2650		-54.687500
2651		-62.500000
2652		-56.640625
2653		-64.453125
2654		-56.640625
2655		-64.453125
2656		-56.640625
2657		-62.500000
2658		-60.546875
2659		-62.500000
2660		-58.593750
2661		-64.453125
2662		-56.640625
2663		-64.453125
2664		-56.640625
2665		-62.500000
2666		-56.640625
2667		-62.500000
2668		-56.640625
2669		-62.500000
2670		-54.687500
2671		-62.500000
2672		-54.687500
2673		-58.593750
2674		-54.687500
2675		-56.640625
2676		-54.687500
2677		-56.640625
2678		-50.781250
2679		-56.640625
2680		-48.828125
2681		-54.687500
2682		-46.875000
2683		-52.734375
2684		-44.921875
2685		-50.781250
2686		-42.968750
2687		-48.828125
2688		-41.015625
2689		-44.921875
2690		-39.062500
2691		-41.015625
2692		-37.109375
2693		-39.062500
2694		-33.203125
2695		-39.062500
2696		-29.296875
2697		-35.156250
2698		-27.343750
2699		-33.203125
2700		-23.437500
2701		-29.296875
2702		-21.484375
2703		-27.343750
2704		-17.578125
2705		-25.390625
2706		-15.625000
2707		-19.531250
2708		-13.671875
2709		-15.625000
2710		-9.765625
2711		-13.671875
2712		-5.859375
2713		-11.718750
2714		-1.953125
2715		-7.812500
2716		1.953125
2717		-3.906250
2718		3.906250
2719		0.000000
2720		7.812500
2721		1.953125
2722		11.718750
2723		7.812500
2724		11.718750
2725		11.718750
2726		15.625000
2727		13.671875
2728		21.484375
2729		15.625000
2730		25.390625
2731		19.531250
2732		27.343750
2733		21.484375
2734		31.250000
2735		25.390625
2736		33.203125
2737		27.343750
2738		37.109375
2739		31.250000
2740		39.062500
2741		37.109375
2742		41.015625
2743		39.062500
2744		44.921875
2745		39.062500
2746		48.828125
2747		42.968750
2748		50.781250
2749		44.921875
2750		52.734375
2751		46.875000
2752		56.640625
2753		50.781250
2754		58.593750
2755		52.734375
2756		60.546875
2757		56.640625
2758		60.546875
2759		58.593750
2760		62.500000
2761		58.593750
2762		64.453125
2763		60.546875
2764		68.359375
2765		62.500000
2766		68.359375
2767		62.500000
2768		70.312500
2769		64.453125
2770		72.265625
2771		64.453125
2772		72.265625
2773		66.406250
2774		74.218750
2775		70.312500
2776		72.265625
2777		70.312500
2778		74.218750
2779		68.359375
2780		76.171875
2781		68.359375
2782		76.171875
2783		70.312500
2784		76.171875
2785		70.312500
2786		76.171875
2787		70.312500
2788		76.171875
2789		70.312500
2790		76.171875
2791		72.265625
2792		74.218750
2793		70.312500
2794		74.218750
2795		68.359375
2796		74.218750
2797		66.406250
2798		74.218750
2799		66.406250
2800		74.218750
2801		64.453125
2802		72.265625
2803		64.453125
2804		72.265625
2805		62.500000
2806		70.312500
2807		62.500000
2808		68.359375
2809		62.500000
2810		64.453125
2811		58.593750
2812		64.453125
2813		54.687500
2814		64.453125
2815		54.687500
2816		62.500000
2817		52.734375
2818		60.546875
2819		48.828125
2820		58.593750
2821		46.875000
2822		54.687500
2823		46.875000
2824		52.734375
2825		44.921875
2826		48.828125
2827		41.015625
2828		46.875000
2829		37.109375
2830		44.921875
2831		35.156250
2832		42.968750
2833		31.250000
2834		39.062500
2835		27.343750
2836		37.109375
2837		25.390625
2838		33.203125
2839		21.484375
2840		31.250000
2841		21.484375
2842		25.390625
2843		17.578125
2844		21.484375
2845		11.718750
2846		19.531250
2847		7.812500
2848		17.578125
2849		5.859375
2850		13.671875
2851		1.953125
2852		11.718750
2853		-1.953125
2854		7.812500
2855		-5.859375
2856		3.906250
2857		-5.859375
2858		0.000000
2859		-9.765625
2860		-3.906250
2861		-13.671875
2862		-7.812500
2863		-17.578125
2864		-9.765625
2865		-21.484375
2866		-11.718750
2867		-23.437500
2868		-15.625000
2869		-27.343750
2870		-19.531250
2871		-31.250000
2872		-21.484375
2873		-33.203125
2874		-25.390625
2875		-35.156250
2876		-29.296875
2877		-37.109375
2878		-33.203125
2879		-42.968750
2880		-33.203125
2881		-44.921875
2882		-35.156250
2883		-46.875000
2884		-39.062500
2885		-48.828125
2886		-41.015625
2887		-50.781250
2888		-42.968750
2889		-52.734375
2890		-44.921875
2891		-54.687500
2892		-46.875000
2893		-54.687500
2894		-50.781250
2895		-58.593750
2896		-50.781250
2897		-60.546875
2898		-52.734375
2899		-60.546875
2900		-52.734375
2901		-62.500000
2902		-54.687500
2903		-62.500000
2904		-56.640625
2905		-64.453125
2906		-56.640625
2907		-64.453125
2908		-56.640625
2909		-62.500000
2910		-58.593750
2911		-62.500000
2912		-58.593750
2913		-64.453125
2914		-58.593750
2915		-64.453125
2916		-56.640625
2917		-64.453125
2918		-56.640625
2919		-64.453125
2920		-56.640625
2921		-62.500000
2922		-54.687500
2923		-62.500000
2924		-54.687500
2925		-58.593750
2926		-56.640625
2927		-58.593750
2928		-54.687500
2929		-56.640625
2930		-50.781250
2931		-56.640625
2932		-48.828125
2933		-56.640625
2934		-46.875000
2935		-52.734375
2936		-44.921875
2937		-50.781250
2938		-42.968750
2939		-48.828125
2940		-41.015625
2941		-46.875000
2942		-41.015625
2943		-42.968750
2944		-39.062500
2945		-41.015625
2946		-33.203125
2947		-41.015625
2948		-31.250000
2949		-37.109375
2950		-29.296875
2951		-35.156250
2952		-25.390625
2953		-31.250000
2954		-23.437500
2955		-29.296875
2956		-19.531250
2957		-27.343750
2958		-17.578125
2959		-19.531250
2960		-15.625000
2961		-17.578125
2962		-11.718750
2963		-15.625000
2964		-5.859375
2965		-13.671875
2966		-3.906250
2967		-9.765625
2968		0.000000
2969		-5.859375
2970		1.953125
2971		-1.953125
2972		5.859375
2973		0.000000
2974		9.765625
2975		3.906250
2976		11.718750
2977		9.765625
2978		13.671875
2979		13.671875
2980		19.531250
2981		13.671875
2982		23.437500
2983		17.578125
2984		25.390625
2985		19.531250
2986		29.296875
2987		23.437500
2988		33.203125
2989		25.390625
2990		35.156250
2991		29.296875
2992		37.109375
2993		35.156250
2994		39.062500
2995		37.109375
2996		42.968750
2997		39.062500
2998		46.875000
2999		41.015625
3000		48.828125
3001		42.968750
3002		52.734375
3003		44.921875
3004		54.687500
3005		48.828125
3006		56.640625
3007		50.781250
3008		58.593750
3009		52.734375
3010		58.593750
3011		56.640625
3012		60.546875
3013		58.593750
3014		64.453125
3015		58.593750
3016		66.406250
3017		60.546875
3018		68.359375
3019		62.500000
3020		70.312500
3021		62.500000
3022		72.265625
3023		64.453125
3024		72.265625
3025		66.406250
3026		72.265625
3027		70.312500
3028		72.265625
3029		68.359375
3030		74.218750
3031		68.359375
3032		76.171875
3033		68.359375
3034		76.171875
3035		70.312500
3036		76.171875
3037		70.312500
3038		76.171875
3039		70.312500
3040		76.171875
3041		70.312500
3042		76.171875
3043		72.265625
3044		74.218750
3045		72.265625
3046		74.218750
3047		68.359375
3048		76.171875
3049		68.359375
3050		76.171875
3051		68.359375
3052		74.218750
3053		66.406250
3054		74.218750
3055		66.406250
3056		72.265625
3057		64.453125
3058		72.265625
3059		64.453125
3060		70.312500
3061		62.500000
3062		66.406250
3063		60.546875
3064		66.406250
3065		56.640625
3066		66.406250
3067		56.640625
3068		64.453125
3069		54.687500
3070		60.546875
3071		50.781250
3072		58.593750
3073		48.828125
3074		58.593750
3075		48.828125
3076		54.687500
3077		46.875000
3078		50.781250
3079		42.968750
3080		48.828125
3081		39.062500
3082		46.875000
3083		37.109375
3084		44.921875
3085		33.203125
3086		42.968750
3087		31.250000
3088		39.062500
3089		27.343750
3090		35.156250
3091		23.437500
3092		33.203125
3093		23.437500
3094		29.296875
3095		19.531250
3096		25.390625
3097		13.671875
3098		21.484375
3099		11.718750
3100		21.484375
3101		7.812500
3102		17.578125
3103		3.906250
3104		13.671875
3105		1.953125
3106		9.765625
3107		-1.953125
3108		5.859375
3109		-3.906250
3110		3.906250
3111		-5.859375
3112		-1.953125
3113		-11.718750
3114		-5.859375
3115		-15.625000
3116		-5.859375
3117		-17.578125
3118		-9.765625
3119		-21.484375
3120		-13.671875
3121		-25.390625
3122		-15.625000
3123		-27.343750
3124		-19.531250
3125		-31.250000
3126		-23.437500
3127		-31.250000
3128		-27.343750
3129		-35.156250
3130		-29.296875
3131		-39.062500
3132		-31.250000
3133		-42.968750
3134		-33.203125
3135		-44.921875
3136		-37.109375
3137		-46.875000
3138		-39.062500
3139		-48.828125
3140		-41.015625
3141		-50.781250
3142		-42.968750
3143		-50.781250
3144		-44.921875
3145		-52.734375
3146		-48.828125
3147		-56.640625
3148		-50.781250
3149		-58.593750
3150		-50.781250
3151		-60.546875
3152		-50.781250
3153		-60.546875
3154		-52.734375
3155		-60.546875
3156		-54.687500
3157		-62.500000
3158		-54.687500
3159		-62.500000
3160		-56.640625
3161		-60.546875
3162		-58.593750
3163		-62.500000
3164		-58.593750
3165		-64.453125
3166		-56.640625
3167		-62.500000
3168		-56.640625
3169		-64.453125
3170		-56.640625
3171		-62.500000
3172		-56.640625
3173		-62.500000
3174		-54.687500
3175		-62.500000
3176		-54.687500
3177		-60.546875
3178		-54.687500
3179		-58.593750
3180		-54.687500
3181		-58.593750
3182		-50.781250
3183		-56.640625
3184		-50.781250
3185		-56.640625
3186		-48.828125
3187		-54.687500
3188		-46.875000
3189		-52.734375
3190		-44.921875
3191		-50.781250
3192		-42.968750
3193		-46.875000
3194		-41.015625
3195		-42.968750
3196		-39.062500
3197		-41.015625
3198		-35.156250
3199		-41.015625
3200		-33.203125
3201		-39.062500
3202		-29.296875
3203		-35.156250
3204		-27.343750
3205		-33.203125
3206		-23.437500
3207		-29.296875
3208		-21.484375
3209		-27.343750
3210		-19.531250
3211		-21.484375
3212		-17.578125
3213		-19.531250
3214		-13.671875
3215		-17.578125
3216		-7.812500
3217		-13.671875
3218		-5.859375
3219		-11.718750
3220		-1.953125
3221		-7.812500
3222		1.953125
3223		-3.906250
3224		3.906250
3225		0.000000
3226		7.812500
3227		1.953125
3228		9.765625
3229		7.812500
3230		11.718750
3231		11.718750
3232		17.578125
3233		11.718750
3234		21.484375
3235		15.625000
3236		25.390625
3237		17.578125
3238		27.343750
3239		21.484375
3240		31.250000
3241		25.390625
3242		33.203125
3243		27.343750
3244		37.109375
3245		33.203125
3246		37.109375
3247		37.109375
3248		42.968750
3249		37.109375
3250		44.921875
3251		39.062500
3252		48.828125
3253		42.968750
3254		50.781250
3255		44.921875
3256		52.734375
3257		46.875000
3258		54.687500
3259		50.781250
3260		56.640625
3261		52.734375
3262		58.593750
3263		56.640625
3264		60.546875
3265		56.640625
3266		64.453125
3267		58.593750
3268		66.406250
3269		60.546875
3270		66.406250
3271		60.546875
3272		68.359375
3273		62.500000
3274		70.312500
3275		64.453125
3276		72.265625
3277		66.406250
3278		72.265625
3279		68.359375
3280		72.265625
3281		70.312500
3282		72.265625
3283		68.359375
3284		76.171875
3285		68.359375
3286		76.171875
3287		70.312500
3288		76.171875
3289		70.312500
3290		78.125000
3291		70.312500
3292		78.125000
3293		70.312500
3294		78.125000
3295		72.265625
3296		74.218750
3297		72.265625
3298		74.218750
3299		70.312500
3300		76.171875
3301		68.359375
3302		76.171875
3303		68.359375
3304		76.171875
3305		68.359375
3306		74.218750
3307		66.406250
3308		74.218750
3309		64.453125
3310		72.265625
3311		64.453125
3312		72.265625
3313		64.453125
3314		68.359375
3315		60.546875
3316		66.406250
3317		58.593750
3318		66.406250
3319		56.640625
3320		64.453125
3321		54.687500
3322		62.500000
3323		52.734375
3324		60.546875
3325		50.781250
3326		60.546875
3327		48.828125
3328		56.640625
3329		48.828125
3330		52.734375
3331		44.921875
3332		50.781250
3333		41.015625
3334		48.828125
3335		39.062500
3336		46.875000
3337		35.156250
3338		42.968750
3339		33.203125
3340		41.015625
3341		29.296875
3342		39.062500
3343		25.390625
3344		35.156250
3345		25.390625
3346		33.203125
3347		21.484375
3348		27.343750
3349		15.625000
3350		23.437500
3351		13.671875
3352		21.484375
3353		9.765625
3354		19.531250
3355		5.859375
3356		17.578125
3357		1.953125
3358		13.671875
3359		0.000000
3360		9.765625
3361		-1.953125
3362		5.859375
3363		-3.906250
3364		0.000000
3365		-7.812500
3366		-1.953125
3367		-13.671875
3368		-3.906250
3369		-17.578125
3370		-7.812500
3371		-19.531250
3372		-11.718750
3373		-23.437500
3374		-13.671875
3375		-25.390625
3376		-17.578125
3377		-29.296875
3378		-19.531250
3379		-29.296875
3380		-25.390625
3381		-33.203125
3382		-27.343750
3383		-37.109375
3384		-29.296875
3385		-41.015625
3386		-31.250000
3387		-42.968750
3388		-35.156250
3389		-44.921875
3390		-37.109375
3391		-46.875000
3392		-39.062500
3393		-50.781250
3394		-41.015625
3395		-50.781250
3396		-42.968750
3397		-50.781250
3398		-46.875000
3399		-54.687500
3400		-48.828125
3401		-56.640625
3402		-48.828125
3403		-58.593750
3404		-50.781250
3405		-60.546875
3406		-52.734375
3407		-60.546875
3408		-52.734375
3409		-62.500000
3410		-54.687500
3411		-62.500000
3412		-54.687500
3413		-60.546875
3414		-58.593750
3415		-60.546875
3416		-58.593750
3417		-62.500000
3418		-56.640625
3419		-62.500000
3420		-56.640625
3421		-62.500000
3422		-56.640625
3423		-62.500000
3424		-56.640625
3425		-62.500000
3426		-56.640625
3427		-62.500000
3428		-54.687500
3429		-60.546875
3430		-56.640625
3431		-58.593750
3432		-54.687500
3433		-58.593750
3434		-52.734375
3435		-58.593750
3436		-50.781250
3437		-56.640625
3438		-48.828125
3439		-54.687500
3440		-46.875000
3441		-52.734375
3442		-44.921875
3443		-50.781250
3444		-42.968750
3445		-48.828125
3446		-42.968750
3447		-44.921875
3448		-41.015625
3449		-42.968750
3450		-39.062500
3451		-42.968750
3452		-33.203125
3453		-39.062500
3454		-31.250000
3455		-37.109375
3456		-29.296875
3457		-35.156250
3458		-25.390625
3459		-31.250000
3460		-23.437500
3461		-29.296875
3462		-21.484375
3463		-23.437500
3464		-19.531250
3465		-21.484375
3466		-15.625000
3467		-17.578125
3468		-9.765625
3469		-17.578125
3470		-7.812500
3471		-13.671875
3472		-3.906250
3473		-9.765625
3474		0.000000
3475		-5.859375
3476		1.953125
3477		-3.906250
3478		5.859375
3479		0.000000
3480		7.812500
3481		5.859375
3482		11.718750
3483		9.765625
3484		15.625000
3485		9.765625
3486		19.531250
3487		13.671875
3488		21.484375
3489		17.578125
3490		25.390625
3491		19.531250
3492		29.296875
3493		23.437500
3494		31.250000
3495		25.390625
3496		35.156250
3497		31.250000
3498		37.109375
3499		35.156250
3500		39.062500
3501		37.109375
3502		42.968750
3503		39.062500
3504		46.875000
3505		41.015625
3506		50.781250
3507		42.968750
3508		50.781250
3509		44.921875
3510		54.687500
3511		48.828125
3512		56.640625
3513		52.734375
3514		56.640625
3515		54.687500
3516		58.593750
3517		56.640625
3518		62.500000
3519		56.640625
3520		66.406250
3521		58.593750
3522		66.406250
3523		60.546875
3524		68.359375
3525		62.500000
3526		70.312500
3527		64.453125
3528		70.312500
3529		66.406250
3530		72.265625
3531		68.359375
3532		72.265625
3533		70.312500
3534		72.265625
3535		68.359375
3536		76.171875
3537		70.312500
3538		76.171875
3539		70.312500
3540		76.171875
3541		70.312500
3542		76.171875
3543		70.312500
3544		78.125000
3545		70.312500
3546		78.125000
3547		72.265625
3548		74.218750
3549		72.265625
3550		76.171875
3551		70.312500
3552		76.171875
3553		70.312500
3554		76.171875
3555		68.359375
3556		76.171875
3557		68.359375
3558		76.171875
3559		66.406250
3560		74.218750
3561		66.406250
3562		74.218750
3563		66.406250
3564		72.265625
3565		66.406250
3566		68.359375
3567		62.500000
3568		68.359375
3569		60.546875
3570		68.359375
3571		58.593750
3572		66.406250
3573		56.640625
3574		64.453125
3575		54.687500
3576		62.500000
3577		52.734375
3578		60.546875
3579		50.781250
3580		58.593750
3581		48.828125
3582		54.687500
3583		46.875000
3584		50.781250
3585		42.968750
3586		50.781250
3587		39.062500
3588		48.828125
3589		37.109375
3590		44.921875
3591		35.156250
3592		42.968750
3593		33.203125
3594		39.062500
3595		27.343750
3596		37.109375
3597		27.343750
3598		33.203125
3599		23.437500
3600		29.296875
3601		19.531250
3602		25.390625
3603		15.625000
3604		23.437500
3605		13.671875
3606		21.484375
3607		11.718750
3608		15.625000
3609		5.859375
3610		13.671875
3611		3.906250
3612		9.765625
3613		0.000000
3614		7.812500
3615		-1.953125
3616		1.953125
3617		-5.859375
3618		0.000000
3619		-11.718750
3620		-1.953125
3621		-13.671875
3622		-5.859375
3623		-15.625000
3624		-11.718750
3625		-21.484375
3626		-13.671875
3627		-23.437500
3628		-15.625000
3629		-27.343750
3630		-17.578125
3631		-27.343750
3632		-23.437500
3633		-31.250000
3634		-27.343750
3635		-33.203125
3636		-29.296875
3637		-37.109375
3638		-31.250000
3639		-39.062500
3640		-35.156250
3641		-41.015625
3642		-37.109375
3643		-44.921875
3644		-39.062500
3645		-46.875000
3646		-41.015625
3647		-48.828125
3648		-42.968750
3649		-50.781250
3650		-46.875000
3651		-52.734375
3652		-48.828125
3653		-54.687500
3654		-50.781250
3655		-54.687500
3656		-50.781250
3657		-56.640625
3658		-52.734375
3659		-58.593750
3660		-52.734375
3661		-60.546875
3662		-54.687500
3663		-60.546875
3664		-56.640625
3665		-60.546875
3666		-56.640625
3667		-60.546875
3668		-58.593750
3669		-62.500000
3670		-58.593750
3671		-60.546875
3672		-58.593750
3673		-62.500000
3674		-58.593750
3675		-60.546875
3676		-58.593750
3677		-60.546875
3678		-58.593750
3679		-60.546875
3680		-56.640625
3681		-60.546875
3682		-56.640625
3683		-58.593750
3684		-56.640625
3685		-58.593750
3686		-54.687500
3687		-56.640625
3688		-52.734375
3689		-54.687500
3690		-50.781250
3691		-54.687500
3692		-50.781250
3693		-52.734375
3694		-48.828125
3695		-50.781250
3696		-46.875000
3697		-48.828125
3698		-42.968750
3699		-46.875000
3700		-42.968750
3701		-44.921875
3702		-39.062500
3703		-41.015625
3704		-37.109375
3705		-39.062500
3706		-35.156250
3707		-37.109375
3708		-31.250000
3709		-33.203125
3710		-29.296875
3711		-31.250000
3712		-27.343750
3713		-29.296875
3714		-23.437500
3715		-27.343750
3716		-21.484375
3717		-21.484375
3718		-17.578125
3719		-19.531250
3720		-13.671875
3721		-15.625000
3722		-11.718750
3723		-11.718750
3724		-7.812500
3725		-9.765625
3726		-3.906250
3727		-5.859375
3728		-1.953125
3729		-3.906250
3730		1.953125
3731		0.000000
3732		5.859375
3733		3.906250
3734		7.812500
3735		7.812500
3736		13.671875
3737		9.765625
3738		15.625000
3739		13.671875
3740		19.531250
3741		17.578125
3742		21.484375
3743		19.531250
3744		25.390625
3745		23.437500
3746		29.296875
3747		25.390625
3748		31.250000
3749		29.296875
3750		35.156250
3751		33.203125
3752		37.109375
3753		35.156250
3754		41.015625
3755		39.062500
3756		42.968750
3757		41.015625
3758		44.921875
3759		42.968750
3760		48.828125
3761		46.875000
3762		50.781250
3763		48.828125
3764		52.734375
3765		50.781250
3766		54.687500
3767		54.687500
3768		58.593750
3769		56.640625
3770		60.546875
3771		58.593750
3772		62.500000
3773		60.546875
3774		64.453125
3775		62.500000
3776		66.406250
3777		62.500000
3778		68.359375
3779		64.453125
3780		68.359375
3781		66.406250
3782		70.312500
3783		68.359375
3784		70.312500
3785		68.359375
3786		72.265625
3787		70.312500
3788		72.265625
3789		70.312500
3790		74.218750
3791		72.265625
3792		74.218750
3793		72.265625
3794		76.171875
3795		72.265625
3796		76.171875
3797		72.265625
3798		76.171875
3799		72.265625
3800		76.171875
3801		72.265625
3802		74.218750
3803		72.265625
3804		76.171875
3805		72.265625
3806		76.171875
3807		72.265625
3808		74.218750
3809		70.312500
3810		74.218750
3811		70.312500
3812		74.218750
3813		68.359375
3814		72.265625
3815		68.359375
3816		70.312500
3817		66.406250
3818		70.312500
3819		64.453125
3820		68.359375
3821		64.453125
3822		68.359375
3823		62.500000
3824		66.406250
3825		60.546875
3826		64.453125
3827		58.593750
3828		62.500000
3829		56.640625
3830		60.546875
3831		52.734375
3832		58.593750
3833		50.781250
3834		56.640625
3835		48.828125
3836		52.734375
3837		46.875000
3838		50.781250
3839		44.921875
3840		48.828125
3841		41.015625
3842		44.921875
3843		39.062500
3844		42.968750
3845		35.156250
3846		41.015625
3847		33.203125
3848		37.109375
3849		29.296875
3850		35.156250
3851		25.390625
3852		31.250000
3853		21.484375
3854		27.343750
3855		19.531250
3856		25.390625
3857		15.625000
3858		21.484375
3859		13.671875
3860		17.578125
3861		9.765625
3862		15.625000
3863		5.859375
3864		11.718750
3865		3.906250
3866		9.765625
3867		0.000000
3868		3.906250
3869		-3.906250
3870		1.953125
3871		-5.859375
3872		-1.953125
3873		-9.765625
3874		-5.859375
3875		-13.671875
3876		-7.812500
3877		-17.578125
3878		-11.718750
3879		-19.531250
3880		-15.625000
3881		-23.437500
3882		-17.578125
3883		-25.390625
3884		-19.531250
3885		-29.296875
3886		-23.437500
3887		-31.250000
3888		-27.343750
3889		-35.156250
3890		-29.296875
3891		-37.109375
3892		-33.203125
3893		-39.062500
3894		-35.156250
3895		-42.968750
3896		-39.062500
3897		-44.921875
3898		-41.015625
3899		-46.875000
3900		-42.968750
3901		-48.828125
3902		-44.921875
3903		-52.734375
3904		-46.875000
3905		-52.734375
3906		-48.828125
3907		-54.687500
3908		-50.781250
3909		-54.687500
3910		-52.734375
3911		-56.640625
3912		-52.734375
3913		-58.593750
3914		-54.687500
3915		-60.546875
3916		-54.687500
3917		-58.593750
3918		-56.640625
3919		-60.546875
3920		-58.593750
3921		-60.546875
3922		-58.593750
3923		-60.546875
3924		-56.640625
3925		-60.546875
3926		-58.593750
3927		-60.546875
3928		-56.640625
3929		-60.546875
3930		-58.593750
3931		-60.546875
3932		-56.640625
3933		-60.546875
3934		-56.640625
3935		-58.593750
3936		-56.640625
3937		-58.593750
3938		-54.687500
3939		-56.640625
3940		-54.687500
3941		-56.640625
3942		-52.734375
3943		-54.687500
3944		-50.781250
3945		-52.734375
3946		-48.828125
3947		-50.781250
3948		-46.875000
3949		-50.781250
3950		-44.921875
3951		-46.875000
3952		-42.968750
3953		-44.921875
3954		-41.015625
3955		-42.968750
3956		-39.062500
3957		-41.015625
3958		-35.156250
3959		-39.062500
3960		-33.203125
3961		-35.156250
3962		-31.250000
3963		-33.203125
3964		-29.296875
3965		-29.296875
3966		-25.390625
3967		-27.343750
3968		-21.484375
3969		-23.437500
3970		-19.531250
3971		-21.484375
3972		-15.625000
3973		-17.578125
3974		-13.671875
3975		-15.625000
3976		-9.765625
3977		-11.718750
3978		-5.859375
3979		-7.812500
3980		-1.953125
3981		-5.859375
3982		0.000000
3983		-1.953125
3984		3.906250
3985		1.953125
3986		7.812500
3987		5.859375
3988		11.718750
3989		7.812500
3990		13.671875
3991		11.718750
3992		17.578125
3993		15.625000
3994		19.531250
3995		17.578125
3996		23.437500
3997		21.484375
3998		27.343750
3999		25.390625
4000		31.250000
4001		27.343750
4002		33.203125
4003		31.250000
4004		35.156250
4005		33.203125
4006		39.062500
4007		37.109375
4008		41.015625
4009		39.062500
4010		44.921875
4011		42.968750
4012		46.875000
4013		44.921875
4014		50.781250
4015		48.828125
4016		52.734375
4017		48.828125
4018		54.687500
4019		52.734375
4020		56.640625
4021		54.687500
4022		60.546875
4023		56.640625
4024		60.546875
4025		58.593750
4026		64.453125
4027		60.546875
4028		64.453125
4029		62.500000
4030		66.406250
4031		64.453125
4032		68.359375
4033		66.406250
4034		70.312500
4035		68.359375
4036		70.312500
4037		68.359375
4038		72.265625
4039		68.359375
4040		72.265625
4041		70.312500
4042		74.218750
4043		72.265625
4044		74.218750
4045		72.265625
4046		74.218750
4047		72.265625
4048		76.171875
4049		72.265625
4050		76.171875
4051		72.265625
4052		76.171875
4053		72.265625
4054		76.171875
4055		72.265625
4056		76.171875
4057		72.265625
4058		76.171875
4059		72.265625
4060		74.218750
4061		70.312500
4062		74.218750
4063		70.312500
4064		74.218750
4065		68.359375
4066		72.265625
4067		68.359375
4068		72.265625
4069		68.359375
4070		70.312500
4071		66.406250
4072		70.312500
4073		64.453125
4074		68.359375
4075		62.500000
4076		66.406250
4077		60.546875
4078		64.453125
4079		58.593750
4080		62.500000
4081		56.640625
4082		62.500000
4083		54.687500
4084		58.593750
4085		52.734375
4086		56.640625
4087		50.781250
4088		54.687500
4089		48.828125
4090		52.734375
4091		44.921875
4092		50.781250
4093		42.968750
4094		46.875000
4095		41.015625
4096		44.921875
4097		37.109375
4098		42.968750
4099		33.203125
4100		39.062500
4101		31.250000
4102		37.109375
4103		29.296875
4104		33.203125
4105		25.390625
4106		29.296875
4107		21.484375
4108		27.343750
4109		19.531250
4110		23.437500
4111		15.625000
4112		21.484375
4113		11.718750
4114		17.578125
4115		9.765625
4116		13.671875
4117		3.906250
4118		9.765625
4119		1.953125
4120		7.812500
4121		-1.953125
4122		3.906250
4123		-5.859375
4124		1.953125
4125		-7.812500
4126		-1.953125
4127		-11.718750
4128		-5.859375
4129		-15.625000
4130		-9.765625
4131		-17.578125
4132		-11.718750
4133		-21.484375
4134		-15.625000
4135		-23.437500
4136		-17.578125
4137		-27.343750
4138		-21.484375
4139		-29.296875
4140		-25.390625
4141		-33.203125
4142		-27.343750
4143		-37.109375
4144		-31.250000
4145		-37.109375
4146		-33.203125
4147		-41.015625
4148		-37.109375
4149		-42.968750
4150		-39.062500
4151		-44.921875
4152		-41.015625
4153		-46.875000
4154		-42.968750
4155		-48.828125
4156		-44.921875
4157		-50.781250
4158		-46.875000
4159		-52.734375
4160		-48.828125
4161		-54.687500
4162		-50.781250
4163		-56.640625
4164		-52.734375
4165		-56.640625
4166		-52.734375
4167		-58.593750
4168		-54.687500
4169		-58.593750
4170		-56.640625
4171		-58.593750
4172		-56.640625
4173		-60.546875
4174		-56.640625
4175		-60.546875
4176		-56.640625
4177		-60.546875
4178		-56.640625
4179		-60.546875
4180		-56.640625
4181		-60.546875
4182		-58.593750
4183		-60.546875
4184		-56.640625
4185		-60.546875
4186		-56.640625
4187		-58.593750
4188		-56.640625
4189		-58.593750
4190		-54.687500
4191		-58.593750
4192		-54.687500
4193		-56.640625
4194		-52.734375
4195		-54.687500
4196		-52.734375
4197		-54.687500
4198		-50.781250
4199		-52.734375
4200		-48.828125
4201		-50.781250
4202		-46.875000
4203		-48.828125
4204		-44.921875
4205		-46.875000
4206		-42.968750
4207		-44.921875
4208		-39.062500
4209		-41.015625
4210		-37.109375
4211		-39.062500
4212		-35.156250
4213		-37.109375
4214		-31.250000
4215		-35.156250
4216		-29.296875
4217		-31.250000
4218		-27.343750
4219		-29.296875
4220		-23.437500
4221		-25.390625
4222		-21.484375
4223		-21.484375
4224		-17.578125
4225		-19.531250
4226		-13.671875
4227		-17.578125
4228		-11.718750
4229		-13.671875
4230		-7.812500
4231		-9.765625
4232		-3.906250
4233		-5.859375
4234		-1.953125
4235		-3.906250
4236		1.953125
4237		0.000000
4238		5.859375
4239		3.906250
4240		7.812500
4241		5.859375
4242		11.718750
4243		9.765625
4244		15.625000
4245		13.671875
4246		17.578125
4247		17.578125
4248		21.484375
4249		19.531250
4250		25.390625
4251		23.437500
4252		29.296875
4253		25.390625
4254		31.250000
4255		29.296875
4256		35.156250
4257		33.203125
4258		37.109375
4259		35.156250
4260		41.015625
4261		39.062500
4262		42.968750
4263		41.015625
4264		44.921875
4265		44.921875
4266		48.828125
4267		46.875000
4268		50.781250
4269		48.828125
4270		52.734375
4271		50.781250
4272		54.687500
4273		54.687500
4274		58.593750
4275		56.640625
4276		60.546875
4277		58.593750
4278		62.500000
4279		60.546875
4280		64.453125
4281		62.500000
4282		66.406250
4283		62.500000
4284		68.359375
4285		64.453125
4286		70.312500
4287		66.406250
4288		70.312500
4289		68.359375
4290		70.312500
4291		68.359375
4292		72.265625
4293		70.312500
4294		74.218750
4295		70.312500
4296		74.218750
4297		72.265625
4298		76.171875
4299		72.265625
4300		76.171875
4301		72.265625
4302		76.171875
4303		72.265625
4304		76.171875
4305		74.218750
4306		76.171875
4307		72.265625
4308		76.171875
4309		72.265625
4310		76.171875
4311		72.265625
4312		76.171875
4313		72.265625
4314		74.218750
4315		72.265625
4316		74.218750
4317		70.312500
4318		74.218750
4319		68.359375
4320		72.265625
4321		68.359375
4322		72.265625
4323		68.359375
4324		70.312500
4325		66.406250
4326		70.312500
4327		64.453125
4328		68.359375
4329		62.500000
4330		66.406250
4331		60.546875
4332		64.453125
4333		58.593750
4334		64.453125
4335		56.640625
4336		60.546875
4337		54.687500
4338		60.546875
4339		52.734375
4340		56.640625
4341		48.828125
4342		54.687500
4343		46.875000
4344		52.734375
4345		44.921875
4346		48.828125
4347		41.015625
4348		46.875000
4349		39.062500
4350		42.968750
4351		37.109375
4352		41.015625
4353		33.203125
4354		39.062500
4355		31.250000
4356		35.156250
4357		27.343750
4358		33.203125
4359		23.437500
4360		29.296875
4361		21.484375
4362		25.390625
4363		17.578125
4364		23.437500
4365		15.625000
4366		19.531250
4367		11.718750
4368		17.578125
4369		7.812500
4370		13.671875
4371		3.906250
4372		9.765625
4373		1.953125
4374		5.859375
4375		-3.906250
4376		3.906250
4377		-5.859375
4378		0.000000
4379		-9.765625
4380		-3.906250
4381		-11.718750
4382		-7.812500
4383		-15.625000
4384		-9.765625
4385		-17.578125
4386		-13.671875
4387		-21.484375
4388		-15.625000
4389		-25.390625
4390		-19.531250
4391		-27.343750
4392		-23.437500
4393		-31.250000
4394		-25.390625
4395		-33.203125
4396		-29.296875
4397		-37.109375
4398		-31.250000
4399		-39.062500
4400		-33.203125
4401		-41.015625
4402		-37.109375
4403		-42.968750
4404		-39.062500
4405		-44.921875
4406		-41.015625
4407		-48.828125
4408		-44.921875
4409		-50.781250
4410		-44.921875
4411		-52.734375
4412		-46.875000
4413		-52.734375
4414		-48.828125
4415		-54.687500
4416		-50.781250
4417		-56.640625
4418		-52.734375
4419		-56.640625
4420		-54.687500
4421		-60.546875
4422		-54.687500
4423		-58.593750
4424		-56.640625
4425		-60.546875
4426		-56.640625
4427		-60.546875
4428		-56.640625
4429		-60.546875
4430		-56.640625
4431		-60.546875
4432		-56.640625
4433		-60.546875
4434		-58.593750
4435		-60.546875
4436		-56.640625
4437		-60.546875
4438		-56.640625
4439		-58.593750
4440		-56.640625
4441		-60.546875
4442		-56.640625
4443		-58.593750
4444		-54.687500
4445		-56.640625
4446		-52.734375
4447		-56.640625
4448		-52.734375
4449		-54.687500
4450		-50.781250
4451		-54.687500
4452		-48.828125
4453		-50.781250
4454		-46.875000
4455		-48.828125
4456		-46.875000
4457		-46.875000
4458		-42.968750
4459		-44.921875
4460		-41.015625
4461		-42.968750
4462		-39.062500
4463		-41.015625
4464		-37.109375
4465		-37.109375
4466		-33.203125
4467		-35.156250
4468		-31.250000
4469		-33.203125
4470		-29.296875
4471		-31.250000
4472		-25.390625
4473		-27.343750
4474		-23.437500
4475		-23.437500
4476		-19.531250
4477		-21.484375
4478		-15.625000
4479		-17.578125
4480		-13.671875
4481		-15.625000
4482		-9.765625
4483		-11.718750
4484		-7.812500
4485		-7.812500
4486		-3.906250
4487		-5.859375
4488		0.000000
4489		-1.953125
4490		3.906250
4491		1.953125
4492		5.859375
4493		3.906250
4494		9.765625
4495		7.812500
4496		13.671875
4497		11.718750
4498		17.578125
4499		15.625000
4500		19.531250
4501		17.578125
4502		23.437500
4503		21.484375
4504		27.343750
4505		25.390625
4506		29.296875
4507		27.343750
4508		33.203125
4509		31.250000
4510		35.156250
4511		33.203125
4512		39.062500
4513		37.109375
4514		41.015625
4515		39.062500
4516		44.921875
4517		42.968750
4518		46.875000
4519		44.921875
4520		48.828125
4521		46.875000
4522		52.734375
4523		50.781250
4524		54.687500
4525		52.734375
4526		56.640625
4527		54.687500
4528		58.593750
4529		56.640625
4530		62.500000
4531		58.593750
4532		62.500000
4533		60.546875
4534		64.453125
4535		62.500000
4536		66.406250
4537		64.453125
4538		68.359375
4539		66.406250
4540		68.359375
4541		68.359375
4542		70.312500
4543		68.359375
4544		72.265625
4545		70.312500
4546		74.218750
4547		70.312500
4548		74.218750
4549		72.265625
4550		74.218750
4551		72.265625
4552		76.171875
4553		72.265625
4554		76.171875
4555		72.265625
4556		76.171875
4557		74.218750
4558		76.171875
4559		72.265625
4560		76.171875
4561		72.265625
4562		76.171875
4563		72.265625
4564		76.171875
4565		72.265625
4566		76.171875
4567		72.265625
4568		74.218750
4569		70.312500
4570		74.218750
4571		70.312500
4572		74.218750
4573		68.359375
4574		72.265625
4575		68.359375
4576		70.312500
4577		66.406250
4578		70.312500
4579		64.453125
4580		68.359375
4581		64.453125
4582		68.359375
4583		62.500000
4584		66.406250
4585		60.546875
4586		64.453125
4587		58.593750
4588		62.500000
4589		56.640625
4590		60.546875
4591		54.687500
4592		58.593750
4593		50.781250
4594		56.640625
4595		48.828125
4596		52.734375
4597		46.875000
4598		50.781250
4599		42.968750
4600		48.828125
4601		41.015625
4602		44.921875
4603		39.062500
4604		42.968750
4605		35.156250
4606		41.015625
4607		33.203125
4608		37.109375
4609		29.296875
4610		33.203125
4611		25.390625
4612		31.250000
4613		23.437500
4614		29.296875
4615		19.531250
4616		25.390625
4617		17.578125
4618		21.484375
4619		13.671875
4620		19.531250
4621		9.765625
4622		15.625000
4623		5.859375
4624		11.718750
4625		3.906250
4626		7.812500
4627		0.000000
4628		5.859375
4629		-3.906250
4630		1.953125
4631		-7.812500
4632		-1.953125
4633		-9.765625
4634		-5.859375
4635		-13.671875
4636		-7.812500
4637		-15.625000
4638		-11.718750
4639		-19.531250
4640		-13.671875
4641		-23.437500
4642		-17.578125
4643		-25.390625
4644		-21.484375
4645		-29.296875
4646		-23.437500
4647		-31.250000
4648		-25.390625
4649		-35.156250
4650		-29.296875
4651		-37.109375
4652		-33.203125
4653		-39.062500
4654		-35.156250
4655		-42.968750
4656		-37.109375
4657		-44.921875
4658		-41.015625
4659		-46.875000
4660		-42.968750
4661		-48.828125
4662		-42.968750
4663		-50.781250
4664		-46.875000
4665		-52.734375
4666		-48.828125
4667		-54.687500
4668		-50.781250
4669		-54.687500
4670		-50.781250
4671		-56.640625
4672		-52.734375
4673		-58.593750
4674		-52.734375
4675		-58.593750
4676		-54.687500
4677		-58.593750
4678		-56.640625
4679		-60.546875
4680		-56.640625
4681		-60.546875
4682		-56.640625
4683		-60.546875
4684		-56.640625
4685		-60.546875
4686		-58.593750
4687		-60.546875
4688		-56.640625
4689		-60.546875
4690		-56.640625
4691		-60.546875
4692		-56.640625
4693		-58.593750
4694		-56.640625
4695		-58.593750
4696		-54.687500
4697		-58.593750
4698		-54.687500
4699		-56.640625
4700		-52.734375
4701		-54.687500
4702		-52.734375
4703		-54.687500
4704		-48.828125
4705		-52.734375
4706		-48.828125
4707		-50.781250
4708		-46.875000
4709		-48.828125
4710		-44.921875
4711		-46.875000
4712		-42.968750
4713		-44.921875
4714		-41.015625
4715		-42.968750
4716		-37.109375
4717		-41.015625
4718		-35.156250
4719		-37.109375
4720		-33.203125
4721		-35.156250
4722		-31.250000
4723		-33.203125
4724		-27.343750
4725		-29.296875
4726		-23.437500
4727		-27.343750
4728		-21.484375
4729		-23.437500
4730		-17.578125
4731		-19.531250
4732		-15.625000
4733		-17.578125
4734		-11.718750
4735		-13.671875
4736		-7.812500
4737		-9.765625
4738		-5.859375
4739		-7.812500
4740		-1.953125
4741		-3.906250
4742		1.953125
4743		0.000000
4744		3.906250
4745		3.906250
4746		7.812500
4747		5.859375
4748		11.718750
4749		9.765625
4750		15.625000
4751		13.671875
4752		17.578125
4753		15.625000
4754		21.484375
4755		19.531250
4756		25.390625
4757		21.484375
4758		27.343750
4759		25.390625
4760		31.250000
4761		29.296875
4762		33.203125
4763		31.250000
4764		37.109375
4765		35.156250
4766		39.062500
4767		37.109375
4768		42.968750
4769		41.015625
4770		44.921875
4771		42.968750
4772		48.828125
4773		44.921875
4774		50.781250
4775		48.828125
4776		52.734375
4777		50.781250
4778		54.687500
4779		52.734375
4780		58.593750
4781		54.687500
4782		60.546875
4783		58.593750
4784		62.500000
4785		60.546875
4786		64.453125
4787		60.546875
4788		66.406250
4789		62.500000
4790		68.359375
4791		66.406250
4792		68.359375
4793		66.406250
4794		70.312500
4795		68.359375
4796		72.265625
4797		68.359375
4798		72.265625
4799		70.312500
4800		74.218750
4801		70.312500
4802		74.218750
4803		72.265625
4804		76.171875
4805		72.265625
4806		76.171875
4807		72.265625
4808		76.171875
4809		74.218750
4810		76.171875
4811		72.265625
4812		76.171875
4813		72.265625
4814		76.171875
4815		74.218750
4816		76.171875
4817		72.265625
4818		76.171875
4819		72.265625
4820		76.171875
4821		72.265625
4822		74.218750
4823		70.312500
4824		74.218750
4825		70.312500
4826		72.265625
4827		70.312500
4828		72.265625
4829		68.359375
4830		72.265625
4831		66.406250
4832		70.312500
4833		64.453125
4834		68.359375
4835		62.500000
4836		66.406250
4837		62.500000
4838		66.406250
4839		60.546875
4840		64.453125
4841		56.640625
4842		62.500000
4843		56.640625
4844		58.593750
4845		52.734375
4846		56.640625
4847		50.781250
4848		54.687500
4849		48.828125
4850		52.734375
4851		44.921875
4852		50.781250
4853		42.968750
4854		48.828125
4855		39.062500
4856		44.921875
4857		37.109375
4858		42.968750
4859		35.156250
4860		39.062500
4861		31.250000
4862		37.109375
4863		29.296875
4864		35.156250
4865		25.390625
4866		31.250000
4867		21.484375
4868		27.343750
4869		19.531250
4870		23.437500
4871		15.625000
4872		21.484375
4873		11.718750
4874		17.578125
4875		9.765625
4876		15.625000
4877		5.859375
4878		11.718750
4879		1.953125
4880		7.812500
4881		-1.953125
4882		3.906250
4883		-3.906250
4884		0.000000
4885		-7.812500
4886		-1.953125
4887		-11.718750
4888		-5.859375
4889		-13.671875
4890		-7.812500
4891		-17.578125
4892		-11.718750
4893		-19.531250
4894		-15.625000
4895		-23.437500
4896		-19.531250
4897		-27.343750
4898		-21.484375
4899		-31.250000
4900		-25.390625
4901		-31.250000
4902		-27.343750
4903		-35.156250
4904		-31.250000
4905		-37.109375
4906		-33.203125
4907		-41.015625
4908		-35.156250
4909		-42.968750
4910		-39.062500
4911		-44.921875
4912		-41.015625
4913		-46.875000
4914		-42.968750
4915		-48.828125
4916		-44.921875
4917		-50.781250
4918		-46.875000
4919		-52.734375
4920		-48.828125
4921		-54.687500
4922		-50.781250
4923		-56.640625
4924		-52.734375
4925		-56.640625
4926		-52.734375
4927		-56.640625
4928		-54.687500
4929		-58.593750
4930		-54.687500
4931		-58.593750
4932		-56.640625
4933		-60.546875
4934		-56.640625
4935		-60.546875
4936		-56.640625
4937		-60.546875
4938		-56.640625
4939		-60.546875
4940		-56.640625
4941		-60.546875
4942		-56.640625
4943		-58.593750
4944		-56.640625
4945		-58.593750
4946		-56.640625
4947		-58.593750
4948		-54.687500
4949		-58.593750
4950		-54.687500
4951		-56.640625
4952		-52.734375
4953		-56.640625
4954		-52.734375
4955		-54.687500
4956		-50.781250
4957		-52.734375
4958		-48.828125
4959		-52.734375
4960		-48.828125
4961		-48.828125
4962		-46.875000
4963		-46.875000
4964		-44.921875
4965		-44.921875
4966		-41.015625
4967		-42.968750
4968		-39.062500
4969		-41.015625
4970		-37.109375
4971		-39.062500
4972		-35.156250
4973		-35.156250
4974		-31.250000
4975		-33.203125
4976		-29.296875
4977		-31.250000
4978		-25.390625
4979		-27.343750
4980		-21.484375
4981		-25.390625
4982		-19.531250
4983		-21.484375
4984		-17.578125
4985		-19.531250
4986		-13.671875
4987		-15.625000
4988		-9.765625
4989		-11.718750
4990		-7.812500
4991		-9.765625
4992		-3.906250
4993		-5.859375
4994		0.000000
4995		-3.906250
4996		1.953125
4997		0.000000
4998		5.859375
4999		3.906250
5000		9.765625
5001		7.812500
5002		13.671875
5003		11.718750
5004		15.625000
5005		13.671875
5006		19.531250
5007		17.578125
5008		21.484375
5009		19.531250
5010		25.390625
5011		23.437500
5012		29.296875
5013		27.343750
5014		33.203125
5015		29.296875
5016		35.156250
5017		33.203125
5018		39.062500
5019		37.109375
5020		41.015625
5021		39.062500
5022		44.921875
5023		41.015625
5024		46.875000
5025		44.921875
5026		48.828125
5027		46.875000
5028		50.781250
5029		48.828125
5030		54.687500
5031		50.781250
5032		56.640625
5033		54.687500
5034		58.593750
5035		56.640625
5036		60.546875
5037		58.593750
5038		62.500000
5039		60.546875
5040		64.453125
5041		62.500000
5042		66.406250
5043		64.453125
5044		68.359375
5045		66.406250
5046		68.359375
5047		66.406250
5048		70.312500
5049		68.359375
5050		72.265625
5051		70.312500
5052		72.265625
5053		70.312500
5054		74.218750
5055		72.265625
5056		74.218750
5057		72.265625
5058		76.171875
5059		72.265625
5060		76.171875
5061		74.218750
5062		76.171875
5063		74.218750
5064		76.171875
5065		72.265625
5066		76.171875
5067		72.265625
5068		76.171875
5069		72.265625
5070		76.171875
5071		72.265625
5072		76.171875
5073		72.265625
5074		76.171875
5075		70.312500
5076		74.218750
5077		70.312500
5078		74.218750
5079		70.312500
5080		72.265625
5081		68.359375
5082		72.265625
5083		68.359375
5084		72.265625
5085		66.406250
5086		70.312500
5087		64.453125
5088		68.359375
5089		62.500000
5090		66.406250
5091		60.546875
5092		64.453125
5093		58.593750
5094		62.500000
5095		56.640625
5096		60.546875
5097		54.687500
5098		58.593750
5099		52.734375
5100		56.640625
5101		50.781250
5102		54.687500
5103		48.828125
5104		50.781250
5105		44.921875
5106		48.828125
5107		42.968750
5108		46.875000
5109		39.062500
5110		44.921875
5111		37.109375
5112		41.015625
5113		33.203125
5114		39.062500
5115		31.250000
5116		35.156250
5117		27.343750
5118		33.203125
5119		23.437500
5120		29.296875
5121		21.484375
5122		25.390625
5123		17.578125
5124		23.437500
5125		15.625000
5126		19.531250
5127		11.718750
5128		15.625000
5129		7.812500
5130		11.718750
5131		3.906250
5132		9.765625
5133		1.953125
5134		5.859375
5135		-1.953125
5136		3.906250
5137		-5.859375
5138		0.000000
5139		-9.765625
5140		-3.906250
5141		-11.718750
5142		-5.859375
5143		-15.625000
5144		-9.765625
5145		-17.578125
5146		-13.671875
5147		-21.484375
5148		-15.625000
5149		-25.390625
5150		-19.531250
5151		-27.343750
5152		-23.437500
5153		-31.250000
5154		-25.390625
5155		-33.203125
5156		-29.296875
5157		-37.109375
5158		-31.250000
5159		-39.062500
5160		-35.156250
5161		-41.015625
5162		-37.109375
5163		-42.968750
5164		-39.062500
5165		-46.875000
5166		-41.015625
5167		-46.875000
5168		-42.968750
5169		-50.781250
5170		-44.921875
5171		-50.781250
5172		-48.828125
5173		-52.734375
5174		-48.828125
5175		-54.687500
5176		-50.781250
5177		-56.640625
5178		-50.781250
5179		-56.640625
5180		-54.687500
5181		-58.593750
5182		-54.687500
5183		-58.593750
5184		-54.687500
5185		-58.593750
5186		-56.640625
5187		-58.593750
5188		-56.640625
5189		-60.546875
5190		-56.640625
5191		-60.546875
5192		-56.640625
5193		-60.546875
5194		-56.640625
5195		-60.546875
5196		-56.640625
5197		-58.593750
5198		-56.640625
5199		-60.546875
5200		-54.687500
5201		-58.593750
5202		-54.687500
5203		-56.640625
5204		-54.687500
5205		-58.593750
5206		-52.734375
5207		-54.687500
5208		-50.781250
5209		-52.734375
5210		-50.781250
5211		-52.734375
5212		-48.828125
5213		-50.781250
5214		-46.875000
5215		-48.828125
5216		-44.921875
5217		-46.875000
5218		-42.968750
5219		-44.921875
5220		-41.015625
5221		-42.968750
5222		-37.109375
5223		-41.015625
5224		-35.156250
5225		-37.109375
5226		-33.203125
5227		-35.156250
5228		-31.250000
5229		-33.203125
5230		-27.343750
5231		-29.296875
5232		-23.437500
5233		-25.390625
5234		-21.484375
5235		-23.437500
5236		-17.578125
5237		-21.484375
5238		-15.625000
5239		-17.578125
5240		-11.718750
5241		-13.671875
5242		-7.812500
5243		-11.718750
5244		-3.906250
5245		-7.812500
5246		-1.953125
5247		-3.906250
5248		0.000000
5249		0.000000
5250		3.906250
5251		1.953125
5252		7.812500
5253		5.859375
5254		11.718750
5255		9.765625
5256		13.671875
5257		11.718750
5258		17.578125
5259		15.625000
5260		21.484375
5261		19.531250
5262		23.437500
5263		23.437500
5264		27.343750
5265		25.390625
5266		31.250000
5267		27.343750
5268		33.203125
5269		31.250000
5270		37.109375
5271		35.156250
5272		39.062500
5273		37.109375
5274		42.968750
5275		41.015625
5276		44.921875
5277		42.968750
5278		48.828125
5279		44.921875
5280		50.781250
5281		48.828125
5282		52.734375
5283		50.781250
5284		54.687500
5285		52.734375
5286		58.593750
5287		54.687500
5288		60.546875
5289		56.640625
5290		62.500000
5291		58.593750
5292		64.453125
5293		60.546875
5294		66.406250
5295		62.500000
5296		66.406250
5297		64.453125
5298		68.359375
5299		66.406250
5300		70.312500
5301		68.359375
5302		70.312500
5303		68.359375
5304		72.265625
5305		70.312500
5306		74.218750
5307		70.312500
5308		74.218750
5309		72.265625
5310		74.218750
5311		72.265625
5312		76.171875
5313		74.218750
5314		76.171875
5315		74.218750
5316		76.171875
5317		72.265625
5318		76.171875
5319		72.265625
5320		78.125000
5321		72.265625
5322		78.125000
5323		74.218750
5324		76.171875
5325		72.265625
5326		76.171875
5327		72.265625
5328		76.171875
5329		72.265625
5330		74.218750
5331		70.312500
5332		74.218750
5333		70.312500
5334		74.218750
5335		68.359375
5336		72.265625
5337		66.406250
5338		70.312500
5339		66.406250
5340		68.359375
5341		62.500000
5342		68.359375
5343		62.500000
5344		66.406250
5345		60.546875
5346		64.453125
5347		58.593750
5348		62.500000
5349		56.640625
5350		60.546875
5351		54.687500
5352		58.593750
5353		52.734375
5354		56.640625
5355		48.828125
5356		54.687500
5357		46.875000
5358		50.781250
5359		44.921875
5360		48.828125
5361		41.015625
5362		46.875000
5363		39.062500
5364		42.968750
5365		35.156250
5366		41.015625
5367		33.203125
5368		37.109375
5369		29.296875
5370		35.156250
5371		27.343750
5372		33.203125
5373		21.484375
5374		27.343750
5375		19.531250
5376		25.390625
5377		17.578125
5378		21.484375
5379		13.671875
5380		19.531250
5381		9.765625
5382		15.625000
5383		5.859375
5384		11.718750
5385		3.906250
5386		7.812500
5387		0.000000
5388		5.859375
5389		-3.906250
5390		1.953125
5391		-5.859375
5392		-1.953125
5393		-9.765625
5394		-3.906250
5395		-13.671875
5396		-7.812500
5397		-15.625000
5398		-11.718750
5399		-19.531250
5400		-13.671875
5401		-21.484375
5402		-15.625000
5403		-25.390625
5404		-19.531250
5405		-29.296875
5406		-23.437500
5407		-31.250000
5408		-27.343750
5409		-35.156250
5410		-29.296875
5411		-37.109375
5412		-31.250000
5413		-39.062500
5414		-35.156250
5415		-41.015625
5416		-37.109375
5417		-44.921875
5418		-39.062500
5419		-46.875000
5420		-41.015625
5421		-48.828125
5422		-42.968750
5423		-50.781250
5424		-46.875000
5425		-52.734375
5426		-48.828125
5427		-52.734375
5428		-48.828125
5429		-54.687500
5430		-50.781250
5431		-54.687500
5432		-52.734375
5433		-58.593750
5434		-52.734375
5435		-58.593750
5436		-54.687500
5437		-58.593750
5438		-54.687500
5439		-58.593750
5440		-56.640625
5441		-60.546875
5442		-56.640625
5443		-60.546875
5444		-56.640625
5445		-60.546875
5446		-56.640625
5447		-58.593750
5448		-56.640625
5449		-58.593750
5450		-56.640625
5451		-58.593750
5452		-56.640625
5453		-58.593750
5454		-54.687500
5455		-58.593750
5456		-54.687500
5457		-56.640625
5458		-52.734375
5459		-56.640625
5460		-52.734375
5461		-54.687500
5462		-50.781250
5463		-52.734375
5464		-48.828125
5465		-50.781250
5466		-48.828125
5467		-50.781250
5468		-44.921875
5469		-46.875000
5470		-42.968750
5471		-46.875000
5472		-41.015625
5473		-42.968750
5474		-39.062500
5475		-41.015625
5476		-37.109375
5477		-39.062500
5478		-33.203125
5479		-35.156250
5480		-31.250000
5481		-33.203125
5482		-29.296875
5483		-31.250000
5484		-25.390625
5485		-29.296875
5486		-23.437500
5487		-25.390625
5488		-19.531250
5489		-21.484375
5490		-17.578125
5491		-19.531250
5492		-13.671875
5493		-15.625000
5494		-9.765625
5495		-13.671875
5496		-7.812500
5497		-11.718750
5498		-3.906250
5499		-5.859375
5500		0.000000
5501		-3.906250
5502		1.953125
5503		0.000000
5504		5.859375
5505		3.906250
5506		9.765625
5507		7.812500
5508		11.718750
5509		9.765625
5510		15.625000
5511		13.671875
5512		19.531250
5513		17.578125
5514		21.484375
5515		21.484375
5516		25.390625
5517		23.437500
5518		29.296875
5519		27.343750
5520		33.203125
5521		29.296875
5522		35.156250
5523		33.203125
5524		37.109375
5525		37.109375
5526		41.015625
5527		39.062500
5528		42.968750
5529		41.015625
5530		46.875000
5531		44.921875
5532		48.828125
5533		46.875000
5534		50.781250
5535		48.828125
5536		54.687500
5537		52.734375
5538		56.640625
5539		54.687500
5540		58.593750
5541		56.640625
5542		60.546875
5543		58.593750
5544		62.500000
5545		60.546875
5546		66.406250
5547		62.500000
5548		66.406250
5549		64.453125
5550		68.359375
5551		66.406250
5552		70.312500
5553		66.406250
5554		70.312500
5555		68.359375
5556		72.265625
5557		70.312500
5558		74.218750
5559		70.312500
5560		74.218750
5561		72.265625
5562		76.171875
5563		72.265625
5564		76.171875
5565		74.218750
5566		76.171875
5567		74.218750
5568		76.171875
5569		74.218750
5570		76.171875
5571		74.218750
5572		78.125000
5573		74.218750
5574		78.125000
5575		74.218750
5576		76.171875
5577		74.218750
5578		76.171875
5579		72.265625
5580		76.171875
5581		72.265625
5582		76.171875
5583		72.265625
5584		74.218750
5585		70.312500
5586		74.218750
5587		68.359375
5588		72.265625
5589		68.359375
5590		72.265625
5591		66.406250
5592		70.312500
5593		66.406250
5594		70.312500
5595		62.500000
5596		68.359375
5597		62.500000
5598		66.406250
5599		60.546875
5600		64.453125
5601		56.640625
5602		62.500000
5603		56.640625
5604		60.546875
5605		54.687500
5606		58.593750
5607		50.781250
5608		56.640625
5609		48.828125
5610		52.734375
5611		46.875000
5612		50.781250
5613		42.968750
5614		48.828125
5615		41.015625
5616		44.921875
5617		37.109375
5618		42.968750
5619		35.156250
5620		39.062500
5621		31.250000
5622		37.109375
5623		29.296875
5624		33.203125
5625		25.390625
5626		31.250000
5627		21.484375
5628		29.296875
5629		19.531250
5630		23.437500
5631		15.625000
5632		21.484375
5633		11.718750
5634		17.578125
5635		9.765625
5636		13.671875
5637		5.859375
5638		11.718750
5639		1.953125
5640		7.812500
5641		-1.953125
5642		3.906250
5643		-3.906250
5644		1.953125
5645		-7.812500
5646		-1.953125
5647		-11.718750
5648		-5.859375
5649		-13.671875
5650		-9.765625
5651		-17.578125
5652		-11.718750
5653		-19.531250
5654		-15.625000
5655		-23.437500
5656		-17.578125
5657		-27.343750
5658		-21.484375
5659		-29.296875
5660		-25.390625
5661		-31.250000
5662		-27.343750
5663		-35.156250
5664		-29.296875
5665		-37.109375
5666		-31.250000
5667		-39.062500
5668		-35.156250
5669		-42.968750
5670		-37.109375
5671		-44.921875
5672		-39.062500
5673		-46.875000
5674		-42.968750
5675		-48.828125
5676		-42.968750
5677		-50.781250
5678		-46.875000
5679		-52.734375
5680		-46.875000
5681		-52.734375
5682		-48.828125
5683		-54.687500
5684		-50.781250
5685		-56.640625
5686		-52.734375
5687		-56.640625
5688		-52.734375
5689		-58.593750
5690		-54.687500
5691		-58.593750
5692		-54.687500
5693		-58.593750
5694		-56.640625
5695		-58.593750
5696		-56.640625
5697		-60.546875
5698		-56.640625
5699		-58.593750
5700		-56.640625
5701		-58.593750
5702		-56.640625
5703		-58.593750
5704		-54.687500
5705		-58.593750
5706		-54.687500
5707		-58.593750
5708		-54.687500
5709		-56.640625
5710		-54.687500
5711		-56.640625
5712		-52.734375
5713		-54.687500
5714		-50.781250
5715		-54.687500
5716		-48.828125
5717		-52.734375
5718		-48.828125
5719		-50.781250
5720		-46.875000
5721		-48.828125
5722		-44.921875
5723		-46.875000
5724		-42.968750
5725		-44.921875
5726		-41.015625
5727		-42.968750
5728		-37.109375
5729		-41.015625
5730		-35.156250
5731		-37.109375
5732		-33.203125
5733		-35.156250
5734		-31.250000
5735		-31.250000
5736		-27.343750
5737		-29.296875
5738		-25.390625
5739		-27.343750
5740		-21.484375
5741		-23.437500
5742		-17.578125
5743		-19.531250
5744		-15.625000
5745		-17.578125
5746		-11.718750
5747		-13.671875
5748		-7.812500
5749		-9.765625
5750		-5.859375
5751		-7.812500
5752		-1.953125
5753		-3.906250
5754		0.000000
5755		-1.953125
5756		3.906250
5757		1.953125
5758		7.812500
5759		5.859375
5760		11.718750
5761		9.765625
5762		13.671875
5763		11.718750
5764		17.578125
5765		15.625000
5766		19.531250
5767		19.531250
5768		23.437500
5769		21.484375
5770		27.343750
5771		25.390625
5772		31.250000
5773		29.296875
5774		33.203125
5775		31.250000
5776		39.062500
5777		35.156250
5778		39.062500
5779		37.109375
5780		42.968750
5781		41.015625
5782		44.921875
5783		42.968750
5784		46.875000
5785		46.875000
5786		50.781250
5787		48.828125
5788		52.734375
5789		50.781250
5790		56.640625
5791		52.734375
5792		58.593750
5793		54.687500
5794		60.546875
5795		56.640625
5796		62.500000
5797		60.546875
5798		64.453125
5799		60.546875
5800		66.406250
5801		64.453125
5802		68.359375
5803		64.453125
5804		68.359375
5805		66.406250
5806		70.312500
5807		68.359375
5808		72.265625
5809		70.312500
5810		72.265625
5811		70.312500
5812		74.218750
5813		72.265625
5814		74.218750
5815		72.265625
5816		76.171875
5817		74.218750
5818		76.171875
5819		74.218750
5820		76.171875
5821		72.265625
5822		78.125000
5823		74.218750
5824		80.078125
5825		74.218750
5826		78.125000
5827		74.218750
5828		78.125000
5829		72.265625
5830		78.125000
5831		72.265625
5832		78.125000
5833		72.265625
5834		76.171875
5835		72.265625
5836		76.171875
5837		70.312500
5838		74.218750
5839		70.312500
5840		74.218750
5841		68.359375
5842		74.218750
5843		66.406250
5844		72.265625
5845		66.406250
5846		70.312500
5847		64.453125
5848		70.312500
5849		62.500000
5850		68.359375
5851		62.500000
5852		64.453125
5853		58.593750
5854		62.500000
5855		58.593750
5856		62.500000
5857		54.687500
5858		60.546875
5859		52.734375
5860		58.593750
5861		50.781250
5862		54.687500
5863		46.875000
5864		52.734375
5865		44.921875
5866		50.781250
5867		42.968750
5868		46.875000
5869		41.015625
5870		44.921875
5871		37.109375
5872		41.015625
5873		33.203125
5874		39.062500
5875		29.296875
5876		37.109375
5877		27.343750
5878		33.203125
5879		25.390625
5880		31.250000
5881		21.484375
5882		27.343750
5883		17.578125
5884		23.437500
5885		15.625000
5886		19.531250
5887		11.718750
5888		15.625000
5889		7.812500
5890		15.625000
5891		3.906250
5892		11.718750
5893		0.000000
5894		7.812500
5895		-3.906250
5896		3.906250
5897		-5.859375
5898		1.953125
5899		-9.765625
5900		-1.953125
5901		-11.718750
5902		-7.812500
5903		-15.625000
5904		-9.765625
5905		-19.531250
5906		-11.718750
5907		-21.484375
5908		-15.625000
5909		-25.390625
5910		-17.578125
5911		-27.343750
5912		-21.484375
5913		-31.250000
5914		-23.437500
5915		-33.203125
5916		-27.343750
5917		-35.156250
5918		-29.296875
5919		-37.109375
5920		-33.203125
5921		-41.015625
5922		-37.109375
5923		-42.968750
5924		-37.109375
5925		-44.921875
5926		-41.015625
5927		-48.828125
5928		-41.015625
5929		-48.828125
5930		-42.968750
5931		-50.781250
5932		-44.921875
5933		-52.734375
5934		-46.875000
5935		-52.734375
5936		-50.781250
5937		-54.687500
5938		-50.781250
5939		-54.687500
5940		-52.734375
5941		-56.640625
5942		-54.687500
5943		-56.640625
5944		-54.687500
5945		-58.593750
5946		-54.687500
5947		-58.593750
5948		-56.640625
5949		-58.593750
5950		-56.640625
5951		-58.593750
5952		-56.640625
5953		-58.593750
5954		-56.640625
5955		-58.593750
5956		-54.687500
5957		-58.593750
5958		-56.640625
5959		-58.593750
5960		-54.687500
5961		-56.640625
5962		-54.687500
5963		-56.640625
5964		-52.734375
5965		-54.687500
5966		-52.734375
5967		-54.687500
5968		-50.781250
5969		-52.734375
5970		-48.828125
5971		-50.781250
5972		-46.875000
5973		-48.828125
5974		-44.921875
5975		-46.875000
5976		-42.968750
5977		-44.921875
5978		-41.015625
5979		-42.968750
5980		-39.062500
5981		-41.015625
5982		-37.109375
5983		-39.062500
5984		-35.156250
5985		-35.156250
5986		-31.250000
5987		-33.203125
5988		-29.296875
5989		-31.250000
5990		-25.390625
5991		-27.343750
5992		-23.437500
5993		-25.390625
5994		-19.531250
5995		-21.484375
5996		-17.578125
5997		-19.531250
5998		-13.671875
5999		-15.625000
6000		-11.718750
6001		-13.671875
6002		-7.812500
6003		-9.765625
6004		-3.906250
6005		-5.859375
6006		-1.953125
6007		-1.953125
6008		1.953125
6009		0.000000
6010		5.859375
6011		3.906250
6012		7.812500
6013		7.812500
6014		11.718750
6015		9.765625
6016		15.625000
6017		13.671875
6018		19.531250
6019		17.578125
6020		21.484375
6021		19.531250
6022		25.390625
6023		23.437500
6024		27.343750
6025		27.343750
6026		31.250000
6027		29.296875
6028		35.156250
6029		33.203125
6030		37.109375
6031		35.156250
6032		41.015625
6033		39.062500
6034		42.968750
6035		41.015625
6036		46.875000
6037		44.921875
6038		48.828125
6039		44.921875
6040		54.687500
6041		46.875000
6042		56.640625
6043		50.781250
6044		58.593750
6045		54.687500
6046		58.593750
6047		56.640625
6048		60.546875
6049		58.593750
6050		62.500000
6051		60.546875
6052		64.453125
6053		62.500000
6054		66.406250
6055		62.500000
6056		70.312500
6057		64.453125
6058		72.265625
6059		64.453125
6060		74.218750
6061		66.406250
6062		74.218750
6063		70.312500
6064		72.265625
6065		70.312500
6066		74.218750
6067		72.265625
6068		74.218750
6069		72.265625
6070		76.171875
6071		74.218750
6072		76.171875
6073		70.312500
6074		78.125000
6075		72.265625
6076		80.078125
6077		70.312500
6078		82.031250
6079		74.218750
6080		76.171875
6081		74.218750
6082		76.171875
6083		74.218750
6084		76.171875
6085		74.218750
6086		76.171875
6087		74.218750
6088		76.171875
6089		68.359375
6090		78.125000
6091		68.359375
6092		78.125000
6093		66.406250
6094		76.171875
6095		66.406250
6096		76.171875
6097		68.359375
6098		70.312500
6099		66.406250
6100		70.312500
6101		64.453125
6102		68.359375
6103		62.500000
6104		66.406250
6105		60.546875
6106		64.453125
6107		56.640625
6108		66.406250
6109		54.687500
6110		64.453125
6111		52.734375
6112		60.546875
6113		52.734375
6114		56.640625
6115		48.828125
6116		54.687500
6117		46.875000
6118		50.781250
6119		44.921875
6120		48.828125
6121		42.968750
6122		46.875000
6123		35.156250
6124		44.921875
6125		33.203125
6126		42.968750
6127		29.296875
6128		41.015625
6129		29.296875
6130		35.156250
6131		27.343750
6132		31.250000
6133		23.437500
6134		27.343750
6135		19.531250
6136		25.390625
6137		17.578125
6138		21.484375
6139		9.765625
6140		19.531250
6141		7.812500
6142		19.531250
6143		1.953125
6144		15.625000
6145		1.953125
6146		11.718750
6147		0.000000
6148		5.859375
6149		-1.953125
6150		1.953125
6151		-5.859375
6152		-1.953125
6153		-9.765625
6154		-3.906250
6155		-11.718750
6156		-7.812500
6157		-17.578125
6158		-7.812500
6159		-21.484375
6160		-11.718750
6161		-23.437500
6162		-13.671875
6163		-25.390625
6164		-19.531250
6165		-27.343750
6166		-23.437500
6167		-31.250000
6168		-25.390625
6169		-33.203125
6170		-29.296875
6171		-35.156250
6172		-31.250000
6173		-41.015625
6174		-31.250000
6175		-42.968750
6176		-33.203125
6177		-46.875000
6178		-37.109375
6179		-46.875000
6180		-39.062500
6181		-46.875000
6182		-44.921875
6183		-48.828125
6184		-44.921875
6185		-50.781250
6186		-46.875000
6187		-52.734375
6188		-48.828125
6189		-54.687500
6190		-50.781250
6191		-58.593750
6192		-48.828125
6193		-58.593750
6194		-48.828125
6195		-60.546875
6196		-50.781250
6197		-58.593750
6198		-54.687500
6199		-58.593750
6200		-54.687500
6201		-58.593750
6202		-56.640625
6203		-58.593750
6204		-56.640625
6205		-58.593750
6206		-54.687500
6207		-62.500000
6208		-52.734375
6209		-62.500000
6210		-52.734375
6211		-60.546875
6212		-52.734375
6213		-56.640625
6214		-54.687500
6215		-56.640625
6216		-54.687500
6217		-56.640625
6218		-52.734375
6219		-54.687500
6220		-50.781250
6221		-52.734375
6222		-48.828125
6223		-50.781250
6224		-48.828125
6225		-50.781250
6226		-42.968750
6227		-50.781250
6228		-41.015625
6229		-46.875000
6230		-42.968750
6231		-44.921875
6232		-41.015625
6233		-42.968750
6234		-39.062500
6235		-41.015625
6236		-35.156250
6237		-39.062500
6238		-33.203125
6239		-35.156250
6240		-31.250000
6241		-33.203125
6242		-27.343750
6243		-31.250000
6244		-23.437500
6245		-27.343750
6246		-21.484375
6247		-23.437500
6248		-19.531250
6249		-21.484375
6250		-15.625000
6251		-17.578125
6252		-11.718750
6253		-13.671875
6254		-9.765625
6255		-11.718750
6256		-5.859375
6257		-7.812500
6258		-3.906250
6259		-3.906250
6260		1.953125
6261		-3.906250
6262		3.906250
6263		1.953125
6264		5.859375
6265		5.859375
6266		9.765625
6267		7.812500
6268		13.671875
6269		11.718750
6270		17.578125
6271		15.625000
6272		19.531250
6273		17.578125
6274		23.437500
6275		21.484375
6276		27.343750
6277		25.390625
6278		29.296875
6279		27.343750
6280		33.203125
6281		31.250000
6282		35.156250
6283		33.203125
6284		39.062500
6285		37.109375
6286		41.015625
6287		39.062500
6288		44.921875
6289		42.968750
6290		46.875000
6291		44.921875
6292		48.828125
6293		48.828125
6294		52.734375
6295		50.781250
6296		54.687500
6297		52.734375
6298		56.640625
6299		54.687500
6300		58.593750
6301		56.640625
6302		60.546875
6303		58.593750
6304		62.500000
6305		60.546875
6306		64.453125
6307		62.500000
6308		66.406250
6309		64.453125
6310		68.359375
6311		66.406250
6312		70.312500
6313		68.359375
6314		72.265625
6315		70.312500
6316		72.265625
6317		70.312500
6318		74.218750
6319		72.265625
6320		74.218750
6321		72.265625
6322		76.171875
6323		72.265625
6324		76.171875
6325		72.265625
6326		76.171875
6327		72.265625
6328		78.125000
6329		74.218750
6330		76.171875
6331		74.218750
6332		78.125000
6333		74.218750
6334		78.125000
6335		74.218750
6336		76.171875
6337		74.218750
6338		76.171875
6339		74.218750
6340		76.171875
6341		72.265625
6342		76.171875
6343		72.265625
6344		76.171875
6345		70.312500
6346		74.218750
6347		68.359375
6348		72.265625
6349		68.359375
6350		72.265625
6351		66.406250
6352		70.312500
6353		66.406250
6354		68.359375
6355		64.453125
6356		68.359375
6357		62.500000
6358		66.406250
6359		60.546875
6360		66.406250
6361		58.593750
6362		62.500000
6363		56.640625
6364		60.546875
6365		52.734375
6366		58.593750
6367		50.781250
6368		56.640625
6369		48.828125
6370		52.734375
6371		46.875000
6372		50.781250
6373		42.968750
6374		48.828125
6375		39.062500
6376		46.875000
6377		37.109375
6378		42.968750
6379		35.156250
6380		39.062500
6381		31.250000
6382		37.109375
6383		29.296875
6384		35.156250
6385		25.390625
6386		31.250000
6387		21.484375
6388		27.343750
6389		19.531250
6390		23.437500
6391		13.671875
6392		21.484375
6393		11.718750
6394		17.578125
6395		9.765625
6396		15.625000
6397		5.859375
6398		9.765625
6399		1.953125
6400		7.812500
6401		0.000000
6402		3.906250
6403		-3.906250
6404		0.000000
6405		-7.812500
6406		-1.953125
6407		-9.765625
6408		-5.859375
6409		-13.671875
6410		-9.765625
6411		-17.578125
6412		-11.718750
6413		-19.531250
6414		-15.625000
6415		-23.437500
6416		-17.578125
6417		-27.343750
6418		-21.484375
6419		-29.296875
6420		-25.390625
6421		-31.250000
6422		-27.343750
6423		-35.156250
6424		-31.250000
6425		-39.062500
6426		-33.203125
6427		-41.015625
6428		-35.156250
6429		-41.015625
6430		-37.109375
6431		-44.921875
6432		-41.015625
6433		-46.875000
6434		-41.015625
6435		-48.828125
6436		-44.921875
6437		-50.781250
6438		-46.875000
6439		-50.781250
6440		-48.828125
6441		-52.734375
6442		-50.781250
6443		-56.640625
6444		-48.828125
6445		-56.640625
6446		-52.734375
6447		-56.640625
6448		-54.687500
6449		-58.593750
6450		-54.687500
6451		-58.593750
6452		-54.687500
6453		-58.593750
6454		-56.640625
6455		-58.593750
6456		-56.640625
6457		-58.593750
6458		-56.640625
6459		-60.546875
6460		-54.687500
6461		-58.593750
6462		-56.640625
6463		-58.593750
6464		-56.640625
6465		-58.593750
6466		-54.687500
6467		-58.593750
6468		-54.687500
6469		-56.640625
6470		-52.734375
6471		-54.687500
6472		-52.734375
6473		-54.687500
6474		-50.781250
6475		-52.734375
6476		-48.828125
6477		-52.734375
6478		-46.875000
6479		-50.781250
6480		-44.921875
6481		-48.828125
6482		-44.921875
6483		-46.875000
6484		-41.015625
6485		-44.921875
6486		-39.062500
6487		-41.015625
6488		-37.109375
6489		-39.062500
6490		-35.156250
6491		-37.109375
6492		-33.203125
6493		-35.156250
6494		-29.296875
6495		-31.250000
6496		-27.343750
6497		-29.296875
6498		-23.437500
6499		-25.390625
6500		-21.484375
6501		-23.437500
6502		-17.578125
6503		-19.531250
6504		-15.625000
6505		-15.625000
6506		-11.718750
6507		-13.671875
6508		-7.812500
6509		-9.765625
6510		-5.859375
6511		-7.812500
6512		-1.953125
6513		-3.906250
6514		1.953125
6515		0.000000
6516		3.906250
6517		1.953125
6518		7.812500
6519		5.859375
6520		11.718750
6521		9.765625
6522		13.671875
6523		13.671875
6524		17.578125
6525		15.625000
6526		21.484375
6527		19.531250
6528		25.390625
6529		23.437500
6530		27.343750
6531		25.390625
6532		31.250000
6533		29.296875
6534		33.203125
6535		33.203125
6536		37.109375
6537		35.156250
6538		39.062500
6539		37.109375
6540		42.968750
6541		41.015625
6542		44.921875
6543		42.968750
6544		48.828125
6545		46.875000
6546		50.781250
6547		48.828125
6548		52.734375
6549		50.781250
6550		54.687500
6551		54.687500
6552		58.593750
6553		56.640625
6554		60.546875
6555		58.593750
6556		62.500000
6557		60.546875
6558		64.453125
6559		62.500000
6560		66.406250
6561		64.453125
6562		66.406250
6563		66.406250
6564		68.359375
6565		68.359375
6566		70.312500
6567		68.359375
6568		72.265625
6569		70.312500
6570		72.265625
6571		70.312500
6572		74.218750
6573		72.265625
6574		74.218750
6575		72.265625
6576		76.171875
6577		74.218750
6578		76.171875
6579		74.218750
6580		76.171875
6581		74.218750
6582		76.171875
6583		74.218750
6584		76.171875
6585		74.218750
6586		76.171875
6587		74.218750
6588		76.171875
6589		74.218750
6590		76.171875
6591		74.218750
6592		76.171875
6593		74.218750
6594		76.171875
6595		72.265625
6596		76.171875
6597		72.265625
6598		74.218750
6599		70.312500
6600		74.218750
6601		70.312500
6602		72.265625
6603		68.359375
6604		70.312500
6605		66.406250
6606		70.312500
6607		64.453125
6608		68.359375
6609		64.453125
6610		66.406250
6611		62.500000
6612		64.453125
6613		58.593750
6614		62.500000
6615		56.640625
6616		60.546875
6617		54.687500
6618		58.593750
6619		52.734375
6620		56.640625
6621		50.781250
6622		54.687500
6623		48.828125
6624		52.734375
6625		44.921875
6626		48.828125
6627		42.968750
6628		46.875000
6629		39.062500
6630		44.921875
6631		35.156250
6632		41.015625
6633		33.203125
6634		39.062500
6635		31.250000
6636		35.156250
6637		27.343750
6638		33.203125
6639		23.437500
6640		29.296875
6641		21.484375
6642		25.390625
6643		17.578125
6644		23.437500
6645		13.671875
6646		19.531250
6647		11.718750
6648		15.625000
6649		7.812500
6650		13.671875
6651		3.906250
6652		9.765625
6653		1.953125
6654		5.859375
6655		-1.953125
6656		1.953125
6657		-5.859375
6658		0.000000
6659		-7.812500
6660		-3.906250
6661		-13.671875
6662		-7.812500
6663		-15.625000
6664		-9.765625
6665		-17.578125
6666		-13.671875
6667		-21.484375
6668		-17.578125
6669		-23.437500
6670		-19.531250
6671		-27.343750
6672		-23.437500
6673		-29.296875
6674		-25.390625
6675		-33.203125
6676		-29.296875
6677		-37.109375
6678		-31.250000
6679		-39.062500
6680		-31.250000
6681		-41.015625
6682		-37.109375
6683		-42.968750
6684		-39.062500
6685		-44.921875
6686		-41.015625
6687		-46.875000
6688		-42.968750
6689		-48.828125
6690		-44.921875
6691		-50.781250
6692		-46.875000
6693		-52.734375
6694		-48.828125
6695		-54.687500
6696		-48.828125
6697		-54.687500
6698		-50.781250
6699		-56.640625
6700		-52.734375
6701		-56.640625
6702		-54.687500
6703		-56.640625
6704		-54.687500
6705		-58.593750
6706		-54.687500
6707		-58.593750
6708		-56.640625
6709		-58.593750
6710		-56.640625
6711		-60.546875
6712		-54.687500
6713		-60.546875
6714		-54.687500
6715		-58.593750
6716		-56.640625
6717		-58.593750
6718		-56.640625
6719		-56.640625
6720		-54.687500
6721		-56.640625
6722		-54.687500
6723		-56.640625
6724		-52.734375
6725		-54.687500
6726		-50.781250
6727		-54.687500
6728		-48.828125
6729		-54.687500
6730		-46.875000
6731		-52.734375
6732		-46.875000
6733		-48.828125
6734		-44.921875
6735		-46.875000
6736		-42.968750
6737		-44.921875
6738		-41.015625
6739		-42.968750
6740		-39.062500
6741		-41.015625
6742		-37.109375
6743		-39.062500
6744		-35.156250
6745		-37.109375
6746		-29.296875
6747		-33.203125
6748		-27.343750
6749		-29.296875
6750		-25.390625
6751		-27.343750
6752		-23.437500
6753		-25.390625
6754		-19.531250
6755		-21.484375
6756		-17.578125
6757		-17.578125
6758		-13.671875
6759		-15.625000
6760		-9.765625
6761		-11.718750
6762		-5.859375
6763		-9.765625
6764		-1.953125
6765		-5.859375
6766		0.000000
6767		-1.953125
6768		1.953125
6769		1.953125
6770		5.859375
6771		3.906250
6772		9.765625
6773		7.812500
6774		13.671875
6775		11.718750
6776		15.625000
6777		13.671875
6778		19.531250
6779		15.625000
6780		23.437500
6781		19.531250
6782		25.390625
6783		23.437500
6784		29.296875
6785		27.343750
6786		31.250000
6787		31.250000
6788		35.156250
6789		33.203125
6790		37.109375
6791		37.109375
6792		41.015625
6793		39.062500
6794		42.968750
6795		41.015625
6796		48.828125
6797		44.921875
6798		50.781250
6799		46.875000
6800		50.781250
6801		50.781250
6802		54.687500
6803		52.734375
6804		56.640625
6805		54.687500
6806		58.593750
6807		56.640625
6808		60.546875
6809		58.593750
6810		62.500000
6811		60.546875
6812		66.406250
6813		60.546875
6814		68.359375
6815		62.500000
6816		68.359375
6817		66.406250
6818		70.312500
6819		68.359375
6820		70.312500
6821		68.359375
6822		72.265625
6823		70.312500
6824		74.218750
6825		72.265625
6826		74.218750
6827		72.265625
6828		74.218750
6829		72.265625
6830		78.125000
6831		70.312500
6832		78.125000
6833		74.218750
6834		76.171875
6835		74.218750
6836		76.171875
6837		74.218750
6838		76.171875
6839		74.218750
6840		76.171875
6841		74.218750
6842		76.171875
6843		74.218750
6844		76.171875
6845		72.265625
6846		78.125000
6847		72.265625
6848		76.171875
6849		72.265625
6850		74.218750
6851		70.312500
6852		74.218750
6853		70.312500
6854		72.265625
6855		68.359375
6856		72.265625
6857		68.359375
6858		70.312500
6859		66.406250
6860		70.312500
6861		64.453125
6862		68.359375
6863		62.500000
6864		66.406250
6865		60.546875
6866		64.453125
6867		58.593750
6868		62.500000
6869		56.640625
6870		60.546875
6871		54.687500
6872		58.593750
6873		52.734375
6874		56.640625
6875		48.828125
6876		52.734375
6877		46.875000
6878		50.781250
6879		42.968750
6880		48.828125
6881		41.015625
6882		46.875000
6883		39.062500
6884		42.968750
6885		35.156250
6886		41.015625
6887		33.203125
6888		37.109375
6889		29.296875
6890		33.203125
6891		27.343750
6892		31.250000
6893		23.437500
6894		27.343750
6895		19.531250
6896		25.390625
6897		17.578125
6898		21.484375
6899		13.671875
6900		17.578125
6901		9.765625
6902		15.625000
6903		5.859375
6904		11.718750
6905		3.906250
6906		7.812500
6907		0.000000
6908		5.859375
6909		-3.906250
6910		1.953125
6911		-5.859375
6912		-1.953125
6913		-9.765625
6914		-5.859375
6915		-13.671875
6916		-7.812500
6917		-15.625000
6918		-11.718750
6919		-19.531250
6920		-15.625000
6921		-23.437500
6922		-17.578125
6923		-25.390625
6924		-21.484375
6925		-27.343750
6926		-23.437500
6927		-31.250000
6928		-27.343750
6929		-33.203125
6930		-29.296875
6931		-37.109375
6932		-33.203125
6933		-39.062500
6934		-35.156250
6935		-41.015625
6936		-37.109375
6937		-42.968750
6938		-39.062500
6939		-44.921875
6940		-42.968750
6941		-48.828125
6942		-44.921875
6943		-48.828125
6944		-46.875000
6945		-50.781250
6946		-46.875000
6947		-52.734375
6948		-50.781250
6949		-54.687500
6950		-50.781250
6951		-54.687500
6952		-52.734375
6953		-56.640625
6954		-52.734375
6955		-58.593750
6956		-54.687500
6957		-58.593750
6958		-54.687500
6959		-58.593750
6960		-56.640625
6961		-58.593750
6962		-56.640625
6963		-58.593750
6964		-56.640625
6965		-58.593750
6966		-56.640625
6967		-58.593750
6968		-56.640625
6969		-58.593750
6970		-56.640625
6971		-58.593750
6972		-54.687500
6973		-56.640625
6974		-54.687500
6975		-56.640625
6976		-54.687500
6977		-56.640625
6978		-52.734375
6979		-54.687500
6980		-50.781250
6981		-52.734375
6982		-50.781250
6983		-52.734375
6984		-48.828125
6985		-50.781250
6986		-46.875000
6987		-48.828125
6988		-44.921875
6989		-46.875000
6990		-42.968750
6991		-44.921875
6992		-41.015625
6993		-42.968750
6994		-37.109375
6995		-39.062500
6996		-35.156250
6997		-37.109375
6998		-33.203125
6999		-35.156250
7000		-31.250000
7001		-31.250000
7002		-27.343750
7003		-29.296875
7004		-25.390625
7005		-27.343750
7006		-21.484375
7007		-23.437500
7008		-19.531250
7009		-21.484375
7010		-15.625000
7011		-17.578125
7012		-13.671875
7013		-13.671875
7014		-9.765625
7015		-11.718750
7016		-5.859375
7017		-7.812500
7018		-1.953125
7019		-3.906250
7020		0.000000
7021		-1.953125
7022		3.906250
7023		1.953125
7024		7.812500
7025		5.859375
7026		9.765625
7027		9.765625
7028		13.671875
7029		11.718750
7030		17.578125
7031		15.625000
7032		19.531250
7033		17.578125
7034		23.437500
7035		21.484375
7036		27.343750
7037		25.390625
7038		29.296875
7039		27.343750
7040		33.203125
7041		31.250000
7042		35.156250
7043		35.156250
7044		39.062500
7045		37.109375
7046		41.015625
7047		41.015625
7048		44.921875
7049		42.968750
7050		46.875000
7051		44.921875
7052		50.781250
7053		48.828125
7054		52.734375
7055		50.781250
7056		54.687500
7057		52.734375
7058		56.640625
7059		56.640625
7060		58.593750
7061		58.593750
7062		60.546875
7063		60.546875
7064		64.453125
7065		62.500000
7066		64.453125
7067		62.500000
7068		66.406250
7069		64.453125
7070		68.359375
7071		66.406250
7072		70.312500
7073		68.359375
7074		72.265625
7075		70.312500
7076		72.265625
7077		70.312500
7078		74.218750
7079		72.265625
7080		74.218750
7081		72.265625
7082		74.218750
7083		74.218750
7084		76.171875
7085		74.218750
7086		76.171875
7087		74.218750
7088		76.171875
7089		74.218750
7090		76.171875
7091		74.218750
7092		76.171875
7093		74.218750
7094		76.171875
7095		74.218750
7096		76.171875
7097		74.218750
7098		76.171875
7099		74.218750
7100		76.171875
7101		72.265625
7102		76.171875
7103		72.265625
7104		74.218750
7105		70.312500
7106		74.218750
7107		70.312500
7108		72.265625
7109		68.359375
7110		72.265625
7111		68.359375
7112		70.312500
7113		66.406250
7114		68.359375
7115		64.453125
7116		66.406250
7117		62.500000
7118		66.406250
7119		60.546875
7120		64.453125
7121		58.593750
7122		62.500000
7123		56.640625
7124		60.546875
7125		52.734375
7126		58.593750
7127		50.781250
7128		54.687500
7129		48.828125
7130		52.734375
7131		46.875000
7132		50.781250
7133		42.968750
7134		46.875000
7135		41.015625
7136		44.921875
7137		37.109375
7138		42.968750
7139		35.156250
7140		39.062500
7141		31.250000
7142		35.156250
7143		29.296875
7144		33.203125
7145		25.390625
7146		29.296875
7147		21.484375
7148		27.343750
7149		17.578125
7150		23.437500
7151		15.625000
7152		19.531250
7153		11.718750
7154		17.578125
7155		7.812500
7156		13.671875
7157		5.859375
7158		9.765625
7159		1.953125
7160		7.812500
7161		-1.953125
7162		3.906250
7163		-3.906250
7164		0.000000
7165		-7.812500
7166		-3.906250
7167		-11.718750
7168		-5.859375
7169		-13.671875
7170		-9.765625
7171		-17.578125
7172		-13.671875
7173		-21.484375
7174		-15.625000
7175		-23.437500
7176		-19.531250
7177		-27.343750
7178		-21.484375
7179		-29.296875
7180		-25.390625
7181		-31.250000
7182		-27.343750
7183		-35.156250
7184		-31.250000
7185		-37.109375
7186		-33.203125
7187		-41.015625
7188		-37.109375
7189		-42.968750
7190		-37.109375
7191		-44.921875
7192		-41.015625
7193		-46.875000
7194		-42.968750
7195		-48.828125
7196		-44.921875
7197		-50.781250
7198		-46.875000
7199		-52.734375
7200		-48.828125
7201		-52.734375
7202		-50.781250
7203		-54.687500
7204		-50.781250
7205		-56.640625
7206		-52.734375
7207		-56.640625
7208		-54.687500
7209		-56.640625
7210		-54.687500
7211		-58.593750
7212		-54.687500
7213		-58.593750
7214		-56.640625
7215		-58.593750
7216		-56.640625
7217		-58.593750
7218		-56.640625
7219		-58.593750
7220		-56.640625
7221		-58.593750
7222		-56.640625
7223		-58.593750
7224		-56.640625
7225		-58.593750
7226		-54.687500
7227		-56.640625
7228		-54.687500
7229		-56.640625
7230		-52.734375
7231		-54.687500
7232		-52.734375
7233		-54.687500
7234		-50.781250
7235		-52.734375
7236		-48.828125
7237		-50.781250
7238		-48.828125
7239		-48.828125
7240		-46.875000
7241		-48.828125
7242		-42.968750
7243		-44.921875
7244		-42.968750
7245		-42.968750
7246		-39.062500
7247		-41.015625
7248		-37.109375
7249		-39.062500
7250		-35.156250
7251		-37.109375
7252		-31.250000
7253		-33.203125
7254		-29.296875
7255		-31.250000
7256		-27.343750
7257		-29.296875
7258		-23.437500
7259		-25.390625
7260		-21.484375
7261		-23.437500
7262		-17.578125
7263		-19.531250
7264		-13.671875
7265		-15.625000
7266		-11.718750
7267		-13.671875
7268		-7.812500
7269		-9.765625
7270		-5.859375
7271		-5.859375
7272		-1.953125
7273		-3.906250
7274		1.953125
7275		0.000000
7276		3.906250
7277		3.906250
7278		7.812500
7279		5.859375
7280		11.718750
7281		9.765625
7282		15.625000
7283		13.671875
7284		17.578125
7285		15.625000
7286		21.484375
7287		19.531250
7288		25.390625
7289		23.437500
7290		27.343750
7291		27.343750
7292		31.250000
7293		29.296875
7294		35.156250
7295		33.203125
7296		37.109375
7297		35.156250
7298		41.015625
7299		39.062500
7300		42.968750
7301		41.015625
7302		44.921875
7303		44.921875
7304		48.828125
7305		46.875000
7306		50.781250
7307		48.828125
7308		52.734375
7309		52.734375
7310		56.640625
7311		54.687500
7312		58.593750
7313		56.640625
7314		60.546875
7315		58.593750
7316		62.500000
7317		60.546875
7318		64.453125
7319		62.500000
7320		66.406250
7321		64.453125
7322		68.359375
7323		66.406250
7324		68.359375
7325		68.359375
7326		70.312500
7327		68.359375
7328		72.265625
7329		70.312500
7330		72.265625
7331		70.312500
7332		74.218750
7333		72.265625
7334		74.218750
7335		72.265625
7336		76.171875
7337		74.218750
7338		76.171875
7339		74.218750
7340		76.171875
7341		74.218750
7342		76.171875
7343		74.218750
7344		76.171875
7345		74.218750
7346		76.171875
7347		74.218750
7348		76.171875
7349		74.218750
7350		76.171875
7351		74.218750
7352		76.171875
7353		72.265625
7354		76.171875
7355		72.265625
7356		74.218750
7357		72.265625
7358		74.218750
7359		70.312500
7360		72.265625
7361		68.359375
7362		72.265625
7363		68.359375
7364		70.312500
7365		66.406250
7366		70.312500
7367		64.453125
7368		68.359375
7369		62.500000
7370		66.406250
7371		60.546875
7372		64.453125
7373		58.593750
7374		62.500000
7375		56.640625
7376		60.546875
7377		54.687500
7378		58.593750
7379		52.734375
7380		56.640625
7381		50.781250
7382		54.687500
7383		46.875000
7384		50.781250
7385		44.921875
7386		48.828125
7387		42.968750
7388		46.875000
7389		39.062500
7390		42.968750
7391		37.109375
7392		41.015625
7393		33.203125
7394		37.109375
7395		29.296875
7396		35.156250
7397		27.343750
7398		31.250000
7399		23.437500
7400		29.296875
7401		19.531250
7402		25.390625
7403		17.578125
7404		23.437500
7405		13.671875
7406		19.531250
7407		9.765625
7408		15.625000
7409		7.812500
7410		11.718750
7411		3.906250
7412		7.812500
7413		0.000000
7414		5.859375
7415		-1.953125
7416		3.906250
7417		-5.859375
7418		-1.953125
7419		-9.765625
7420		-3.906250
7421		-11.718750
7422		-7.812500
7423		-15.625000
7424		-11.718750
7425		-19.531250
7426		-13.671875
7427		-21.484375
7428		-17.578125
7429		-25.390625
7430		-21.484375
7431		-27.343750
7432		-23.437500
7433		-31.250000
7434		-27.343750
7435		-33.203125
7436		-29.296875
7437		-37.109375
7438		-33.203125
7439		-39.062500
7440		-35.156250
7441		-41.015625
7442		-37.109375
7443		-42.968750
7444		-39.062500
7445		-44.921875
7446		-41.015625
7447		-46.875000
7448		-42.968750
7449		-48.828125
7450		-44.921875
7451		-50.781250
7452		-46.875000
7453		-52.734375
7454		-48.828125
7455		-54.687500
7456		-50.781250
7457		-54.687500
7458		-52.734375
7459		-56.640625
7460		-52.734375
7461		-56.640625
7462		-54.687500
7463		-58.593750
7464		-54.687500
7465		-58.593750
7466		-56.640625
7467		-58.593750
7468		-56.640625
7469		-58.593750
7470		-56.640625
7471		-58.593750
7472		-56.640625
7473		-58.593750
7474		-56.640625
7475		-58.593750
7476		-56.640625
7477		-58.593750
7478		-56.640625
7479		-58.593750
7480		-54.687500
7481		-56.640625
7482		-54.687500
7483		-56.640625
7484		-52.734375
7485		-54.687500
7486		-52.734375
7487		-52.734375
7488		-50.781250
7489		-52.734375
7490		-48.828125
7491		-50.781250
7492		-46.875000
7493		-48.828125
7494		-44.921875
7495		-46.875000
7496		-42.968750
7497		-44.921875
7498		-41.015625
7499		-42.968750
7500		-39.062500
7501		-41.015625
7502		-37.109375
7503		-37.109375
7504		-33.203125
7505		-35.156250
7506		-31.250000
7507		-33.203125
7508		-29.296875
7509		-29.296875
7510		-25.390625
7511		-27.343750
7512		-21.484375
7513		-23.437500
7514		-19.531250
7515		-21.484375
7516		-15.625000
7517		-17.578125
7518		-13.671875
7519		-15.625000
7520		-9.765625
7521		-11.718750
7522		-5.859375
7523		-7.812500
7524		-3.906250
7525		-5.859375
7526		0.000000
7527		-1.953125
7528		3.906250
7529		1.953125
7530		5.859375
7531		3.906250
7532		9.765625
7533		7.812500
7534		13.671875
7535		11.718750
7536		15.625000
7537		15.625000
7538		19.531250
7539		17.578125
7540		23.437500
7541		21.484375
7542		25.390625
7543		25.390625
7544		29.296875
7545		27.343750
7546		31.250000
7547		31.250000
7548		35.156250
7549		33.203125
7550		39.062500
7551		37.109375
7552		41.015625
7553		39.062500
7554		44.921875
7555		42.968750
7556		46.875000
7557		44.921875
7558		48.828125
7559		48.828125
7560		52.734375
7561		50.781250
7562		54.687500
7563		52.734375
7564		56.640625
7565		54.687500
7566		58.593750
7567		56.640625
7568		60.546875
7569		58.593750
7570		62.500000
7571		60.546875
7572		64.453125
7573		62.500000
7574		66.406250
7575		64.453125
7576		68.359375
7577		66.406250
7578		70.312500
7579		68.359375
7580		72.265625
7581		70.312500
7582		72.265625
7583		70.312500
7584		74.218750
7585		72.265625
7586		74.218750
7587		72.265625
7588		76.171875
7589		74.218750
7590		76.171875
7591		74.218750
7592		76.171875
7593		74.218750
7594		76.171875
7595		74.218750
7596		76.171875
7597		74.218750
7598		76.171875
7599		74.218750
7600		76.171875
7601		74.218750
7602		76.171875
7603		74.218750
7604		76.171875
7605		74.218750
7606		76.171875
7607		72.265625
7608		76.171875
7609		72.265625
7610		74.218750
7611		70.312500
7612		74.218750
7613		70.312500
7614		72.265625
7615		68.359375
7616		72.265625
7617		68.359375
7618		70.312500
7619		66.406250
7620		68.359375
7621		64.453125
7622		68.359375
7623		62.500000
7624		66.406250
7625		60.546875
7626		64.453125
7627		58.593750
7628		62.500000
7629		56.640625
7630		60.546875
7631		52.734375
7632		58.593750
7633		52.734375
7634		54.687500
7635		48.828125
7636		52.734375
7637		46.875000
7638		50.781250
7639		42.968750
7640		48.828125
7641		41.015625
7642		44.921875
7643		37.109375
7644		42.968750
7645		35.156250
7646		39.062500
7647		31.250000
7648		37.109375
7649		29.296875
7650		33.203125
7651		25.390625
7652		31.250000
7653		21.484375
7654		27.343750
7655		19.531250
7656		23.437500
7657		15.625000
7658		21.484375
7659		11.718750
7660		17.578125
7661		9.765625
7662		13.671875
7663		5.859375
7664		11.718750
7665		1.953125
7666		7.812500
7667		0.000000
7668		3.906250
7669		-3.906250
7670		0.000000
7671		-7.812500
7672		-1.953125
7673		-9.765625
7674		-5.859375
7675		-13.671875
7676		-9.765625
7677		-17.578125
7678		-11.718750
7679		-19.531250
7680		-15.625000
7681		-23.437500
7682		-19.531250
7683		-25.390625
7684		-21.484375
7685		-29.296875
7686		-25.390625
7687		-31.250000
7688		-25.390625
7689		-37.109375
7690		-29.296875
7691		-37.109375
7692		-31.250000
7693		-41.015625
7694		-35.156250
7695		-42.968750
7696		-37.109375
7697		-44.921875
7698		-41.015625
7699		-46.875000
7700		-42.968750
7701		-48.828125
7702		-44.921875
7703		-50.781250
7704		-46.875000
7705		-52.734375
7706		-48.828125
7707		-54.687500
7708		-48.828125
7709		-54.687500
7710		-50.781250
7711		-56.640625
7712		-52.734375
7713		-56.640625
7714		-52.734375
7715		-58.593750
7716		-52.734375
7717		-58.593750
7718		-54.687500
7719		-58.593750
7720		-56.640625
7721		-60.546875
7722		-54.687500
7723		-60.546875
7724		-54.687500
7725		-60.546875
7726		-56.640625
7727		-60.546875
7728		-56.640625
7729		-60.546875
7730		-54.687500
7731		-60.546875
7732		-52.734375
7733		-56.640625
7734		-54.687500
7735		-56.640625
7736		-54.687500
7737		-56.640625
7738		-52.734375
7739		-56.640625
7740		-50.781250
7741		-54.687500
7742		-48.828125
7743		-50.781250
7744		-48.828125
7745		-50.781250
7746		-44.921875
7747		-48.828125
7748		-44.921875
7749		-46.875000
7750		-41.015625
7751		-42.968750
7752		-41.015625
7753		-41.015625
7754		-37.109375
7755		-41.015625
7756		-33.203125
7757		-37.109375
7758		-31.250000
7759		-35.156250
7760		-29.296875
7761		-31.250000
7762		-25.390625
7763		-29.296875
7764		-25.390625
7765		-27.343750
7766		-19.531250
7767		-23.437500
7768		-19.531250
7769		-19.531250
7770		-15.625000
7771		-17.578125
7772		-11.718750
7773		-15.625000
7774		-7.812500
7775		-13.671875
7776		-5.859375
7777		-7.812500
7778		-1.953125
7779		-5.859375
7780		3.906250
7781		0.000000
7782		3.906250
7783		-1.953125
7784		7.812500
7785		5.859375
7786		11.718750
7787		9.765625
7788		15.625000
7789		11.718750
7790		17.578125
7791		15.625000
7792		21.484375
7793		19.531250
7794		23.437500
7795		21.484375
7796		29.296875
7797		23.437500
7798		31.250000
7799		27.343750
7800		35.156250
7801		31.250000
7802		37.109375
7803		35.156250
7804		39.062500
7805		37.109375
7806		42.968750
7807		37.109375
7808		46.875000
7809		42.968750
7810		48.828125
7811		46.875000
7812		50.781250
7813		46.875000
7814		54.687500
7815		48.828125
7816		58.593750
7817		52.734375
7818		56.640625
7819		56.640625
7820		60.546875
7821		58.593750
7822		62.500000
7823		56.640625
7824		66.406250
7825		60.546875
7826		66.406250
7827		64.453125
7828		66.406250
7829		62.500000
7830		72.265625
7831		62.500000
7832		72.265625
7833		64.453125
7834		74.218750
7835		70.312500
7836		72.265625
7837		70.312500
7838		76.171875
7839		70.312500
7840		78.125000
7841		70.312500
7842		78.125000
7843		74.218750
7844		76.171875
7845		72.265625
7846		78.125000
7847		70.312500
7848		80.078125
7849		72.265625
7850		80.078125
7851		74.218750
7852		76.171875
7853		74.218750
7854		76.171875
7855		72.265625
7856		78.125000
7857		70.312500
7858		80.078125
7859		72.265625
7860		78.125000
7861		72.265625
7862		74.218750
7863		68.359375
7864		78.125000
7865		70.312500
7866		74.218750
7867		66.406250
7868		76.171875
7869		68.359375
7870		70.312500
7871		66.406250
7872		70.312500
7873		62.500000
7874		70.312500
7875		62.500000
7876		66.406250
7877		60.546875
7878		64.453125
7879		56.640625
7880		64.453125
7881		56.640625
7882		64.453125
7883		54.687500
7884		60.546875
7885		52.734375
7886		56.640625
7887		50.781250
7888		54.687500
7889		46.875000
7890		52.734375
7891		42.968750
7892		52.734375
7893		42.968750
7894		46.875000
7895		39.062500
7896		44.921875
7897		33.203125
7898		44.921875
7899		31.250000
7900		39.062500
7901		31.250000
7902		35.156250
7903		27.343750
7904		33.203125
7905		23.437500
7906		29.296875
7907		19.531250
7908		27.343750
7909		17.578125
7910		25.390625
7911		15.625000
7912		19.531250
7913		7.812500
7914		17.578125
7915		7.812500
7916		17.578125
7917		3.906250
7918		11.718750
7919		1.953125
7920		5.859375
7921		-3.906250
7922		3.906250
7923		-7.812500
7924		0.000000
7925		-9.765625
7926		0.000000
7927		-11.718750
7928		-5.859375
7929		-15.625000
7930		-9.765625
7931		-21.484375
7932		-11.718750
7933		-23.437500
7934		-15.625000
7935		-25.390625
7936		-19.531250
7937		-27.343750
7938		-23.437500
7939		-31.250000
7940		-25.390625
7941		-35.156250
7942		-25.390625
7943		-35.156250
7944		-29.296875
7945		-39.062500
7946		-35.156250
7947		-42.968750
7948		-35.156250
7949		-42.968750
7950		-37.109375
7951		-44.921875
7952		-39.062500
7953		-46.875000
7954		-42.968750
7955		-50.781250
7956		-44.921875
7957		-52.734375
7958		-44.921875
7959		-54.687500
7960		-48.828125
7961		-54.687500
7962		-50.781250
7963		-56.640625
7964		-50.781250
7965		-56.640625
7966		-52.734375
7967		-58.593750
7968		-52.734375
7969		-58.593750
7970		-54.687500
7971		-58.593750
7972		-56.640625
7973		-58.593750
7974		-56.640625
7975		-62.500000
7976		-52.734375
7977		-60.546875
7978		-56.640625
7979		-60.546875
7980		-56.640625
7981		-60.546875
7982		-54.687500
7983		-58.593750
7984		-56.640625
7985		-58.593750
7986		-54.687500
7987		-58.593750
7988		-54.687500
7989		-56.640625
7990		-54.687500
7991		-54.687500
7992		-52.734375
7993		-54.687500
7994		-50.781250
7995		-52.734375
7996		-48.828125
7997		-52.734375
7998		-46.875000
7999		-48.828125
8000		-46.875000
8001		-46.875000
8002		-42.968750
8003		-46.875000
8004		-42.968750
8005		-42.968750
8006		-39.062500
8007		-41.015625
8008		-37.109375
8009		-39.062500
8010		-35.156250
8011		-37.109375
8012		-33.203125
8013		-33.203125
8014		-29.296875
8015		-31.250000
8016		-27.343750
8017		-27.343750
8018		-23.437500
8019		-25.390625
8020		-21.484375
8021		-21.484375
8022		-17.578125
8023		-19.531250
8024		-15.625000
8025		-15.625000
8026		-11.718750
8027		-13.671875
8028		-7.812500
8029		-9.765625
8030		-3.906250
8031		-5.859375
8032		-1.953125
8033		-3.906250
8034		1.953125
8035		0.000000
8036		5.859375
8037		3.906250
8038		7.812500
8039		5.859375
8040		11.718750
8041		9.765625
8042		15.625000
8043		13.671875
8044		19.531250
8045		15.625000
8046		23.437500
8047		19.531250
8048		25.390625
8049		21.484375
8050		29.296875
8051		25.390625
8052		31.250000
8053		29.296875
8054		35.156250
8055		33.203125
8056		37.109375
8057		35.156250
8058		41.015625
8059		37.109375
8060		44.921875
8061		41.015625
8062		46.875000
8063		42.968750
8064		48.828125
8065		46.875000
8066		52.734375
8067		48.828125
8068		54.687500
8069		50.781250
8070		54.687500
8071		54.687500
8072		58.593750
8073		56.640625
8074		60.546875
8075		58.593750
8076		62.500000
8077		60.546875
8078		66.406250
8079		60.546875
8080		68.359375
8081		62.500000
8082		68.359375
8083		64.453125
8084		70.312500
8085		66.406250
8086		70.312500
8087		68.359375
8088		72.265625
8089		70.312500
8090		74.218750
8091		70.312500
8092		74.218750
8093		70.312500
8094		76.171875
8095		70.312500
8096		78.125000
8097		72.265625
8098		78.125000
8099		72.265625
8100		78.125000
8101		72.265625
8102		78.125000
8103		74.218750
8104		76.171875
8105		74.218750
8106		76.171875
8107		72.265625
8108		78.125000
8109		72.265625
8110		76.171875
8111		72.265625
8112		76.171875
8113		70.312500
8114		78.125000
8115		70.312500
8116		76.171875
8117		70.312500
8118		74.218750
8119		68.359375
8120		74.218750
8121		68.359375
8122		72.265625
8123		66.406250
8124		70.312500
8125		64.453125
8126		68.359375
8127		62.500000
8128		68.359375
8129		60.546875
8130		66.406250
8131		60.546875
8132		64.453125
8133		58.593750
8134		62.500000
8135		54.687500
8136		60.546875
8137		54.687500
8138		58.593750
8139		52.734375
8140		56.640625
8141		48.828125
8142		54.687500
8143		44.921875
8144		50.781250
8145		42.968750
8146		48.828125
8147		39.062500
8148		48.828125
8149		39.062500
8150		42.968750
8151		35.156250
8152		41.015625
8153		33.203125
8154		37.109375
8155		29.296875
8156		33.203125
8157		25.390625
8158		31.250000
8159		21.484375
8160		27.343750
8161		19.531250
8162		25.390625
8163		15.625000
8164		21.484375
8165		13.671875
8166		17.578125
8167		9.765625
8168		15.625000
8169		5.859375
8170		11.718750
8171		3.906250
8172		7.812500
8173		-1.953125
8174		3.906250
8175		-3.906250
8176		1.953125
8177		-7.812500
8178		-1.953125
8179		-11.718750
8180		-5.859375
8181		-13.671875
8182		-7.812500
8183		-15.625000
8184		-11.718750
8185		-21.484375
8186		-15.625000
8187		-23.437500
8188		-17.578125
8189		-25.390625
8190		-21.484375
8191		-29.296875
8192		-23.437500
8193		-31.250000
8194		-27.343750
8195		-35.156250
8196		-29.296875
8197		-39.062500
8198		-31.250000
8199		-41.015625
8200		-35.156250
8201		-41.015625
8202		-37.109375
8203		-44.921875
8204		-39.062500
8205		-46.875000
8206		-42.968750
8207		-48.828125
8208		-44.921875
8209		-50.781250
8210		-46.875000
8211		-52.734375
8212		-48.828125
8213		-54.687500
8214		-48.828125
8215		-54.687500
8216		-50.781250
8217		-56.640625
8218		-52.734375
8219		-56.640625
8220		-54.687500
8221		-56.640625
8222		-54.687500
8223		-58.593750
8224		-56.640625
8225		-60.546875
8226		-56.640625
8227		-60.546875
8228		-56.640625
8229		-60.546875
8230		-56.640625
8231		-60.546875
8232		-56.640625
8233		-60.546875
8234		-56.640625
8235		-60.546875
8236		-56.640625
8237		-58.593750
8238		-56.640625
8239		-58.593750
8240		-54.687500
8241		-58.593750
8242		-52.734375
8243		-56.640625
8244		-52.734375
8245		-54.687500
8246		-52.734375
8247		-54.687500
8248		-48.828125
8249		-52.734375
8250		-48.828125
8251		-50.781250
8252		-46.875000
8253		-48.828125
8254		-44.921875
8255		-46.875000
8256		-42.968750
8257		-44.921875
8258		-39.062500
8259		-42.968750
8260		-39.062500
8261		-41.015625
8262		-37.109375
8263		-39.062500
8264		-33.203125
8265		-35.156250
8266		-31.250000
8267		-33.203125
8268		-27.343750
8269		-29.296875
8270		-23.437500
8271		-27.343750
8272		-23.437500
8273		-23.437500
8274		-19.531250
8275		-21.484375
8276		-15.625000
8277		-19.531250
8278		-13.671875
8279		-15.625000
8280		-9.765625
8281		-11.718750
8282		-7.812500
8283		-9.765625
8284		-3.906250
8285		-5.859375
8286		0.000000
8287		-1.953125
8288		1.953125
8289		1.953125
8290		5.859375
8291		3.906250
8292		9.765625
8293		7.812500
8294		13.671875
8295		11.718750
8296		15.625000
8297		15.625000
8298		19.531250
8299		17.578125
8300		23.437500
8301		21.484375
8302		25.390625
8303		23.437500
8304		29.296875
8305		27.343750
8306		31.250000
8307		31.250000
8308		35.156250
8309		33.203125
8310		39.062500
8311		37.109375
8312		41.015625
8313		39.062500
8314		42.968750
8315		42.968750
8316		46.875000
8317		44.921875
8318		48.828125
8319		46.875000
8320		52.734375
8321		48.828125
8322		54.687500
8323		52.734375
8324		56.640625
8325		54.687500
8326		58.593750
8327		56.640625
8328		60.546875
8329		58.593750
8330		62.500000
8331		60.546875
8332		64.453125
8333		62.500000
8334		66.406250
8335		64.453125
8336		68.359375
8337		64.453125
8338		70.312500
8339		68.359375
8340		70.312500
8341		68.359375
8342		72.265625
8343		70.312500
8344		74.218750
8345		70.312500
8346		74.218750
8347		72.265625
8348		74.218750
8349		72.265625
8350		76.171875
8351		72.265625
8352		76.171875
8353		72.265625
8354		78.125000
8355		74.218750
8356		76.171875
8357		74.218750
8358		76.171875
8359		74.218750
8360		78.125000
8361		72.265625
8362		76.171875
8363		72.265625
8364		76.171875
8365		72.265625
8366		76.171875
8367		72.265625
8368		76.171875
8369		70.312500
8370		74.218750
8371		70.312500
8372		74.218750
8373		68.359375
8374		72.265625
8375		68.359375
8376		72.265625
8377		66.406250
8378		70.312500
8379		64.453125
8380		70.312500
8381		62.500000
8382		66.406250
8383		60.546875
8384		64.453125
8385		60.546875
8386		62.500000
8387		56.640625
8388		62.500000
8389		54.687500
8390		58.593750
8391		52.734375
8392		56.640625
8393		50.781250
8394		54.687500
8395		48.828125
8396		52.734375
8397		44.921875
8398		50.781250
8399		42.968750
8400		46.875000
8401		41.015625
8402		44.921875
8403		37.109375
8404		41.015625
8405		35.156250
8406		39.062500
8407		31.250000
8408		35.156250
8409		27.343750
8410		33.203125
8411		25.390625
8412		29.296875
8413		21.484375
8414		27.343750
8415		17.578125
8416		23.437500
8417		15.625000
8418		21.484375
8419		11.718750
8420		17.578125
8421		7.812500
8422		13.671875
8423		5.859375
8424		9.765625
8425		1.953125
8426		5.859375
8427		-1.953125
8428		3.906250
8429		-5.859375
8430		0.000000
8431		-7.812500
8432		-3.906250
8433		-11.718750
8434		-5.859375
8435		-15.625000
8436		-9.765625
8437		-19.531250
8438		-13.671875
8439		-21.484375
8440		-15.625000
8441		-23.437500
8442		-19.531250
8443		-27.343750
8444		-21.484375
8445		-31.250000
8446		-25.390625
8447		-33.203125
8448		-27.343750
8449		-35.156250
8450		-29.296875
8451		-39.062500
8452		-33.203125
8453		-41.015625
8454		-37.109375
8455		-42.968750
8456		-39.062500
8457		-44.921875
8458		-41.015625
8459		-48.828125
8460		-42.968750
8461		-48.828125
8462		-44.921875
8463		-50.781250
8464		-46.875000
8465		-52.734375
8466		-48.828125
8467		-54.687500
8468		-50.781250
8469		-54.687500
8470		-50.781250
8471		-56.640625
8472		-52.734375
8473		-56.640625
8474		-54.687500
8475		-58.593750
8476		-54.687500
8477		-58.593750
8478		-54.687500
8479		-60.546875
8480		-56.640625
8481		-60.546875
8482		-56.640625
8483		-60.546875
8484		-56.640625
8485		-60.546875
8486		-56.640625
8487		-60.546875
8488		-56.640625
8489		-60.546875
8490		-56.640625
8491		-58.593750
8492		-56.640625
8493		-58.593750
8494		-54.687500
8495		-56.640625
8496		-54.687500
8497		-56.640625
8498		-52.734375
8499		-54.687500
8500		-52.734375
8501		-54.687500
8502		-48.828125
8503		-52.734375
8504		-48.828125
8505		-50.781250
8506		-46.875000
8507		-48.828125
8508		-44.921875
8509		-46.875000
8510		-42.968750
8511		-44.921875
8512		-41.015625
8513		-42.968750
8514		-39.062500
8515		-39.062500
8516		-35.156250
8517		-37.109375
8518		-33.203125
8519		-35.156250
8520		-29.296875
8521		-33.203125
8522		-27.343750
8523		-31.250000
8524		-23.437500
8525		-27.343750
8526		-21.484375
8527		-23.437500
8528		-19.531250
8529		-19.531250
8530		-15.625000
8531		-17.578125
8532		-11.718750
8533		-13.671875
8534		-9.765625
8535		-11.718750
8536		-5.859375
8537		-7.812500
8538		-1.953125
8539		-3.906250
8540		1.953125
8541		0.000000
8542		3.906250
8543		1.953125
8544		7.812500
8545		5.859375
8546		11.718750
8547		9.765625
8548		13.671875
8549		11.718750
8550		17.578125
8551		15.625000
8552		19.531250
8553		17.578125
8554		23.437500
8555		21.484375
8556		27.343750
8557		25.390625
8558		29.296875
8559		29.296875
8560		33.203125
8561		31.250000
8562		37.109375
8563		35.156250
8564		39.062500
8565		37.109375
8566		42.968750
8567		41.015625
8568		44.921875
8569		42.968750
8570		46.875000
8571		44.921875
8572		50.781250
8573		48.828125
8574		52.734375
8575		50.781250
8576		54.687500
8577		52.734375
8578		56.640625
8579		54.687500
8580		58.593750
8581		56.640625
8582		60.546875
8583		58.593750
8584		64.453125
8585		60.546875
8586		64.453125
8587		64.453125
8588		68.359375
8589		64.453125
8590		68.359375
8591		66.406250
8592		70.312500
8593		68.359375
8594		70.312500
8595		68.359375
8596		72.265625
8597		70.312500
8598		74.218750
8599		70.312500
8600		74.218750
8601		72.265625
8602		74.218750
8603		72.265625
8604		76.171875
8605		72.265625
8606		76.171875
8607		72.265625
8608		76.171875
8609		74.218750
8610		76.171875
8611		74.218750
8612		76.171875
8613		74.218750
8614		76.171875
8615		72.265625
8616		76.171875
8617		72.265625
8618		76.171875
8619		72.265625
8620		76.171875
8621		72.265625
8622		74.218750
8623		70.312500
8624		74.218750
8625		70.312500
8626		72.265625
8627		68.359375
8628		72.265625
8629		66.406250
8630		70.312500
8631		66.406250
8632		68.359375
8633		64.453125
8634		68.359375
8635		62.500000
8636		66.406250
8637		60.546875
8638		64.453125
8639		58.593750
8640		62.500000
8641		56.640625
8642		60.546875
8643		54.687500
8644		58.593750
8645		52.734375
8646		56.640625
8647		48.828125
8648		54.687500
8649		46.875000
8650		50.781250
8651		44.921875
8652		48.828125
8653		41.015625
8654		46.875000
8655		39.062500
8656		42.968750
8657		35.156250
8658		41.015625
8659		33.203125
8660		37.109375
8661		29.296875
8662		35.156250
8663		27.343750
8664		31.250000
8665		23.437500
8666		29.296875
8667		21.484375
8668		25.390625
8669		17.578125
8670		23.437500
8671		13.671875
8672		19.531250
8673		9.765625
8674		17.578125
8675		7.812500
8676		11.718750
8677		3.906250
8678		7.812500
8679		0.000000
8680		5.859375
8681		-3.906250
8682		1.953125
8683		-5.859375
8684		-1.953125
8685		-9.765625
8686		-3.906250
8687		-13.671875
8688		-7.812500
8689		-15.625000
8690		-9.765625
8691		-19.531250
8692		-13.671875
8693		-21.484375
8694		-17.578125
8695		-25.390625
8696		-19.531250
8697		-29.296875
8698		-23.437500
8699		-31.250000
8700		-27.343750
8701		-35.156250
8702		-29.296875
8703		-37.109375
8704		-31.250000
8705		-39.062500
8706		-35.156250
8707		-41.015625
8708		-37.109375
8709		-42.968750
8710		-39.062500
8711		-46.875000
8712		-41.015625
8713		-48.828125
8714		-44.921875
8715		-50.781250
8716		-46.875000
8717		-52.734375
8718		-46.875000
8719		-52.734375
8720		-48.828125
8721		-54.687500
8722		-50.781250
8723		-56.640625
8724		-52.734375
8725		-56.640625
8726		-54.687500
8727		-58.593750
8728		-54.687500
8729		-58.593750
8730		-54.687500
8731		-58.593750
8732		-56.640625
8733		-60.546875
8734		-56.640625
8735		-60.546875
8736		-56.640625
8737		-60.546875
8738		-56.640625
8739		-60.546875
8740		-56.640625
8741		-60.546875
8742		-56.640625
8743		-58.593750
8744		-56.640625
8745		-58.593750
8746		-54.687500
8747		-58.593750
8748		-54.687500
8749		-56.640625
8750		-52.734375
8751		-56.640625
8752		-52.734375
8753		-54.687500
8754		-50.781250
8755		-52.734375
8756		-48.828125
8757		-52.734375
8758		-46.875000
8759		-48.828125
8760		-44.921875
8761		-48.828125
8762		-44.921875
8763		-44.921875
8764		-41.015625
8765		-44.921875
8766		-39.062500
8767		-41.015625
8768		-37.109375
8769		-39.062500
8770		-35.156250
8771		-37.109375
8772		-31.250000
8773		-35.156250
8774		-29.296875
8775		-31.250000
8776		-25.390625
8777		-27.343750
8778		-23.437500
8779		-25.390625
8780		-19.531250
8781		-21.484375
8782		-17.578125
8783		-19.531250
8784		-13.671875
8785		-15.625000
8786		-11.718750
8787		-11.718750
8788		-7.812500
8789		-9.765625
8790		-3.906250
8791		-5.859375
8792		-1.953125
8793		-3.906250
8794		1.953125
8795		0.000000
8796		5.859375
8797		3.906250
8798		7.812500
8799		7.812500
8800		11.718750
8801		9.765625
8802		15.625000
8803		13.671875
8804		19.531250
8805		17.578125
8806		21.484375
8807		19.531250
8808		25.390625
8809		23.437500
8810		27.343750
8811		27.343750
8812		31.250000
8813		29.296875
8814		35.156250
8815		33.203125
8816		37.109375
8817		35.156250
8818		41.015625
8819		39.062500
8820		42.968750
8821		41.015625
8822		46.875000
8823		44.921875
8824		48.828125
8825		46.875000
8826		50.781250
8827		48.828125
8828		52.734375
8829		52.734375
8830		56.640625
8831		54.687500
8832		58.593750
8833		56.640625
8834		60.546875
8835		58.593750
8836		62.500000
8837		60.546875
8838		64.453125
8839		62.500000
8840		66.406250
8841		64.453125
8842		68.359375
8843		66.406250
8844		68.359375
8845		66.406250
8846		70.312500
8847		66.406250
8848		72.265625
8849		70.312500
8850		74.218750
8851		70.312500
8852		74.218750
8853		72.265625
8854		76.171875
8855		72.265625
8856		76.171875
8857		72.265625
8858		76.171875
8859		74.218750
8860		76.171875
8861		74.218750
8862		76.171875
8863		72.265625
8864		76.171875
8865		74.218750
8866		76.171875
8867		74.218750
8868		76.171875
8869		72.265625
8870		76.171875
8871		72.265625
8872		76.171875
8873		72.265625
8874		76.171875
8875		70.312500
8876		74.218750
8877		70.312500
8878		74.218750
8879		68.359375
8880		72.265625
8881		68.359375
8882		72.265625
8883		66.406250
8884		70.312500
8885		64.453125
8886		68.359375
8887		64.453125
8888		68.359375
8889		62.500000
8890		64.453125
8891		58.593750
8892		64.453125
8893		58.593750
8894		62.500000
8895		56.640625
8896		60.546875
8897		52.734375
8898		58.593750
8899		50.781250
8900		54.687500
8901		48.828125
8902		52.734375
8903		44.921875
8904		50.781250
8905		42.968750
8906		48.828125
8907		41.015625
8908		44.921875
8909		37.109375
8910		42.968750
8911		35.156250
8912		39.062500
8913		31.250000
8914		37.109375
8915		29.296875
8916		33.203125
8917		25.390625
8918		31.250000
8919		21.484375
8920		27.343750
8921		19.531250
8922		23.437500
8923		15.625000
8924		21.484375
8925		11.718750
8926		17.578125
8927		9.765625
8928		13.671875
8929		5.859375
8930		11.718750
8931		1.953125
8932		7.812500
8933		-1.953125
8934		3.906250
8935		-3.906250
8936		1.953125
8937		-7.812500
8938		-1.953125
8939		-11.718750
8940		-5.859375
8941		-13.671875
8942		-9.765625
8943		-17.578125
8944		-11.718750
8945		-21.484375
8946		-15.625000
8947		-23.437500
8948		-19.531250
8949		-27.343750
8950		-21.484375
8951		-29.296875
8952		-23.437500
8953		-33.203125
8954		-27.343750
8955		-35.156250
8956		-31.250000
8957		-37.109375
8958		-33.203125
8959		-41.015625
8960		-35.156250
8961		-42.968750
8962		-39.062500
8963		-44.921875
8964		-41.015625
8965		-46.875000
8966		-42.968750
8967		-48.828125
8968		-44.921875
8969		-50.781250
8970		-46.875000
8971		-52.734375
8972		-48.828125
8973		-54.687500
8974		-48.828125
8975		-56.640625
8976		-50.781250
8977		-56.640625
8978		-52.734375
8979		-56.640625
8980		-54.687500
8981		-58.593750
8982		-54.687500
8983		-58.593750
8984		-56.640625
8985		-60.546875
8986		-56.640625
8987		-58.593750
8988		-56.640625
8989		-60.546875
8990		-56.640625
8991		-60.546875
8992		-56.640625
8993		-60.546875
8994		-56.640625
8995		-58.593750
8996		-56.640625
8997		-60.546875
8998		-54.687500
8999		-58.593750
9000		-54.687500
9001		-58.593750
9002		-54.687500
9003		-56.640625
9004		-52.734375
9005		-54.687500
9006		-50.781250
9007		-54.687500
9008		-50.781250
9009		-52.734375
9010		-48.828125
9011		-50.781250
9012		-46.875000
9013		-48.828125
9014		-44.921875
9015		-48.828125
9016		-42.968750
9017		-44.921875
9018		-41.015625
9019		-42.968750
9020		-39.062500
9021		-41.015625
9022		-37.109375
9023		-39.062500
9024		-33.203125
9025		-35.156250
9026		-31.250000
9027		-35.156250
9028		-29.296875
9029		-29.296875
9030		-25.390625
9031		-27.343750
9032		-21.484375
9033		-25.390625
9034		-19.531250
9035		-21.484375
9036		-15.625000
9037		-17.578125
9038		-13.671875
9039		-15.625000
9040		-9.765625
9041		-11.718750
9042		-5.859375
9043		-7.812500
9044		-3.906250
9045		-5.859375
9046		0.000000
9047		-1.953125
9048		3.906250
9049		0.000000
9050		5.859375
9051		3.906250
9052		9.765625
9053		7.812500
9054		13.671875
9055		9.765625
9056		17.578125
9057		13.671875
9058		19.531250
9059		17.578125
9060		23.437500
9061		21.484375
9062		25.390625
9063		23.437500
9064		29.296875
9065		27.343750
9066		31.250000
9067		31.250000
9068		35.156250
9069		33.203125
9070		39.062500
9071		37.109375
9072		41.015625
9073		39.062500
9074		44.921875
9075		42.968750
9076		46.875000
9077		44.921875
9078		48.828125
9079		46.875000
9080		50.781250
9081		50.781250
9082		54.687500
9083		52.734375
9084		56.640625
9085		54.687500
9086		58.593750
9087		56.640625
9088		60.546875
9089		58.593750
9090		62.500000
9091		60.546875
9092		64.453125
9093		62.500000
9094		66.406250
9095		64.453125
9096		68.359375
9097		66.406250
9098		70.312500
9099		68.359375
9100		70.312500
9101		68.359375
9102		72.265625
9103		68.359375
9104		74.218750
9105		70.312500
9106		74.218750
9107		70.312500
9108		74.218750
9109		72.265625
9110		74.218750
9111		72.265625
9112		76.171875
9113		74.218750
9114		76.171875
9115		72.265625
9116		76.171875
9117		74.218750
9118		76.171875
9119		72.265625
9120		76.171875
9121		72.265625
9122		76.171875
9123		72.265625
9124		76.171875
9125		72.265625
9126		76.171875
9127		72.265625
9128		74.218750
9129		70.312500
9130		74.218750
9131		70.312500
9132		72.265625
9133		68.359375
9134		72.265625
9135		66.406250
9136		70.312500
9137		66.406250
9138		70.312500
9139		64.453125
9140		68.359375
9141		62.500000
9142		66.406250
9143		60.546875
9144		64.453125
9145		58.593750
9146		62.500000
9147		56.640625
9148		60.546875
9149		54.687500
9150		58.593750
9151		52.734375
9152		56.640625
9153		48.828125
9154		54.687500
9155		46.875000
9156		52.734375
9157		44.921875
9158		48.828125
9159		42.968750
9160		46.875000
9161		39.062500
9162		44.921875
9163		37.109375
9164		41.015625
9165		33.203125
9166		39.062500
9167		29.296875
9168		35.156250
9169		27.343750
9170		31.250000
9171		23.437500
9172		29.296875
9173		21.484375
9174		25.390625
9175		17.578125
9176		21.484375
9177		13.671875
9178		19.531250
9179		11.718750
9180		15.625000
9181		7.812500
9182		13.671875
9183		3.906250
9184		9.765625
9185		0.000000
9186		5.859375
9187		-3.906250
9188		1.953125
9189		-5.859375
9190		0.000000
9191		-9.765625
9192		-3.906250
9193		-11.718750
9194		-7.812500
9195		-15.625000
9196		-9.765625
9197		-19.531250
9198		-13.671875
9199		-23.437500
9200		-17.578125
9201		-25.390625
9202		-19.531250
9203		-27.343750
9204		-23.437500
9205		-31.250000
9206		-25.390625
9207		-33.203125
9208		-29.296875
9209		-37.109375
9210		-31.250000
9211		-39.062500
9212		-35.156250
9213		-41.015625
9214		-37.109375
9215		-42.968750
9216		-39.062500
9217		-44.921875
9218		-41.015625
9219		-48.828125
9220		-42.968750
9221		-48.828125
9222		-46.875000
9223		-50.781250
9224		-46.875000
9225		-52.734375
9226		-48.828125
9227		-54.687500
9228		-50.781250
9229		-54.687500
9230		-52.734375
9231		-56.640625
9232		-54.687500
9233		-58.593750
9234		-54.687500
9235		-58.593750
9236		-54.687500
9237		-58.593750
9238		-56.640625
9239		-60.546875
9240		-56.640625
9241		-60.546875
9242		-56.640625
9243		-60.546875
9244		-56.640625
9245		-60.546875
9246		-56.640625
9247		-60.546875
9248		-56.640625
9249		-60.546875
9250		-56.640625
9251		-58.593750
9252		-54.687500
9253		-58.593750
9254		-54.687500
9255		-58.593750
9256		-54.687500
9257		-56.640625
9258		-52.734375
9259		-56.640625
9260		-50.781250
9261		-54.687500
9262		-48.828125
9263		-52.734375
9264		-48.828125
9265		-50.781250
9266		-46.875000
9267		-48.828125
9268		-44.921875
9269		-46.875000
9270		-42.968750
9271		-44.921875
9272		-41.015625
9273		-42.968750
9274		-37.109375
9275		-41.015625
9276		-35.156250
9277		-37.109375
9278		-33.203125
9279		-35.156250
9280		-31.250000
9281		-31.250000
9282		-27.343750
9283		-29.296875
9284		-23.437500
9285		-25.390625
9286		-21.484375
9287		-23.437500
9288		-17.578125
9289		-19.531250
9290		-15.625000
9291		-17.578125
9292		-11.718750
9293		-13.671875
9294		-9.765625
9295		-11.718750
9296		-5.859375
9297		-7.812500
9298		-1.953125
9299		-3.906250
9300		0.000000
9301		-1.953125
9302		3.906250
9303		1.953125
9304		7.812500
9305		5.859375
9306		9.765625
9307		9.765625
9308		15.625000
9309		11.718750
9310		17.578125
9311		15.625000
9312		21.484375
9313		17.578125
9314		23.437500
9315		21.484375
9316		27.343750
9317		25.390625
9318		29.296875
9319		29.296875
9320		33.203125
9321		31.250000
9322		35.156250
9323		33.203125
9324		39.062500
9325		37.109375
9326		41.015625
9327		39.062500
9328		44.921875
9329		42.968750
9330		46.875000
9331		44.921875
9332		50.781250
9333		48.828125
9334		52.734375
9335		50.781250
9336		54.687500
9337		52.734375
9338		56.640625
9339		54.687500
9340		58.593750
9341		56.640625
9342		60.546875
9343		58.593750
9344		64.453125
9345		60.546875
9346		66.406250
9347		64.453125
9348		66.406250
9349		64.453125
9350		68.359375
9351		66.406250
9352		70.312500
9353		68.359375
9354		72.265625
9355		68.359375
9356		72.265625
9357		70.312500
9358		72.265625
9359		70.312500
9360		74.218750
9361		72.265625
9362		74.218750
9363		72.265625
9364		76.171875
9365		74.218750
9366		76.171875
9367		74.218750
9368		76.171875
9369		74.218750
9370		76.171875
9371		74.218750
9372		76.171875
9373		74.218750
9374		76.171875
9375		72.265625
9376		76.171875
9377		72.265625
9378		76.171875
9379		70.312500
9380		76.171875
9381		72.265625
9382		74.218750
9383		70.312500
9384		74.218750
9385		68.359375
9386		72.265625
9387		68.359375
9388		72.265625
9389		66.406250
9390		70.312500
9391		64.453125
9392		70.312500
9393		64.453125
9394		66.406250
9395		62.500000
9396		66.406250
9397		60.546875
9398		64.453125
9399		58.593750
9400		62.500000
9401		54.687500
9402		60.546875
9403		52.734375
9404		58.593750
9405		50.781250
9406		54.687500
9407		48.828125
9408		52.734375
9409		46.875000
9410		50.781250
9411		42.968750
9412		48.828125
9413		41.015625
9414		44.921875
9415		39.062500
9416		42.968750
9417		33.203125
9418		39.062500
9419		31.250000
9420		37.109375
9421		29.296875
9422		33.203125
9423		25.390625
9424		31.250000
9425		23.437500
9426		27.343750
9427		19.531250
9428		25.390625
9429		15.625000
9430		21.484375
9431		13.671875
9432		17.578125
9433		9.765625
9434		13.671875
9435		5.859375
9436		11.718750
9437		1.953125
9438		7.812500
9439		0.000000
9440		3.906250
9441		-3.906250
9442		1.953125
9443		-7.812500
9444		-1.953125
9445		-9.765625
9446		-5.859375
9447		-13.671875
9448		-7.812500
9449		-17.578125
9450		-11.718750
9451		-19.531250
9452		-15.625000
9453		-23.437500
9454		-17.578125
9455		-27.343750
9456		-21.484375
9457		-29.296875
9458		-25.390625
9459		-31.250000
9460		-27.343750
9461		-35.156250
9462		-31.250000
9463		-37.109375
9464		-31.250000
9465		-39.062500
9466		-35.156250
9467		-42.968750
9468		-39.062500
9469		-44.921875
9470		-41.015625
9471		-46.875000
9472		-42.968750
9473		-48.828125
9474		-44.921875
9475		-50.781250
9476		-46.875000
9477		-52.734375
9478		-48.828125
9479		-54.687500
9480		-48.828125
9481		-54.687500
9482		-50.781250
9483		-56.640625
9484		-52.734375
9485		-58.593750
9486		-54.687500
9487		-58.593750
9488		-54.687500
9489		-58.593750
9490		-56.640625
9491		-60.546875
9492		-56.640625
9493		-60.546875
9494		-56.640625
9495		-60.546875
9496		-56.640625
9497		-60.546875
9498		-56.640625
9499		-60.546875
9500		-56.640625
9501		-60.546875
9502		-56.640625
9503		-60.546875
9504		-56.640625
9505		-58.593750
9506		-54.687500
9507		-58.593750
9508		-54.687500
9509		-56.640625
9510		-54.687500
9511		-56.640625
9512		-52.734375
9513		-54.687500
9514		-50.781250
9515		-52.734375
9516		-50.781250
9517		-50.781250
9518		-48.828125
9519		-50.781250
9520		-46.875000
9521		-48.828125
9522		-44.921875
9523		-46.875000
9524		-41.015625
9525		-42.968750
9526		-39.062500
9527		-41.015625
9528		-37.109375
9529		-39.062500
9530		-35.156250
9531		-37.109375
9532		-33.203125
9533		-33.203125
9534		-29.296875
9535		-31.250000
9536		-27.343750
9537		-29.296875
9538		-23.437500
9539		-25.390625
9540		-19.531250
9541		-21.484375
9542		-17.578125
9543		-19.531250
9544		-13.671875
9545		-15.625000
9546		-11.718750
9547		-13.671875
9548		-7.812500
9549		-9.765625
9550		-3.906250
9551		-5.859375
9552		-1.953125
9553		-3.906250
9554		1.953125
9555		0.000000
9556		5.859375
9557		1.953125
9558		9.765625
9559		5.859375
9560		13.671875
9561		9.765625
9562		15.625000
9563		13.671875
9564		19.531250
9565		17.578125
9566		21.484375
9567		19.531250
9568		25.390625
9569		23.437500
9570		29.296875
9571		27.343750
9572		31.250000
9573		29.296875
9574		35.156250
9575		33.203125
9576		39.062500
9577		35.156250
9578		41.015625
9579		39.062500
9580		42.968750
9581		41.015625
9582		44.921875
9583		44.921875
9584		48.828125
9585		46.875000
9586		52.734375
9587		48.828125
9588		52.734375
9589		50.781250
9590		56.640625
9591		54.687500
9592		58.593750
9593		56.640625
9594		60.546875
9595		58.593750
9596		62.500000
9597		60.546875
9598		64.453125
9599		62.500000
9600		66.406250
9601		64.453125
9602		66.406250
9603		64.453125
9604		68.359375
9605		66.406250
9606		70.312500
9607		68.359375
9608		72.265625
9609		68.359375
9610		72.265625
9611		70.312500
9612		74.218750
9613		70.312500
9614		74.218750
9615		72.265625
9616		76.171875
9617		72.265625
9618		76.171875
9619		72.265625
9620		76.171875
9621		72.265625
9622		76.171875
9623		72.265625
9624		76.171875
9625		74.218750
9626		76.171875
9627		72.265625
9628		76.171875
9629		72.265625
9630		76.171875
9631		72.265625
9632		76.171875
9633		72.265625
9634		74.218750
9635		70.312500
9636		74.218750
9637		70.312500
9638		74.218750
9639		68.359375
9640		72.265625
9641		68.359375
9642		70.312500
9643		66.406250
9644		70.312500
9645		64.453125
9646		68.359375
9647		62.500000
9648		66.406250
9649		62.500000
9650		66.406250
9651		60.546875
9652		62.500000
9653		56.640625
9654		60.546875
9655		54.687500
9656		58.593750
9657		52.734375
9658		56.640625
9659		48.828125
9660		54.687500
9661		48.828125
9662		52.734375
9663		44.921875
9664		50.781250
9665		42.968750
9666		46.875000
9667		39.062500
9668		44.921875
9669		37.109375
9670		41.015625
9671		33.203125
9672		39.062500
9673		31.250000
9674		37.109375
9675		27.343750
9676		33.203125
9677		25.390625
9678		29.296875
9679		21.484375
9680		25.390625
9681		17.578125
9682		23.437500
9683		15.625000
9684		19.531250
9685		11.718750
9686		15.625000
9687		7.812500
9688		13.671875
9689		3.906250
9690		11.718750
9691		1.953125
9692		7.812500
9693		-1.953125
9694		3.906250
9695		-5.859375
9696		0.000000
9697		-7.812500
9698		-3.906250
9699		-11.718750
9700		-5.859375
9701		-13.671875
9702		-9.765625
9703		-19.531250
9704		-13.671875
9705		-21.484375
9706		-15.625000
9707		-23.437500
9708		-19.531250
9709		-27.343750
9710		-21.484375
9711		-31.250000
9712		-25.390625
9713		-33.203125
9714		-27.343750
9715		-37.109375
9716		-31.250000
9717		-37.109375
9718		-33.203125
9719		-41.015625
9720		-37.109375
9721		-42.968750
9722		-39.062500
9723		-44.921875
9724		-41.015625
9725		-46.875000
9726		-42.968750
9727		-48.828125
9728		-44.921875
9729		-50.781250
9730		-46.875000
9731		-52.734375
9732		-48.828125
9733		-54.687500
9734		-50.781250
9735		-54.687500
9736		-52.734375
9737		-56.640625
9738		-52.734375
9739		-58.593750
9740		-54.687500
9741		-58.593750
9742		-54.687500
9743		-58.593750
9744		-56.640625
9745		-60.546875
9746		-56.640625
9747		-60.546875
9748		-56.640625
9749		-60.546875
9750		-56.640625
9751		-60.546875
9752		-58.593750
9753		-60.546875
9754		-56.640625
9755		-60.546875
9756		-56.640625
9757		-58.593750
9758		-56.640625
9759		-58.593750
9760		-56.640625
9761		-58.593750
9762		-54.687500
9763		-56.640625
9764		-52.734375
9765		-54.687500
9766		-52.734375
9767		-54.687500
9768		-50.781250
9769		-52.734375
9770		-48.828125
9771		-50.781250
9772		-46.875000
9773		-48.828125
9774		-44.921875
9775		-46.875000
9776		-42.968750
9777		-44.921875
9778		-41.015625
9779		-42.968750
9780		-39.062500
9781		-41.015625
9782		-37.109375
9783		-39.062500
9784		-33.203125
9785		-35.156250
9786		-31.250000
9787		-33.203125
9788		-27.343750
9789		-29.296875
9790		-25.390625
9791		-27.343750
9792		-21.484375
9793		-25.390625
9794		-19.531250
9795		-21.484375
9796		-15.625000
9797		-17.578125
9798		-13.671875
9799		-15.625000
9800		-7.812500
9801		-11.718750
9802		-5.859375
9803		-7.812500
9804		-3.906250
9805		-3.906250
9806		0.000000
9807		-1.953125
9808		3.906250
9809		1.953125
9810		5.859375
9811		5.859375
9812		9.765625
9813		7.812500
9814		13.671875
9815		11.718750
9816		17.578125
9817		15.625000
9818		19.531250
9819		17.578125
9820		23.437500
9821		21.484375
9822		27.343750
9823		25.390625
9824		29.296875
9825		27.343750
9826		33.203125
9827		31.250000
9828		35.156250
9829		33.203125
9830		39.062500
9831		37.109375
9832		41.015625
9833		39.062500
9834		44.921875
9835		42.968750
9836		46.875000
9837		44.921875
9838		48.828125
9839		46.875000
9840		52.734375
9841		50.781250
9842		54.687500
9843		52.734375
9844		56.640625
9845		54.687500
9846		58.593750
9847		56.640625
9848		60.546875
9849		58.593750
9850		62.500000
9851		58.593750
9852		64.453125
9853		62.500000
9854		66.406250
9855		64.453125
9856		68.359375
9857		66.406250
9858		70.312500
9859		66.406250
9860		70.312500
9861		68.359375
9862		72.265625
9863		70.312500
9864		72.265625
9865		70.312500
9866		74.218750
9867		70.312500
9868		74.218750
9869		72.265625
9870		74.218750
9871		72.265625
9872		76.171875
9873		72.265625
9874		76.171875
9875		74.218750
9876		76.171875
9877		74.218750
9878		76.171875
9879		74.218750
9880		76.171875
9881		72.265625
9882		76.171875
9883		72.265625
9884		76.171875
9885		72.265625
9886		74.218750
9887		70.312500
9888		74.218750
9889		70.312500
9890		74.218750
9891		70.312500
9892		72.265625
9893		68.359375
9894		72.265625
9895		66.406250
9896		70.312500
9897		64.453125
9898		70.312500
9899		64.453125
9900		68.359375
9901		62.500000
9902		66.406250
9903		60.546875
9904		64.453125
9905		58.593750
9906		62.500000
9907		56.640625
9908		60.546875
9909		54.687500
9910		58.593750
9911		52.734375
9912		56.640625
9913		48.828125
9914		54.687500
9915		46.875000
9916		50.781250
9917		42.968750
9918		48.828125
9919		41.015625
9920		46.875000
9921		39.062500
9922		42.968750
9923		35.156250
9924		41.015625
9925		33.203125
9926		39.062500
9927		29.296875
9928		35.156250
9929		27.343750
9930		31.250000
9931		23.437500
9932		27.343750
9933		19.531250
9934		25.390625
9935		17.578125
9936		23.437500
9937		13.671875
9938		17.578125
9939		9.765625
9940		15.625000
9941		5.859375
9942		11.718750
9943		3.906250
9944		7.812500
9945		0.000000
9946		5.859375
9947		-3.906250
9948		1.953125
9949		-7.812500
9950		0.000000
9951		-9.765625
9952		-5.859375
9953		-13.671875
9954		-7.812500
9955		-17.578125
9956		-11.718750
9957		-19.531250
9958		-13.671875
9959		-23.437500
9960		-17.578125
9961		-25.390625
9962		-21.484375
9963		-27.343750
9964		-23.437500
9965		-31.250000
9966		-25.390625
9967		-35.156250
9968		-29.296875
9969		-37.109375
9970		-33.203125
9971		-39.062500
9972		-35.156250
9973		-42.968750
9974		-37.109375
9975		-44.921875
9976		-41.015625
9977		-46.875000
9978		-42.968750
9979		-48.828125
9980		-44.921875
9981		-50.781250
9982		-46.875000
9983		-52.734375
9984		-48.828125
9985		-54.687500
9986		-48.828125
9987		-54.687500
9988		-50.781250
9989		-56.640625
9990		-52.734375
9991		-56.640625
9992		-54.687500
9993		-58.593750
9994		-54.687500
9995		-58.593750
9996		-56.640625
9997		-60.546875
9998		-56.640625
9999		-60.546875
10000		-56.640625
