Channel              :		CH1
Frequency            :		1.973kHz
Period               :		0.507ms
PK-PK                :		183.6mV
Probe attenuation    :		1X
Voltage per ADC value:		0.122070mV
Time interval        :		2.00000us

index		CH1_Voltage(mV)
1		95.703125
2		95.703125
3		87.890625
4		93.750000
5		85.937500
6		93.750000
7		85.937500
8		93.750000
9		83.984375
10		91.796875
11		83.984375
12		89.843750
13		82.031250
14		89.843750
15		82.031250
16		85.937500
17		78.125000
18		83.984375
19		74.218750
20		83.984375
21		72.265625
22		82.031250
23		70.312500
24		80.078125
25		68.359375
26		76.171875
27		66.406250
28		74.218750
29		64.453125
30		72.265625
31		62.500000
32		66.406250
33		58.593750
34		64.453125
35		52.734375
36		62.500000
37		50.781250
38		58.593750
39		46.875000
40		56.640625
41		42.968750
42		52.734375
43		39.062500
44		48.828125
45		35.156250
46		44.921875
47		33.203125
48		41.015625
49		29.296875
50		35.156250
51		23.437500
52		31.250000
53		19.531250
54		29.296875
55		15.625000
56		25.390625
57		11.718750
58		19.531250
59		5.859375
60		15.625000
61		1.953125
62		11.718750
63		0.000000
64		7.812500
65		-3.906250
66		1.953125
67		-11.718750
68		-1.953125
69		-13.671875
70		-5.859375
71		-19.531250
72		-9.765625
73		-23.437500
74		-13.671875
75		-27.343750
76		-17.578125
77		-31.250000
78		-21.484375
79		-35.156250
80		-25.390625
81		-37.109375
82		-31.250000
83		-41.015625
84		-35.156250
85		-46.875000
86		-39.062500
87		-50.781250
88		-41.015625
89		-52.734375
90		-44.921875
91		-56.640625
92		-46.875000
93		-60.546875
94		-50.781250
95		-62.500000
96		-54.687500
97		-64.453125
98		-56.640625
99		-66.406250
100		-60.546875
101		-70.312500
102		-62.500000
103		-72.265625
104		-64.453125
105		-74.218750
106		-66.406250
107		-76.171875
108		-68.359375
109		-78.125000
110		-70.312500
111		-78.125000
112		-72.265625
113		-80.078125
114		-72.265625
115		-78.125000
116		-76.171875
117		-78.125000
118		-76.171875
119		-82.031250
120		-74.218750
121		-82.031250
122		-76.171875
123		-82.031250
124		-74.218750
125		-82.031250
126		-74.218750
127		-82.031250
128		-76.171875
129		-82.031250
130		-74.218750
131		-80.078125
132		-76.171875
133		-76.171875
134		-74.218750
135		-78.125000
136		-70.312500
137		-76.171875
138		-68.359375
139		-74.218750
140		-66.406250
141		-72.265625
142		-64.453125
143		-70.312500
144		-62.500000
145		-68.359375
146		-60.546875
147		-66.406250
148		-60.546875
149		-60.546875
150		-56.640625
151		-58.593750
152		-52.734375
153		-58.593750
154		-48.828125
155		-54.687500
156		-46.875000
157		-50.781250
158		-42.968750
159		-48.828125
160		-39.062500
161		-44.921875
162		-35.156250
163		-41.015625
164		-31.250000
165		-35.156250
166		-29.296875
167		-31.250000
168		-25.390625
169		-29.296875
170		-19.531250
171		-25.390625
172		-15.625000
173		-21.484375
174		-9.765625
175		-15.625000
176		-5.859375
177		-11.718750
178		-1.953125
179		-7.812500
180		1.953125
181		-3.906250
182		3.906250
183		1.953125
184		7.812500
185		7.812500
186		13.671875
187		9.765625
188		19.531250
189		13.671875
190		23.437500
191		17.578125
192		27.343750
193		21.484375
194		31.250000
195		25.390625
196		35.156250
197		29.296875
198		37.109375
199		35.156250
200		41.015625
201		39.062500
202		44.921875
203		42.968750
204		50.781250
205		44.921875
206		54.687500
207		48.828125
208		56.640625
209		52.734375
210		60.546875
211		54.687500
212		64.453125
213		58.593750
214		66.406250
215		62.500000
216		68.359375
217		66.406250
218		70.312500
219		68.359375
220		76.171875
221		70.312500
222		78.125000
223		72.265625
224		80.078125
225		74.218750
226		82.031250
227		76.171875
228		83.984375
229		78.125000
230		85.937500
231		80.078125
232		85.937500
233		83.984375
234		87.890625
235		83.984375
236		89.843750
237		83.984375
238		91.796875
239		85.937500
240		93.750000
241		85.937500
242		93.750000
243		87.890625
244		93.750000
245		87.890625
246		93.750000
247		87.890625
248		95.703125
249		89.843750
250		91.796875
251		89.843750
252		93.750000
253		87.890625
254		93.750000
255		87.890625
256		93.750000
257		87.890625
258		93.750000
259		85.937500
260		91.796875
261		85.937500
262		91.796875
263		83.984375
264		89.843750
265		83.984375
266		89.843750
267		83.984375
268		85.937500
269		78.125000
270		85.937500
271		78.125000
272		85.937500
273		74.218750
274		83.984375
275		72.265625
276		80.078125
277		70.312500
278		78.125000
279		68.359375
280		76.171875
281		66.406250
282		74.218750
283		64.453125
284		68.359375
285		60.546875
286		66.406250
287		56.640625
288		62.500000
289		52.734375
290		60.546875
291		48.828125
292		58.593750
293		44.921875
294		54.687500
295		41.015625
296		50.781250
297		37.109375
298		46.875000
299		35.156250
300		42.968750
301		33.203125
302		37.109375
303		25.390625
304		33.203125
305		21.484375
306		31.250000
307		17.578125
308		27.343750
309		13.671875
310		23.437500
311		9.765625
312		19.531250
313		3.906250
314		15.625000
315		1.953125
316		9.765625
317		-1.953125
318		3.906250
319		-7.812500
320		0.000000
321		-11.718750
322		-1.953125
323		-17.578125
324		-5.859375
325		-21.484375
326		-11.718750
327		-25.390625
328		-15.625000
329		-29.296875
330		-19.531250
331		-31.250000
332		-23.437500
333		-35.156250
334		-29.296875
335		-39.062500
336		-33.203125
337		-44.921875
338		-37.109375
339		-48.828125
340		-39.062500
341		-50.781250
342		-42.968750
343		-54.687500
344		-46.875000
345		-58.593750
346		-48.828125
347		-60.546875
348		-52.734375
349		-62.500000
350		-54.687500
351		-64.453125
352		-60.546875
353		-70.312500
354		-62.500000
355		-72.265625
356		-62.500000
357		-74.218750
358		-66.406250
359		-76.171875
360		-68.359375
361		-78.125000
362		-70.312500
363		-80.078125
364		-70.312500
365		-80.078125
366		-72.265625
367		-78.125000
368		-76.171875
369		-80.078125
370		-76.171875
371		-82.031250
372		-76.171875
373		-83.984375
374		-76.171875
375		-83.984375
376		-76.171875
377		-83.984375
378		-76.171875
379		-82.031250
380		-76.171875
381		-83.984375
382		-76.171875
383		-82.031250
384		-76.171875
385		-78.125000
386		-76.171875
387		-80.078125
388		-72.265625
389		-78.125000
390		-72.265625
391		-76.171875
392		-70.312500
393		-76.171875
394		-66.406250
395		-74.218750
396		-64.453125
397		-70.312500
398		-62.500000
399		-68.359375
400		-62.500000
401		-64.453125
402		-60.546875
403		-62.500000
404		-56.640625
405		-60.546875
406		-50.781250
407		-58.593750
408		-48.828125
409		-54.687500
410		-44.921875
411		-50.781250
412		-41.015625
413		-48.828125
414		-39.062500
415		-44.921875
416		-35.156250
417		-39.062500
418		-33.203125
419		-35.156250
420		-29.296875
421		-31.250000
422		-23.437500
423		-29.296875
424		-19.531250
425		-25.390625
426		-15.625000
427		-19.531250
428		-11.718750
429		-17.578125
430		-5.859375
431		-11.718750
432		-1.953125
433		-7.812500
434		0.000000
435		-1.953125
436		3.906250
437		1.953125
438		9.765625
439		3.906250
440		13.671875
441		7.812500
442		19.531250
443		13.671875
444		23.437500
445		17.578125
446		27.343750
447		21.484375
448		33.203125
449		25.390625
450		35.156250
451		33.203125
452		37.109375
453		35.156250
454		41.015625
455		37.109375
456		46.875000
457		41.015625
458		50.781250
459		44.921875
460		54.687500
461		48.828125
462		58.593750
463		52.734375
464		60.546875
465		56.640625
466		64.453125
467		58.593750
468		64.453125
469		62.500000
470		68.359375
471		66.406250
472		72.265625
473		66.406250
474		74.218750
475		70.312500
476		78.125000
477		72.265625
478		80.078125
479		74.218750
480		82.031250
481		76.171875
482		83.984375
483		78.125000
484		85.937500
485		82.031250
486		85.937500
487		83.984375
488		85.937500
489		83.984375
490		89.843750
491		83.984375
492		91.796875
493		85.937500
494		93.750000
495		85.937500
496		93.750000
497		85.937500
498		93.750000
499		87.890625
500		93.750000
501		89.843750
502		91.796875
503		89.843750
504		91.796875
505		87.890625
506		93.750000
507		87.890625
508		93.750000
509		85.937500
510		93.750000
511		85.937500
512		93.750000
513		85.937500
514		91.796875
515		83.984375
516		91.796875
517		83.984375
518		89.843750
519		83.984375
520		85.937500
521		80.078125
522		85.937500
523		78.125000
524		85.937500
525		76.171875
526		83.984375
527		74.218750
528		82.031250
529		72.265625
530		80.078125
531		68.359375
532		78.125000
533		66.406250
534		76.171875
535		66.406250
536		70.312500
537		62.500000
538		68.359375
539		58.593750
540		66.406250
541		54.687500
542		62.500000
543		50.781250
544		60.546875
545		46.875000
546		56.640625
547		44.921875
548		52.734375
549		41.015625
550		48.828125
551		39.062500
552		46.875000
553		35.156250
554		41.015625
555		29.296875
556		37.109375
557		23.437500
558		35.156250
559		19.531250
560		29.296875
561		15.625000
562		25.390625
563		11.718750
564		21.484375
565		7.812500
566		17.578125
567		5.859375
568		13.671875
569		1.953125
570		7.812500
571		-1.953125
572		1.953125
573		-9.765625
574		0.000000
575		-13.671875
576		-3.906250
577		-17.578125
578		-7.812500
579		-23.437500
580		-11.718750
581		-27.343750
582		-15.625000
583		-29.296875
584		-21.484375
585		-33.203125
586		-25.390625
587		-35.156250
588		-31.250000
589		-42.968750
590		-33.203125
591		-44.921875
592		-35.156250
593		-48.828125
594		-39.062500
595		-52.734375
596		-42.968750
597		-56.640625
598		-46.875000
599		-58.593750
600		-50.781250
601		-60.546875
602		-52.734375
603		-62.500000
604		-58.593750
605		-66.406250
606		-62.500000
607		-70.312500
608		-62.500000
609		-72.265625
610		-64.453125
611		-74.218750
612		-66.406250
613		-76.171875
614		-68.359375
615		-78.125000
616		-70.312500
617		-78.125000
618		-72.265625
619		-78.125000
620		-76.171875
621		-80.078125
622		-76.171875
623		-82.031250
624		-76.171875
625		-83.984375
626		-76.171875
627		-83.984375
628		-76.171875
629		-83.984375
630		-76.171875
631		-83.984375
632		-76.171875
633		-83.984375
634		-76.171875
635		-83.984375
636		-76.171875
637		-80.078125
638		-78.125000
639		-80.078125
640		-74.218750
641		-80.078125
642		-72.265625
643		-78.125000
644		-70.312500
645		-78.125000
646		-68.359375
647		-76.171875
648		-66.406250
649		-74.218750
650		-64.453125
651		-72.265625
652		-64.453125
653		-66.406250
654		-62.500000
655		-64.453125
656		-60.546875
657		-64.453125
658		-54.687500
659		-60.546875
660		-52.734375
661		-56.640625
662		-48.828125
663		-54.687500
664		-44.921875
665		-50.781250
666		-42.968750
667		-46.875000
668		-37.109375
669		-42.968750
670		-37.109375
671		-37.109375
672		-33.203125
673		-35.156250
674		-25.390625
675		-31.250000
676		-23.437500
677		-27.343750
678		-17.578125
679		-25.390625
680		-13.671875
681		-19.531250
682		-9.765625
683		-15.625000
684		-5.859375
685		-11.718750
686		-3.906250
687		-5.859375
688		0.000000
689		-1.953125
690		5.859375
691		1.953125
692		11.718750
693		5.859375
694		15.625000
695		9.765625
696		19.531250
697		15.625000
698		23.437500
699		19.531250
700		27.343750
701		23.437500
702		31.250000
703		29.296875
704		33.203125
705		33.203125
706		37.109375
707		35.156250
708		42.968750
709		37.109375
710		46.875000
711		42.968750
712		50.781250
713		44.921875
714		54.687500
715		48.828125
716		58.593750
717		50.781250
718		60.546875
719		54.687500
720		62.500000
721		60.546875
722		64.453125
723		64.453125
724		70.312500
725		64.453125
726		74.218750
727		68.359375
728		76.171875
729		70.312500
730		78.125000
731		72.265625
732		80.078125
733		74.218750
734		82.031250
735		76.171875
736		83.984375
737		80.078125
738		83.984375
739		82.031250
740		85.937500
741		82.031250
742		89.843750
743		82.031250
744		89.843750
745		83.984375
746		91.796875
747		85.937500
748		91.796875
749		85.937500
750		93.750000
751		85.937500
752		93.750000
753		87.890625
754		91.796875
755		89.843750
756		91.796875
757		87.890625
758		93.750000
759		87.890625
760		93.750000
761		85.937500
762		93.750000
763		85.937500
764		93.750000
765		83.984375
766		91.796875
767		83.984375
768		91.796875
769		83.984375
770		89.843750
771		83.984375
772		87.890625
773		80.078125
774		85.937500
775		80.078125
776		85.937500
777		78.125000
778		83.984375
779		76.171875
780		82.031250
781		74.218750
782		80.078125
783		70.312500
784		78.125000
785		68.359375
786		76.171875
787		68.359375
788		72.265625
789		64.453125
790		68.359375
791		58.593750
792		68.359375
793		56.640625
794		64.453125
795		52.734375
796		62.500000
797		48.828125
798		58.593750
799		44.921875
800		54.687500
801		42.968750
802		52.734375
803		41.015625
804		48.828125
805		37.109375
806		42.968750
807		31.250000
808		39.062500
809		27.343750
810		37.109375
811		23.437500
812		33.203125
813		17.578125
814		29.296875
815		13.671875
816		23.437500
817		9.765625
818		19.531250
819		7.812500
820		15.625000
821		3.906250
822		9.765625
823		0.000000
824		5.859375
825		-7.812500
826		1.953125
827		-9.765625
828		-1.953125
829		-15.625000
830		-5.859375
831		-19.531250
832		-9.765625
833		-23.437500
834		-13.671875
835		-27.343750
836		-17.578125
837		-29.296875
838		-23.437500
839		-33.203125
840		-27.343750
841		-39.062500
842		-31.250000
843		-42.968750
844		-35.156250
845		-46.875000
846		-39.062500
847		-50.781250
848		-41.015625
849		-54.687500
850		-44.921875
851		-58.593750
852		-48.828125
853		-58.593750
854		-50.781250
855		-62.500000
856		-56.640625
857		-66.406250
858		-60.546875
859		-68.359375
860		-60.546875
861		-70.312500
862		-62.500000
863		-74.218750
864		-66.406250
865		-74.218750
866		-68.359375
867		-78.125000
868		-70.312500
869		-80.078125
870		-70.312500
871		-78.125000
872		-74.218750
873		-80.078125
874		-76.171875
875		-82.031250
876		-76.171875
877		-83.984375
878		-76.171875
879		-83.984375
880		-76.171875
881		-83.984375
882		-78.125000
883		-83.984375
884		-78.125000
885		-83.984375
886		-78.125000
887		-83.984375
888		-78.125000
889		-82.031250
890		-78.125000
891		-82.031250
892		-76.171875
893		-82.031250
894		-74.218750
895		-80.078125
896		-72.265625
897		-80.078125
898		-72.265625
899		-78.125000
900		-70.312500
901		-76.171875
902		-68.359375
903		-72.265625
904		-66.406250
905		-68.359375
906		-64.453125
907		-66.406250
908		-62.500000
909		-66.406250
910		-56.640625
911		-64.453125
912		-54.687500
913		-60.546875
914		-52.734375
915		-58.593750
916		-48.828125
917		-54.687500
918		-44.921875
919		-50.781250
920		-42.968750
921		-46.875000
922		-39.062500
923		-41.015625
924		-35.156250
925		-37.109375
926		-31.250000
927		-35.156250
928		-25.390625
929		-31.250000
930		-21.484375
931		-27.343750
932		-17.578125
933		-23.437500
934		-13.671875
935		-19.531250
936		-9.765625
937		-15.625000
938		-7.812500
939		-7.812500
940		-3.906250
941		-5.859375
942		3.906250
943		-1.953125
944		7.812500
945		1.953125
946		11.718750
947		5.859375
948		15.625000
949		11.718750
950		19.531250
951		13.671875
952		25.390625
953		17.578125
954		27.343750
955		25.390625
956		31.250000
957		29.296875
958		35.156250
959		33.203125
960		41.015625
961		35.156250
962		44.921875
963		39.062500
964		48.828125
965		42.968750
966		50.781250
967		46.875000
968		54.687500
969		48.828125
970		58.593750
971		52.734375
972		60.546875
973		58.593750
974		62.500000
975		60.546875
976		66.406250
977		62.500000
978		70.312500
979		64.453125
980		74.218750
981		68.359375
982		76.171875
983		70.312500
984		78.125000
985		72.265625
986		80.078125
987		74.218750
988		82.031250
989		78.125000
990		82.031250
991		80.078125
992		83.984375
993		80.078125
994		87.890625
995		82.031250
996		89.843750
997		83.984375
998		89.843750
999		83.984375
1000		89.843750
1001		85.937500
1002		91.796875
1003		85.937500
1004		93.750000
1005		85.937500
1006		93.750000
1007		89.843750
1008		91.796875
1009		85.937500
1010		93.750000
1011		85.937500
1012		93.750000
1013		85.937500
1014		93.750000
1015		85.937500
1016		93.750000
1017		85.937500
1018		91.796875
1019		83.984375
1020		91.796875
1021		83.984375
1022		91.796875
1023		83.984375
1024		87.890625
1025		82.031250
1026		87.890625
1027		80.078125
1028		87.890625
1029		78.125000
1030		85.937500
1031		74.218750
1032		83.984375
1033		74.218750
1034		82.031250
1035		72.265625
1036		80.078125
1037		70.312500
1038		78.125000
1039		68.359375
1040		74.218750
1041		66.406250
1042		70.312500
1043		62.500000
1044		68.359375
1045		58.593750
1046		66.406250
1047		54.687500
1048		64.453125
1049		50.781250
1050		60.546875
1051		48.828125
1052		56.640625
1053		44.921875
1054		52.734375
1055		42.968750
1056		50.781250
1057		39.062500
1058		44.921875
1059		33.203125
1060		41.015625
1061		29.296875
1062		39.062500
1063		25.390625
1064		35.156250
1065		21.484375
1066		31.250000
1067		17.578125
1068		27.343750
1069		13.671875
1070		23.437500
1071		9.765625
1072		17.578125
1073		5.859375
1074		11.718750
1075		1.953125
1076		7.812500
1077		-3.906250
1078		5.859375
1079		-7.812500
1080		1.953125
1081		-13.671875
1082		-3.906250
1083		-17.578125
1084		-7.812500
1085		-21.484375
1086		-11.718750
1087		-25.390625
1088		-15.625000
1089		-27.343750
1090		-19.531250
1091		-31.250000
1092		-25.390625
1093		-37.109375
1094		-29.296875
1095		-41.015625
1096		-31.250000
1097		-44.921875
1098		-35.156250
1099		-48.828125
1100		-39.062500
1101		-52.734375
1102		-42.968750
1103		-54.687500
1104		-46.875000
1105		-56.640625
1106		-50.781250
1107		-58.593750
1108		-54.687500
1109		-62.500000
1110		-58.593750
1111		-68.359375
1112		-58.593750
1113		-70.312500
1114		-60.546875
1115		-72.265625
1116		-64.453125
1117		-74.218750
1118		-66.406250
1119		-78.125000
1120		-68.359375
1121		-78.125000
1122		-70.312500
1123		-78.125000
1124		-74.218750
1125		-78.125000
1126		-76.171875
1127		-82.031250
1128		-76.171875
1129		-82.031250
1130		-76.171875
1131		-83.984375
1132		-76.171875
1133		-83.984375
1134		-78.125000
1135		-83.984375
1136		-78.125000
1137		-83.984375
1138		-78.125000
1139		-85.937500
1140		-78.125000
1141		-82.031250
1142		-80.078125
1143		-83.984375
1144		-76.171875
1145		-82.031250
1146		-76.171875
1147		-82.031250
1148		-74.218750
1149		-80.078125
1150		-72.265625
1151		-80.078125
1152		-72.265625
1153		-78.125000
1154		-70.312500
1155		-76.171875
1156		-68.359375
1157		-72.265625
1158		-68.359375
1159		-68.359375
1160		-64.453125
1161		-68.359375
1162		-60.546875
1163		-66.406250
1164		-58.593750
1165		-62.500000
1166		-54.687500
1167		-60.546875
1168		-50.781250
1169		-56.640625
1170		-48.828125
1171		-52.734375
1172		-44.921875
1173		-48.828125
1174		-42.968750
1175		-44.921875
1176		-39.062500
1177		-41.015625
1178		-33.203125
1179		-39.062500
1180		-29.296875
1181		-35.156250
1182		-25.390625
1183		-31.250000
1184		-21.484375
1185		-27.343750
1186		-17.578125
1187		-23.437500
1188		-13.671875
1189		-19.531250
1190		-11.718750
1191		-11.718750
1192		-7.812500
1193		-7.812500
1194		-1.953125
1195		-5.859375
1196		3.906250
1197		-1.953125
1198		7.812500
1199		3.906250
1200		11.718750
1201		7.812500
1202		17.578125
1203		11.718750
1204		21.484375
1205		13.671875
1206		25.390625
1207		21.484375
1208		27.343750
1209		25.390625
1210		31.250000
1211		29.296875
1212		37.109375
1213		31.250000
1214		41.015625
1215		35.156250
1216		44.921875
1217		39.062500
1218		48.828125
1219		42.968750
1220		52.734375
1221		46.875000
1222		54.687500
1223		48.828125
1224		56.640625
1225		54.687500
1226		60.546875
1227		58.593750
1228		64.453125
1229		58.593750
1230		68.359375
1231		62.500000
1232		70.312500
1233		66.406250
1234		74.218750
1235		68.359375
1236		76.171875
1237		70.312500
1238		78.125000
1239		72.265625
1240		80.078125
1241		76.171875
1242		80.078125
1243		78.125000
1244		82.031250
1245		78.125000
1246		85.937500
1247		80.078125
1248		87.890625
1249		82.031250
1250		87.890625
1251		82.031250
1252		89.843750
1253		83.984375
1254		91.796875
1255		83.984375
1256		91.796875
1257		85.937500
1258		91.796875
1259		87.890625
1260		89.843750
1261		85.937500
1262		91.796875
1263		85.937500
1264		93.750000
1265		85.937500
1266		91.796875
1267		85.937500
1268		91.796875
1269		85.937500
1270		91.796875
1271		83.984375
1272		91.796875
1273		83.984375
1274		91.796875
1275		85.937500
1276		87.890625
1277		83.984375
1278		85.937500
1279		80.078125
1280		87.890625
1281		78.125000
1282		85.937500
1283		76.171875
1284		83.984375
1285		74.218750
1286		82.031250
1287		72.265625
1288		80.078125
1289		70.312500
1290		78.125000
1291		70.312500
1292		78.125000
1293		68.359375
1294		72.265625
1295		62.500000
1296		70.312500
1297		58.593750
1298		68.359375
1299		56.640625
1300		64.453125
1301		54.687500
1302		62.500000
1303		50.781250
1304		58.593750
1305		46.875000
1306		54.687500
1307		44.921875
1308		52.734375
1309		41.015625
1310		46.875000
1311		37.109375
1312		42.968750
1313		31.250000
1314		41.015625
1315		27.343750
1316		37.109375
1317		23.437500
1318		33.203125
1319		17.578125
1320		29.296875
1321		13.671875
1322		25.390625
1323		11.718750
1324		19.531250
1325		7.812500
1326		13.671875
1327		3.906250
1328		9.765625
1329		-1.953125
1330		5.859375
1331		-5.859375
1332		3.906250
1333		-9.765625
1334		0.000000
1335		-15.625000
1336		-5.859375
1337		-19.531250
1338		-9.765625
1339		-23.437500
1340		-13.671875
1341		-25.390625
1342		-17.578125
1343		-29.296875
1344		-23.437500
1345		-35.156250
1346		-27.343750
1347		-39.062500
1348		-31.250000
1349		-42.968750
1350		-33.203125
1351		-46.875000
1352		-37.109375
1353		-50.781250
1354		-41.015625
1355		-54.687500
1356		-44.921875
1357		-56.640625
1358		-48.828125
1359		-58.593750
1360		-54.687500
1361		-60.546875
1362		-56.640625
1363		-66.406250
1364		-58.593750
1365		-68.359375
1366		-60.546875
1367		-72.265625
1368		-62.500000
1369		-74.218750
1370		-66.406250
1371		-76.171875
1372		-68.359375
1373		-78.125000
1374		-70.312500
1375		-78.125000
1376		-72.265625
1377		-80.078125
1378		-76.171875
1379		-82.031250
1380		-76.171875
1381		-83.984375
1382		-76.171875
1383		-83.984375
1384		-76.171875
1385		-85.937500
1386		-78.125000
1387		-85.937500
1388		-78.125000
1389		-85.937500
1390		-78.125000
1391		-85.937500
1392		-78.125000
1393		-83.984375
1394		-80.078125
1395		-82.031250
1396		-80.078125
1397		-83.984375
1398		-76.171875
1399		-83.984375
1400		-76.171875
1401		-82.031250
1402		-74.218750
1403		-80.078125
1404		-72.265625
1405		-78.125000
1406		-72.265625
1407		-78.125000
1408		-70.312500
1409		-74.218750
1410		-70.312500
1411		-72.265625
1412		-68.359375
1413		-70.312500
1414		-62.500000
1415		-68.359375
1416		-60.546875
1417		-66.406250
1418		-56.640625
1419		-62.500000
1420		-54.687500
1421		-60.546875
1422		-50.781250
1423		-56.640625
1424		-46.875000
1425		-52.734375
1426		-46.875000
1427		-46.875000
1428		-42.968750
1429		-44.921875
1430		-37.109375
1431		-42.968750
1432		-33.203125
1433		-37.109375
1434		-29.296875
1435		-33.203125
1436		-25.390625
1437		-29.296875
1438		-21.484375
1439		-25.390625
1440		-15.625000
1441		-23.437500
1442		-13.671875
1443		-15.625000
1444		-9.765625
1445		-11.718750
1446		-5.859375
1447		-7.812500
1448		0.000000
1449		-5.859375
1450		3.906250
1451		-1.953125
1452		7.812500
1453		3.906250
1454		11.718750
1455		7.812500
1456		17.578125
1457		11.718750
1458		21.484375
1459		15.625000
1460		23.437500
1461		21.484375
1462		27.343750
1463		27.343750
1464		33.203125
1465		29.296875
1466		37.109375
1467		31.250000
1468		41.015625
1469		37.109375
1470		44.921875
1471		41.015625
1472		48.828125
1473		42.968750
1474		52.734375
1475		46.875000
1476		54.687500
1477		52.734375
1478		56.640625
1479		56.640625
1480		60.546875
1481		56.640625
1482		64.453125
1483		60.546875
1484		68.359375
1485		62.500000
1486		70.312500
1487		64.453125
1488		74.218750
1489		68.359375
1490		76.171875
1491		70.312500
1492		78.125000
1493		74.218750
1494		78.125000
1495		76.171875
1496		80.078125
1497		78.125000
1498		83.984375
1499		78.125000
1500		85.937500
1501		80.078125
1502		87.890625
1503		82.031250
1504		87.890625
1505		82.031250
1506		89.843750
1507		83.984375
1508		89.843750
1509		83.984375
1510		91.796875
1511		87.890625
1512		89.843750
1513		85.937500
1514		91.796875
1515		85.937500
1516		93.750000
1517		85.937500
1518		93.750000
1519		85.937500
1520		91.796875
1521		85.937500
1522		91.796875
1523		85.937500
1524		91.796875
1525		83.984375
1526		91.796875
1527		85.937500
1528		87.890625
1529		83.984375
1530		87.890625
1531		80.078125
1532		87.890625
1533		78.125000
1534		85.937500
1535		78.125000
1536		85.937500
1537		76.171875
1538		83.984375
1539		74.218750
1540		82.031250
1541		72.265625
1542		80.078125
1543		70.312500
1544		78.125000
1545		68.359375
1546		72.265625
1547		64.453125
1548		70.312500
1549		62.500000
1550		70.312500
1551		58.593750
1552		66.406250
1553		54.687500
1554		64.453125
1555		52.734375
1556		60.546875
1557		48.828125
1558		56.640625
1559		46.875000
1560		54.687500
1561		42.968750
1562		48.828125
1563		37.109375
1564		44.921875
1565		33.203125
1566		42.968750
1567		31.250000
1568		39.062500
1569		25.390625
1570		35.156250
1571		23.437500
1572		31.250000
1573		17.578125
1574		27.343750
1575		13.671875
1576		23.437500
1577		11.718750
1578		17.578125
1579		7.812500
1580		11.718750
1581		0.000000
1582		9.765625
1583		-3.906250
1584		5.859375
1585		-7.812500
1586		1.953125
1587		-13.671875
1588		-3.906250
1589		-17.578125
1590		-5.859375
1591		-21.484375
1592		-11.718750
1593		-23.437500
1594		-15.625000
1595		-27.343750
1596		-21.484375
1597		-33.203125
1598		-25.390625
1599		-37.109375
1600		-27.343750
1601		-41.015625
1602		-31.250000
1603		-44.921875
1604		-35.156250
1605		-48.828125
1606		-39.062500
1607		-50.781250
1608		-42.968750
1609		-54.687500
1610		-46.875000
1611		-56.640625
1612		-52.734375
1613		-60.546875
1614		-54.687500
1615		-64.453125
1616		-56.640625
1617		-68.359375
1618		-58.593750
1619		-70.312500
1620		-62.500000
1621		-72.265625
1622		-64.453125
1623		-74.218750
1624		-66.406250
1625		-76.171875
1626		-70.312500
1627		-78.125000
1628		-70.312500
1629		-78.125000
1630		-74.218750
1631		-82.031250
1632		-74.218750
1633		-82.031250
1634		-76.171875
1635		-83.984375
1636		-78.125000
1637		-85.937500
1638		-78.125000
1639		-85.937500
1640		-78.125000
1641		-85.937500
1642		-78.125000
1643		-85.937500
1644		-80.078125
1645		-83.984375
1646		-82.031250
1647		-83.984375
1648		-80.078125
1649		-85.937500
1650		-78.125000
1651		-83.984375
1652		-76.171875
1653		-83.984375
1654		-76.171875
1655		-82.031250
1656		-74.218750
1657		-80.078125
1658		-72.265625
1659		-80.078125
1660		-72.265625
1661		-74.218750
1662		-72.265625
1663		-72.265625
1664		-70.312500
1665		-72.265625
1666		-64.453125
1667		-70.312500
1668		-62.500000
1669		-68.359375
1670		-60.546875
1671		-64.453125
1672		-56.640625
1673		-62.500000
1674		-52.734375
1675		-58.593750
1676		-50.781250
1677		-56.640625
1678		-48.828125
1679		-50.781250
1680		-44.921875
1681		-46.875000
1682		-39.062500
1683		-44.921875
1684		-35.156250
1685		-41.015625
1686		-31.250000
1687		-37.109375
1688		-27.343750
1689		-33.203125
1690		-23.437500
1691		-29.296875
1692		-19.531250
1693		-25.390625
1694		-15.625000
1695		-19.531250
1696		-13.671875
1697		-15.625000
1698		-9.765625
1699		-11.718750
1700		-3.906250
1701		-7.812500
1702		1.953125
1703		-3.906250
1704		5.859375
1705		0.000000
1706		9.765625
1707		3.906250
1708		13.671875
1709		9.765625
1710		17.578125
1711		13.671875
1712		19.531250
1713		19.531250
1714		25.390625
1715		23.437500
1716		31.250000
1717		25.390625
1718		35.156250
1719		29.296875
1720		39.062500
1721		33.203125
1722		42.968750
1723		37.109375
1724		46.875000
1725		41.015625
1726		48.828125
1727		44.921875
1728		52.734375
1729		50.781250
1730		54.687500
1731		52.734375
1732		58.593750
1733		54.687500
1734		62.500000
1735		56.640625
1736		66.406250
1737		60.546875
1738		70.312500
1739		62.500000
1740		72.265625
1741		66.406250
1742		74.218750
1743		68.359375
1744		76.171875
1745		72.265625
1746		76.171875
1747		76.171875
1748		78.125000
1749		76.171875
1750		82.031250
1751		76.171875
1752		83.984375
1753		78.125000
1754		85.937500
1755		80.078125
1756		87.890625
1757		82.031250
1758		89.843750
1759		82.031250
1760		89.843750
1761		83.984375
1762		89.843750
1763		85.937500
1764		89.843750
1765		85.937500
1766		91.796875
1767		85.937500
1768		91.796875
1769		85.937500
1770		91.796875
1771		85.937500
1772		91.796875
1773		85.937500
1774		91.796875
1775		85.937500
1776		91.796875
1777		83.984375
1778		91.796875
1779		85.937500
1780		89.843750
1781		83.984375
1782		87.890625
1783		82.031250
1784		87.890625
1785		80.078125
1786		87.890625
1787		78.125000
1788		85.937500
1789		76.171875
1790		83.984375
1791		74.218750
1792		82.031250
1793		72.265625
1794		80.078125
1795		72.265625
1796		78.125000
1797		70.312500
1798		74.218750
1799		64.453125
1800		72.265625
1801		62.500000
1802		72.265625
1803		60.546875
1804		68.359375
1805		56.640625
1806		66.406250
1807		54.687500
1808		64.453125
1809		50.781250
1810		58.593750
1811		48.828125
1812		56.640625
1813		46.875000
1814		50.781250
1815		42.968750
1816		46.875000
1817		37.109375
1818		44.921875
1819		31.250000
1820		41.015625
1821		29.296875
1822		39.062500
1823		23.437500
1824		35.156250
1825		21.484375
1826		29.296875
1827		15.625000
1828		25.390625
1829		13.671875
1830		21.484375
1831		9.765625
1832		15.625000
1833		3.906250
1834		11.718750
1835		-1.953125
1836		7.812500
1837		-5.859375
1838		5.859375
1839		-9.765625
1840		0.000000
1841		-13.671875
1842		-3.906250
1843		-17.578125
1844		-7.812500
1845		-21.484375
1846		-13.671875
1847		-23.437500
1848		-17.578125
1849		-29.296875
1850		-23.437500
1851		-33.203125
1852		-25.390625
1853		-39.062500
1854		-29.296875
1855		-42.968750
1856		-33.203125
1857		-46.875000
1858		-37.109375
1859		-50.781250
1860		-41.015625
1861		-52.734375
1862		-44.921875
1863		-54.687500
1864		-50.781250
1865		-58.593750
1866		-52.734375
1867		-64.453125
1868		-54.687500
1869		-66.406250
1870		-56.640625
1871		-68.359375
1872		-60.546875
1873		-72.265625
1874		-62.500000
1875		-74.218750
1876		-66.406250
1877		-76.171875
1878		-68.359375
1879		-76.171875
1880		-70.312500
1881		-78.125000
1882		-74.218750
1883		-82.031250
1884		-76.171875
1885		-82.031250
1886		-76.171875
1887		-83.984375
1888		-76.171875
1889		-85.937500
1890		-78.125000
1891		-85.937500
1892		-78.125000
1893		-85.937500
1894		-80.078125
1895		-85.937500
1896		-80.078125
1897		-83.984375
1898		-82.031250
1899		-83.984375
1900		-82.031250
1901		-85.937500
1902		-78.125000
1903		-85.937500
1904		-78.125000
1905		-83.984375
1906		-78.125000
1907		-83.984375
1908		-76.171875
1909		-82.031250
1910		-74.218750
1911		-80.078125
1912		-72.265625
1913		-78.125000
1914		-72.265625
1915		-74.218750
1916		-70.312500
1917		-74.218750
1918		-66.406250
1919		-72.265625
1920		-64.453125
1921		-70.312500
1922		-62.500000
1923		-68.359375
1924		-58.593750
1925		-64.453125
1926		-56.640625
1927		-60.546875
1928		-52.734375
1929		-56.640625
1930		-50.781250
1931		-52.734375
1932		-48.828125
1933		-48.828125
1934		-42.968750
1935		-46.875000
1936		-39.062500
1937		-42.968750
1938		-37.109375
1939		-39.062500
1940		-33.203125
1941		-35.156250
1942		-27.343750
1943		-31.250000
1944		-23.437500
1945		-27.343750
1946		-19.531250
1947		-21.484375
1948		-17.578125
1949		-17.578125
1950		-11.718750
1951		-13.671875
1952		-5.859375
1953		-11.718750
1954		-1.953125
1955		-7.812500
1956		1.953125
1957		-3.906250
1958		5.859375
1959		1.953125
1960		11.718750
1961		5.859375
1962		15.625000
1963		9.765625
1964		17.578125
1965		15.625000
1966		21.484375
1967		19.531250
1968		27.343750
1969		21.484375
1970		31.250000
1971		25.390625
1972		35.156250
1973		29.296875
1974		39.062500
1975		35.156250
1976		44.921875
1977		37.109375
1978		46.875000
1979		41.015625
1980		48.828125
1981		46.875000
1982		52.734375
1983		50.781250
1984		56.640625
1985		52.734375
1986		60.546875
1987		54.687500
1988		64.453125
1989		58.593750
1990		66.406250
1991		60.546875
1992		70.312500
1993		64.453125
1994		72.265625
1995		66.406250
1996		74.218750
1997		68.359375
1998		76.171875
1999		74.218750
2000		78.125000
2001		76.171875
2002		82.031250
2003		76.171875
2004		83.984375
2005		78.125000
2006		85.937500
2007		78.125000
2008		85.937500
2009		80.078125
2010		87.890625
2011		82.031250
2012		89.843750
2013		82.031250
2014		89.843750
2015		85.937500
2016		89.843750
2017		85.937500
2018		89.843750
2019		85.937500
2020		91.796875
2021		85.937500
2022		91.796875
2023		85.937500
2024		93.750000
2025		85.937500
2026		93.750000
2027		85.937500
2028		91.796875
2029		83.984375
2030		91.796875
2031		85.937500
2032		89.843750
2033		85.937500
2034		87.890625
2035		82.031250
2036		89.843750
2037		82.031250
2038		87.890625
2039		80.078125
2040		87.890625
2041		78.125000
2042		85.937500
2043		76.171875
2044		83.984375
2045		74.218750
2046		82.031250
2047		74.218750
2048		80.078125
2049		72.265625
2050		76.171875
2051		68.359375
2052		74.218750
2053		66.406250
2054		74.218750
2055		62.500000
2056		70.312500
2057		60.546875
2058		68.359375
2059		56.640625
2060		64.453125
2061		54.687500
2062		62.500000
2063		50.781250
2064		58.593750
2065		48.828125
2066		52.734375
2067		44.921875
2068		50.781250
2069		39.062500
2070		48.828125
2071		35.156250
2072		44.921875
2073		31.250000
2074		41.015625
2075		27.343750
2076		37.109375
2077		23.437500
2078		33.203125
2079		19.531250
2080		29.296875
2081		17.578125
2082		27.343750
2083		13.671875
2084		19.531250
2085		5.859375
2086		15.625000
2087		1.953125
2088		11.718750
2089		-1.953125
2090		7.812500
2091		-5.859375
2092		3.906250
2093		-9.765625
2094		0.000000
2095		-15.625000
2096		-5.859375
2097		-17.578125
2098		-9.765625
2099		-21.484375
2100		-15.625000
2101		-27.343750
2102		-19.531250
2103		-31.250000
2104		-21.484375
2105		-35.156250
2106		-25.390625
2107		-39.062500
2108		-29.296875
2109		-42.968750
2110		-33.203125
2111		-46.875000
2112		-37.109375
2113		-50.781250
2114		-41.015625
2115		-50.781250
2116		-46.875000
2117		-54.687500
2118		-50.781250
2119		-60.546875
2120		-52.734375
2121		-64.453125
2122		-54.687500
2123		-66.406250
2124		-58.593750
2125		-68.359375
2126		-60.546875
2127		-72.265625
2128		-64.453125
2129		-74.218750
2130		-66.406250
2131		-76.171875
2132		-68.359375
2133		-76.171875
2134		-72.265625
2135		-80.078125
2136		-74.218750
2137		-82.031250
2138		-74.218750
2139		-82.031250
2140		-74.218750
2141		-83.984375
2142		-76.171875
2143		-85.937500
2144		-76.171875
2145		-85.937500
2146		-78.125000
2147		-85.937500
2148		-78.125000
2149		-83.984375
2150		-82.031250
2151		-83.984375
2152		-82.031250
2153		-85.937500
2154		-78.125000
2155		-85.937500
2156		-78.125000
2157		-83.984375
2158		-78.125000
2159		-83.984375
2160		-76.171875
2161		-82.031250
2162		-76.171875
2163		-82.031250
2164		-74.218750
2165		-80.078125
2166		-74.218750
2167		-76.171875
2168		-72.265625
2169		-76.171875
2170		-68.359375
2171		-74.218750
2172		-66.406250
2173		-72.265625
2174		-64.453125
2175		-70.312500
2176		-60.546875
2177		-66.406250
2178		-58.593750
2179		-64.453125
2180		-54.687500
2181		-60.546875
2182		-52.734375
2183		-54.687500
2184		-50.781250
2185		-52.734375
2186		-46.875000
2187		-50.781250
2188		-41.015625
2189		-46.875000
2190		-37.109375
2191		-42.968750
2192		-35.156250
2193		-39.062500
2194		-29.296875
2195		-35.156250
2196		-25.390625
2197		-31.250000
2198		-21.484375
2199		-25.390625
2200		-19.531250
2201		-21.484375
2202		-15.625000
2203		-17.578125
2204		-9.765625
2205		-13.671875
2206		-5.859375
2207		-9.765625
2208		0.000000
2209		-5.859375
2210		3.906250
2211		-1.953125
2212		7.812500
2213		1.953125
2214		11.718750
2215		5.859375
2216		13.671875
2217		13.671875
2218		17.578125
2219		17.578125
2220		25.390625
2221		19.531250
2222		29.296875
2223		23.437500
2224		33.203125
2225		27.343750
2226		37.109375
2227		31.250000
2228		41.015625
2229		35.156250
2230		44.921875
2231		39.062500
2232		46.875000
2233		44.921875
2234		50.781250
2235		48.828125
2236		54.687500
2237		50.781250
2238		58.593750
2239		54.687500
2240		62.500000
2241		56.640625
2242		64.453125
2243		58.593750
2244		66.406250
2245		62.500000
2246		70.312500
2247		64.453125
2248		72.265625
2249		66.406250
2250		74.218750
2251		72.265625
2252		76.171875
2253		74.218750
2254		80.078125
2255		74.218750
2256		82.031250
2257		76.171875
2258		83.984375
2259		78.125000
2260		85.937500
2261		80.078125
2262		87.890625
2263		82.031250
2264		87.890625
2265		82.031250
2266		87.890625
2267		85.937500
2268		87.890625
2269		85.937500
2270		87.890625
2271		83.984375
2272		91.796875
2273		85.937500
2274		91.796875
2275		85.937500
2276		93.750000
2277		85.937500
2278		91.796875
2279		85.937500
2280		91.796875
2281		83.984375
2282		91.796875
2283		85.937500
2284		89.843750
2285		85.937500
2286		87.890625
2287		82.031250
2288		89.843750
2289		82.031250
2290		89.843750
2291		80.078125
2292		87.890625
2293		80.078125
2294		87.890625
2295		78.125000
2296		85.937500
2297		76.171875
2298		83.984375
2299		76.171875
2300		82.031250
2301		74.218750
2302		78.125000
2303		68.359375
2304		76.171875
2305		66.406250
2306		74.218750
2307		64.453125
2308		72.265625
2309		62.500000
2310		70.312500
2311		56.640625
2312		66.406250
2313		54.687500
2314		64.453125
2315		52.734375
2316		60.546875
2317		50.781250
2318		54.687500
2319		46.875000
2320		52.734375
2321		41.015625
2322		48.828125
2323		37.109375
2324		46.875000
2325		33.203125
2326		44.921875
2327		31.250000
2328		39.062500
2329		27.343750
2330		35.156250
2331		21.484375
2332		33.203125
2333		19.531250
2334		27.343750
2335		15.625000
2336		21.484375
2337		9.765625
2338		17.578125
2339		3.906250
2340		13.671875
2341		0.000000
2342		9.765625
2343		-3.906250
2344		5.859375
2345		-7.812500
2346		1.953125
2347		-11.718750
2348		-1.953125
2349		-15.625000
2350		-7.812500
2351		-17.578125
2352		-13.671875
2353		-23.437500
2354		-17.578125
2355		-29.296875
2356		-19.531250
2357		-33.203125
2358		-23.437500
2359		-39.062500
2360		-27.343750
2361		-41.015625
2362		-33.203125
2363		-44.921875
2364		-37.109375
2365		-48.828125
2366		-41.015625
2367		-50.781250
2368		-44.921875
2369		-52.734375
2370		-48.828125
2371		-58.593750
2372		-52.734375
2373		-62.500000
2374		-54.687500
2375		-66.406250
2376		-56.640625
2377		-68.359375
2378		-60.546875
2379		-72.265625
2380		-62.500000
2381		-74.218750
2382		-64.453125
2383		-74.218750
2384		-68.359375
2385		-76.171875
2386		-72.265625
2387		-78.125000
2388		-74.218750
2389		-82.031250
2390		-74.218750
2391		-82.031250
2392		-76.171875
2393		-83.984375
2394		-76.171875
2395		-83.984375
2396		-78.125000
2397		-85.937500
2398		-78.125000
2399		-85.937500
2400		-80.078125
2401		-83.984375
2402		-82.031250
2403		-83.984375
2404		-82.031250
2405		-85.937500
2406		-80.078125
2407		-85.937500
2408		-80.078125
2409		-87.890625
2410		-78.125000
2411		-85.937500
2412		-78.125000
2413		-83.984375
2414		-76.171875
2415		-83.984375
2416		-76.171875
2417		-82.031250
2418		-76.171875
2419		-78.125000
2420		-74.218750
2421		-78.125000
2422		-70.312500
2423		-76.171875
2424		-68.359375
2425		-74.218750
2426		-66.406250
2427		-72.265625
2428		-62.500000
2429		-68.359375
2430		-60.546875
2431		-66.406250
2432		-58.593750
2433		-62.500000
2434		-56.640625
2435		-58.593750
2436		-54.687500
2437		-54.687500
2438		-50.781250
2439		-52.734375
2440		-44.921875
2441		-50.781250
2442		-41.015625
2443		-46.875000
2444		-37.109375
2445		-42.968750
2446		-33.203125
2447		-39.062500
2448		-29.296875
2449		-35.156250
2450		-25.390625
2451		-29.296875
2452		-23.437500
2453		-25.390625
2454		-19.531250
2455		-21.484375
2456		-13.671875
2457		-17.578125
2458		-9.765625
2459		-13.671875
2460		-5.859375
2461		-7.812500
2462		-1.953125
2463		-3.906250
2464		1.953125
2465		0.000000
2466		5.859375
2467		3.906250
2468		9.765625
2469		9.765625
2470		15.625000
2471		13.671875
2472		19.531250
2473		15.625000
2474		25.390625
2475		19.531250
2476		29.296875
2477		25.390625
2478		31.250000
2479		29.296875
2480		37.109375
2481		31.250000
2482		39.062500
2483		37.109375
2484		42.968750
2485		41.015625
2486		46.875000
2487		44.921875
2488		50.781250
2489		46.875000
2490		54.687500
2491		48.828125
2492		58.593750
2493		52.734375
2494		60.546875
2495		58.593750
2496		64.453125
2497		60.546875
2498		66.406250
2499		64.453125
2500		68.359375
2501		66.406250
2502		70.312500
2503		70.312500
2504		74.218750
2505		72.265625
2506		78.125000
2507		74.218750
2508		78.125000
2509		76.171875
2510		80.078125
2511		78.125000
2512		82.031250
2513		80.078125
2514		83.984375
2515		82.031250
2516		85.937500
2517		82.031250
2518		85.937500
2519		83.984375
2520		85.937500
2521		85.937500
2522		87.890625
2523		83.984375
2524		89.843750
2525		85.937500
2526		89.843750
2527		85.937500
2528		89.843750
2529		87.890625
2530		89.843750
2531		85.937500
2532		89.843750
2533		85.937500
2534		89.843750
2535		85.937500
2536		89.843750
2537		85.937500
2538		87.890625
2539		85.937500
2540		89.843750
2541		83.984375
2542		87.890625
2543		83.984375
2544		85.937500
2545		82.031250
2546		85.937500
2547		80.078125
2548		83.984375
2549		78.125000
2550		82.031250
2551		76.171875
2552		82.031250
2553		74.218750
2554		78.125000
2555		72.265625
2556		76.171875
2557		70.312500
2558		74.218750
2559		68.359375
2560		72.265625
2561		64.453125
2562		70.312500
2563		62.500000
2564		66.406250
2565		58.593750
2566		64.453125
2567		54.687500
2568		60.546875
2569		52.734375
2570		56.640625
2571		48.828125
2572		54.687500
2573		44.921875
2574		50.781250
2575		41.015625
2576		46.875000
2577		39.062500
2578		42.968750
2579		35.156250
2580		39.062500
2581		29.296875
2582		37.109375
2583		27.343750
2584		31.250000
2585		21.484375
2586		29.296875
2587		17.578125
2588		23.437500
2589		13.671875
2590		19.531250
2591		9.765625
2592		15.625000
2593		5.859375
2594		11.718750
2595		0.000000
2596		7.812500
2597		-3.906250
2598		3.906250
2599		-7.812500
2600		-1.953125
2601		-11.718750
2602		-5.859375
2603		-15.625000
2604		-9.765625
2605		-19.531250
2606		-13.671875
2607		-25.390625
2608		-19.531250
2609		-29.296875
2610		-23.437500
2611		-33.203125
2612		-27.343750
2613		-37.109375
2614		-31.250000
2615		-41.015625
2616		-35.156250
2617		-44.921875
2618		-39.062500
2619		-48.828125
2620		-41.015625
2621		-52.734375
2622		-46.875000
2623		-54.687500
2624		-50.781250
2625		-58.593750
2626		-52.734375
2627		-60.546875
2628		-56.640625
2629		-64.453125
2630		-60.546875
2631		-66.406250
2632		-62.500000
2633		-70.312500
2634		-64.453125
2635		-72.265625
2636		-68.359375
2637		-74.218750
2638		-70.312500
2639		-76.171875
2640		-72.265625
2641		-78.125000
2642		-74.218750
2643		-80.078125
2644		-76.171875
2645		-82.031250
2646		-78.125000
2647		-82.031250
2648		-80.078125
2649		-83.984375
2650		-80.078125
2651		-85.937500
2652		-82.031250
2653		-83.984375
2654		-82.031250
2655		-83.984375
2656		-82.031250
2657		-85.937500
2658		-82.031250
2659		-85.937500
2660		-82.031250
2661		-83.984375
2662		-82.031250
2663		-83.984375
2664		-82.031250
2665		-83.984375
2666		-80.078125
2667		-82.031250
2668		-80.078125
2669		-82.031250
2670		-78.125000
2671		-80.078125
2672		-76.171875
2673		-78.125000
2674		-74.218750
2675		-76.171875
2676		-72.265625
2677		-74.218750
2678		-70.312500
2679		-72.265625
2680		-68.359375
2681		-70.312500
2682		-64.453125
2683		-66.406250
2684		-62.500000
2685		-64.453125
2686		-58.593750
2687		-60.546875
2688		-56.640625
2689		-58.593750
2690		-52.734375
2691		-56.640625
2692		-48.828125
2693		-50.781250
2694		-44.921875
2695		-46.875000
2696		-42.968750
2697		-42.968750
2698		-39.062500
2699		-41.015625
2700		-35.156250
2701		-37.109375
2702		-31.250000
2703		-33.203125
2704		-27.343750
2705		-27.343750
2706		-23.437500
2707		-23.437500
2708		-19.531250
2709		-19.531250
2710		-13.671875
2711		-15.625000
2712		-9.765625
2713		-11.718750
2714		-5.859375
2715		-7.812500
2716		-1.953125
2717		-3.906250
2718		3.906250
2719		1.953125
2720		7.812500
2721		5.859375
2722		11.718750
2723		9.765625
2724		17.578125
2725		13.671875
2726		21.484375
2727		17.578125
2728		23.437500
2729		21.484375
2730		27.343750
2731		25.390625
2732		31.250000
2733		31.250000
2734		37.109375
2735		35.156250
2736		41.015625
2737		39.062500
2738		42.968750
2739		42.968750
2740		46.875000
2741		44.921875
2742		50.781250
2743		48.828125
2744		54.687500
2745		52.734375
2746		58.593750
2747		56.640625
2748		60.546875
2749		58.593750
2750		62.500000
2751		62.500000
2752		66.406250
2753		64.453125
2754		68.359375
2755		66.406250
2756		72.265625
2757		70.312500
2758		74.218750
2759		72.265625
2760		76.171875
2761		74.218750
2762		78.125000
2763		76.171875
2764		80.078125
2765		78.125000
2766		82.031250
2767		80.078125
2768		83.984375
2769		80.078125
2770		85.937500
2771		82.031250
2772		85.937500
2773		83.984375
2774		85.937500
2775		83.984375
2776		87.890625
2777		85.937500
2778		87.890625
2779		85.937500
2780		89.843750
2781		85.937500
2782		89.843750
2783		85.937500
2784		89.843750
2785		87.890625
2786		89.843750
2787		85.937500
2788		89.843750
2789		85.937500
2790		89.843750
2791		85.937500
2792		87.890625
2793		83.984375
2794		87.890625
2795		83.984375
2796		87.890625
2797		82.031250
2798		85.937500
2799		82.031250
2800		83.984375
2801		78.125000
2802		83.984375
2803		78.125000
2804		82.031250
2805		76.171875
2806		80.078125
2807		72.265625
2808		78.125000
2809		72.265625
2810		76.171875
2811		68.359375
2812		74.218750
2813		66.406250
2814		70.312500
2815		64.453125
2816		68.359375
2817		60.546875
2818		66.406250
2819		56.640625
2820		62.500000
2821		54.687500
2822		58.593750
2823		50.781250
2824		56.640625
2825		48.828125
2826		52.734375
2827		44.921875
2828		50.781250
2829		41.015625
2830		46.875000
2831		37.109375
2832		42.968750
2833		33.203125
2834		39.062500
2835		29.296875
2836		35.156250
2837		25.390625
2838		31.250000
2839		21.484375
2840		27.343750
2841		15.625000
2842		23.437500
2843		11.718750
2844		19.531250
2845		7.812500
2846		13.671875
2847		3.906250
2848		9.765625
2849		0.000000
2850		5.859375
2851		-5.859375
2852		1.953125
2853		-9.765625
2854		-3.906250
2855		-13.671875
2856		-7.812500
2857		-17.578125
2858		-11.718750
2859		-21.484375
2860		-15.625000
2861		-25.390625
2862		-19.531250
2863		-29.296875
2864		-23.437500
2865		-35.156250
2866		-29.296875
2867		-37.109375
2868		-33.203125
2869		-42.968750
2870		-37.109375
2871		-44.921875
2872		-41.015625
2873		-48.828125
2874		-44.921875
2875		-52.734375
2876		-46.875000
2877		-56.640625
2878		-50.781250
2879		-60.546875
2880		-54.687500
2881		-62.500000
2882		-56.640625
2883		-64.453125
2884		-60.546875
2885		-68.359375
2886		-64.453125
2887		-70.312500
2888		-66.406250
2889		-72.265625
2890		-68.359375
2891		-74.218750
2892		-70.312500
2893		-76.171875
2894		-72.265625
2895		-78.125000
2896		-74.218750
2897		-80.078125
2898		-76.171875
2899		-82.031250
2900		-78.125000
2901		-82.031250
2902		-80.078125
2903		-83.984375
2904		-80.078125
2905		-83.984375
2906		-82.031250
2907		-83.984375
2908		-82.031250
2909		-85.937500
2910		-82.031250
2911		-85.937500
2912		-82.031250
2913		-83.984375
2914		-82.031250
2915		-83.984375
2916		-82.031250
2917		-83.984375
2918		-80.078125
2919		-83.984375
2920		-80.078125
2921		-83.984375
2922		-78.125000
2923		-80.078125
2924		-78.125000
2925		-80.078125
2926		-76.171875
2927		-78.125000
2928		-74.218750
2929		-76.171875
2930		-72.265625
2931		-74.218750
2932		-70.312500
2933		-72.265625
2934		-66.406250
2935		-68.359375
2936		-64.453125
2937		-66.406250
2938		-60.546875
2939		-62.500000
2940		-58.593750
2941		-60.546875
2942		-56.640625
2943		-58.593750
2944		-52.734375
2945		-54.687500
2946		-48.828125
2947		-50.781250
2948		-44.921875
2949		-46.875000
2950		-41.015625
2951		-42.968750
2952		-37.109375
2953		-39.062500
2954		-33.203125
2955		-35.156250
2956		-29.296875
2957		-31.250000
2958		-25.390625
2959		-27.343750
2960		-21.484375
2961		-23.437500
2962		-17.578125
2963		-19.531250
2964		-13.671875
2965		-13.671875
2966		-7.812500
2967		-9.765625
2968		-3.906250
2969		-5.859375
2970		0.000000
2971		-1.953125
2972		3.906250
2973		1.953125
2974		7.812500
2975		7.812500
2976		13.671875
2977		9.765625
2978		17.578125
2979		15.625000
2980		21.484375
2981		19.531250
2982		25.390625
2983		23.437500
2984		29.296875
2985		27.343750
2986		35.156250
2987		31.250000
2988		37.109375
2989		35.156250
2990		41.015625
2991		39.062500
2992		44.921875
2993		42.968750
2994		48.828125
2995		46.875000
2996		52.734375
2997		50.781250
2998		54.687500
2999		52.734375
3000		58.593750
3001		56.640625
3002		62.500000
3003		60.546875
3004		64.453125
3005		62.500000
3006		66.406250
3007		66.406250
3008		70.312500
3009		68.359375
3010		72.265625
3011		70.312500
3012		74.218750
3013		72.265625
3014		76.171875
3015		74.218750
3016		78.125000
3017		76.171875
3018		82.031250
3019		78.125000
3020		82.031250
3021		80.078125
3022		83.984375
3023		82.031250
3024		85.937500
3025		83.984375
3026		85.937500
3027		83.984375
3028		87.890625
3029		85.937500
3030		87.890625
3031		85.937500
3032		89.843750
3033		85.937500
3034		89.843750
3035		85.937500
3036		89.843750
3037		85.937500
3038		89.843750
3039		85.937500
3040		89.843750
3041		85.937500
3042		89.843750
3043		85.937500
3044		89.843750
3045		85.937500
3046		87.890625
3047		83.984375
3048		87.890625
3049		83.984375
3050		85.937500
3051		82.031250
3052		85.937500
3053		80.078125
3054		83.984375
3055		78.125000
3056		82.031250
3057		78.125000
3058		80.078125
3059		76.171875
3060		78.125000
3061		72.265625
3062		78.125000
3063		70.312500
3064		76.171875
3065		68.359375
3066		72.265625
3067		64.453125
3068		70.312500
3069		62.500000
3070		66.406250
3071		60.546875
3072		64.453125
3073		56.640625
3074		62.500000
3075		52.734375
3076		58.593750
3077		48.828125
3078		54.687500
3079		46.875000
3080		52.734375
3081		42.968750
3082		48.828125
3083		39.062500
3084		44.921875
3085		35.156250
3086		41.015625
3087		31.250000
3088		37.109375
3089		27.343750
3090		33.203125
3091		23.437500
3092		29.296875
3093		17.578125
3094		25.390625
3095		15.625000
3096		21.484375
3097		11.718750
3098		17.578125
3099		5.859375
3100		11.718750
3101		1.953125
3102		7.812500
3103		-1.953125
3104		3.906250
3105		-5.859375
3106		0.000000
3107		-9.765625
3108		-3.906250
3109		-15.625000
3110		-9.765625
3111		-19.531250
3112		-13.671875
3113		-23.437500
3114		-17.578125
3115		-27.343750
3116		-21.484375
3117		-31.250000
3118		-25.390625
3119		-35.156250
3120		-29.296875
3121		-41.015625
3122		-33.203125
3123		-42.968750
3124		-37.109375
3125		-46.875000
3126		-41.015625
3127		-50.781250
3128		-44.921875
3129		-54.687500
3130		-48.828125
3131		-58.593750
3132		-52.734375
3133		-60.546875
3134		-56.640625
3135		-64.453125
3136		-58.593750
3137		-66.406250
3138		-62.500000
3139		-70.312500
3140		-64.453125
3141		-72.265625
3142		-68.359375
3143		-74.218750
3144		-70.312500
3145		-76.171875
3146		-72.265625
3147		-78.125000
3148		-74.218750
3149		-80.078125
3150		-76.171875
3151		-82.031250
3152		-78.125000
3153		-82.031250
3154		-80.078125
3155		-83.984375
3156		-80.078125
3157		-83.984375
3158		-80.078125
3159		-83.984375
3160		-82.031250
3161		-85.937500
3162		-82.031250
3163		-85.937500
3164		-82.031250
3165		-85.937500
3166		-82.031250
3167		-85.937500
3168		-82.031250
3169		-85.937500
3170		-82.031250
3171		-83.984375
3172		-80.078125
3173		-83.984375
3174		-80.078125
3175		-82.031250
3176		-78.125000
3177		-80.078125
3178		-76.171875
3179		-80.078125
3180		-76.171875
3181		-78.125000
3182		-74.218750
3183		-76.171875
3184		-72.265625
3185		-72.265625
3186		-68.359375
3187		-70.312500
3188		-66.406250
3189		-68.359375
3190		-64.453125
3191		-66.406250
3192		-60.546875
3193		-62.500000
3194		-56.640625
3195		-60.546875
3196		-54.687500
3197		-56.640625
3198		-50.781250
3199		-52.734375
3200		-46.875000
3201		-48.828125
3202		-42.968750
3203		-44.921875
3204		-39.062500
3205		-42.968750
3206		-37.109375
3207		-39.062500
3208		-33.203125
3209		-33.203125
3210		-29.296875
3211		-29.296875
3212		-23.437500
3213		-25.390625
3214		-21.484375
3215		-21.484375
3216		-15.625000
3217		-17.578125
3218		-11.718750
3219		-13.671875
3220		-7.812500
3221		-9.765625
3222		-3.906250
3223		-5.859375
3224		0.000000
3225		0.000000
3226		3.906250
3227		3.906250
3228		9.765625
3229		7.812500
3230		13.671875
3231		11.718750
3232		17.578125
3233		15.625000
3234		21.484375
3235		21.484375
3236		27.343750
3237		25.390625
3238		29.296875
3239		29.296875
3240		35.156250
3241		33.203125
3242		37.109375
3243		37.109375
3244		41.015625
3245		41.015625
3246		46.875000
3247		42.968750
3248		50.781250
3249		46.875000
3250		52.734375
3251		50.781250
3252		56.640625
3253		52.734375
3254		58.593750
3255		56.640625
3256		62.500000
3257		60.546875
3258		64.453125
3259		62.500000
3260		68.359375
3261		66.406250
3262		70.312500
3263		68.359375
3264		74.218750
3265		72.265625
3266		76.171875
3267		72.265625
3268		78.125000
3269		76.171875
3270		80.078125
3271		76.171875
3272		82.031250
3273		80.078125
3274		83.984375
3275		80.078125
3276		83.984375
3277		82.031250
3278		85.937500
3279		82.031250
3280		87.890625
3281		83.984375
3282		87.890625
3283		85.937500
3284		87.890625
3285		85.937500
3286		87.890625
3287		85.937500
3288		89.843750
3289		85.937500
3290		89.843750
3291		85.937500
3292		89.843750
3293		85.937500
3294		89.843750
3295		85.937500
3296		89.843750
3297		85.937500
3298		87.890625
3299		83.984375
3300		87.890625
3301		83.984375
3302		87.890625
3303		82.031250
3304		85.937500
3305		82.031250
3306		85.937500
3307		80.078125
3308		83.984375
3309		78.125000
3310		82.031250
3311		76.171875
3312		80.078125
3313		74.218750
3314		80.078125
3315		72.265625
3316		76.171875
3317		70.312500
3318		74.218750
3319		68.359375
3320		72.265625
3321		64.453125
3322		68.359375
3323		62.500000
3324		66.406250
3325		58.593750
3326		64.453125
3327		56.640625
3328		60.546875
3329		52.734375
3330		56.640625
3331		48.828125
3332		54.687500
3333		46.875000
3334		50.781250
3335		41.015625
3336		46.875000
3337		39.062500
3338		44.921875
3339		35.156250
3340		41.015625
3341		31.250000
3342		35.156250
3343		27.343750
3344		31.250000
3345		21.484375
3346		27.343750
3347		17.578125
3348		23.437500
3349		13.671875
3350		19.531250
3351		9.765625
3352		15.625000
3353		5.859375
3354		11.718750
3355		1.953125
3356		7.812500
3357		-3.906250
3358		1.953125
3359		-7.812500
3360		-1.953125
3361		-11.718750
3362		-5.859375
3363		-15.625000
3364		-9.765625
3365		-19.531250
3366		-13.671875
3367		-25.390625
3368		-19.531250
3369		-29.296875
3370		-23.437500
3371		-33.203125
3372		-27.343750
3373		-37.109375
3374		-31.250000
3375		-41.015625
3376		-35.156250
3377		-44.921875
3378		-39.062500
3379		-48.828125
3380		-42.968750
3381		-50.781250
3382		-44.921875
3383		-54.687500
3384		-50.781250
3385		-58.593750
3386		-52.734375
3387		-62.500000
3388		-56.640625
3389		-64.453125
3390		-60.546875
3391		-68.359375
3392		-62.500000
3393		-70.312500
3394		-66.406250
3395		-72.265625
3396		-68.359375
3397		-74.218750
3398		-70.312500
3399		-78.125000
3400		-72.265625
3401		-78.125000
3402		-74.218750
3403		-80.078125
3404		-76.171875
3405		-82.031250
3406		-78.125000
3407		-83.984375
3408		-80.078125
3409		-83.984375
3410		-80.078125
3411		-83.984375
3412		-82.031250
3413		-83.984375
3414		-82.031250
3415		-85.937500
3416		-82.031250
3417		-85.937500
3418		-82.031250
3419		-85.937500
3420		-82.031250
3421		-85.937500
3422		-82.031250
3423		-83.984375
3424		-82.031250
3425		-83.984375
3426		-80.078125
3427		-82.031250
3428		-80.078125
3429		-82.031250
3430		-78.125000
3431		-80.078125
3432		-76.171875
3433		-78.125000
3434		-74.218750
3435		-76.171875
3436		-72.265625
3437		-74.218750
3438		-70.312500
3439		-72.265625
3440		-68.359375
3441		-70.312500
3442		-64.453125
3443		-68.359375
3444		-62.500000
3445		-64.453125
3446		-60.546875
3447		-62.500000
3448		-56.640625
3449		-58.593750
3450		-52.734375
3451		-54.687500
3452		-48.828125
3453		-52.734375
3454		-46.875000
3455		-48.828125
3456		-42.968750
3457		-44.921875
3458		-39.062500
3459		-41.015625
3460		-35.156250
3461		-37.109375
3462		-31.250000
3463		-33.203125
3464		-27.343750
3465		-29.296875
3466		-23.437500
3467		-25.390625
3468		-19.531250
3469		-21.484375
3470		-15.625000
3471		-15.625000
3472		-9.765625
3473		-11.718750
3474		-5.859375
3475		-7.812500
3476		-1.953125
3477		-3.906250
3478		1.953125
3479		0.000000
3480		5.859375
3481		5.859375
3482		11.718750
3483		9.765625
3484		15.625000
3485		13.671875
3486		19.531250
3487		17.578125
3488		23.437500
3489		21.484375
3490		27.343750
3491		25.390625
3492		31.250000
3493		29.296875
3494		35.156250
3495		33.203125
3496		39.062500
3497		37.109375
3498		42.968750
3499		41.015625
3500		46.875000
3501		44.921875
3502		50.781250
3503		48.828125
3504		54.687500
3505		52.734375
3506		56.640625
3507		54.687500
3508		60.546875
3509		58.593750
3510		62.500000
3511		62.500000
3512		66.406250
3513		64.453125
3514		68.359375
3515		66.406250
3516		72.265625
3517		70.312500
3518		74.218750
3519		72.265625
3520		76.171875
3521		74.218750
3522		78.125000
3523		76.171875
3524		80.078125
3525		78.125000
3526		82.031250
3527		80.078125
3528		83.984375
3529		82.031250
3530		83.984375
3531		82.031250
3532		85.937500
3533		83.984375
3534		87.890625
3535		83.984375
3536		87.890625
3537		85.937500
3538		89.843750
3539		85.937500
3540		89.843750
3541		85.937500
3542		89.843750
3543		85.937500
3544		89.843750
3545		87.890625
3546		89.843750
3547		85.937500
3548		89.843750
3549		85.937500
3550		89.843750
3551		85.937500
3552		87.890625
3553		85.937500
3554		87.890625
3555		83.984375
3556		87.890625
3557		82.031250
3558		85.937500
3559		80.078125
3560		85.937500
3561		80.078125
3562		83.984375
3563		78.125000
3564		82.031250
3565		76.171875
3566		80.078125
3567		74.218750
3568		78.125000
3569		72.265625
3570		76.171875
3571		68.359375
3572		74.218750
3573		66.406250
3574		72.265625
3575		64.453125
3576		68.359375
3577		60.546875
3578		66.406250
3579		58.593750
3580		62.500000
3581		54.687500
3582		60.546875
3583		52.734375
3584		56.640625
3585		48.828125
3586		54.687500
3587		44.921875
3588		50.781250
3589		41.015625
3590		46.875000
3591		37.109375
3592		42.968750
3593		33.203125
3594		39.062500
3595		29.296875
3596		35.156250
3597		25.390625
3598		31.250000
3599		21.484375
3600		27.343750
3601		17.578125
3602		23.437500
3603		13.671875
3604		19.531250
3605		7.812500
3606		13.671875
3607		3.906250
3608		9.765625
3609		0.000000
3610		5.859375
3611		-3.906250
3612		1.953125
3613		-9.765625
3614		-1.953125
3615		-13.671875
3616		-7.812500
3617		-17.578125
3618		-11.718750
3619		-21.484375
3620		-15.625000
3621		-25.390625
3622		-19.531250
3623		-29.296875
3624		-23.437500
3625		-33.203125
3626		-27.343750
3627		-37.109375
3628		-31.250000
3629		-42.968750
3630		-37.109375
3631		-46.875000
3632		-39.062500
3633		-48.828125
3634		-42.968750
3635		-52.734375
3636		-46.875000
3637		-56.640625
3638		-50.781250
3639		-58.593750
3640		-54.687500
3641		-62.500000
3642		-56.640625
3643		-66.406250
3644		-60.546875
3645		-68.359375
3646		-64.453125
3647		-70.312500
3648		-66.406250
3649		-72.265625
3650		-68.359375
3651		-74.218750
3652		-70.312500
3653		-78.125000
3654		-72.265625
3655		-78.125000
3656		-76.171875
3657		-80.078125
3658		-76.171875
3659		-82.031250
3660		-78.125000
3661		-83.984375
3662		-78.125000
3663		-83.984375
3664		-82.031250
3665		-85.937500
3666		-82.031250
3667		-85.937500
3668		-82.031250
3669		-85.937500
3670		-82.031250
3671		-85.937500
3672		-82.031250
3673		-85.937500
3674		-82.031250
3675		-85.937500
3676		-82.031250
3677		-85.937500
3678		-80.078125
3679		-83.984375
3680		-80.078125
3681		-82.031250
3682		-80.078125
3683		-82.031250
3684		-78.125000
3685		-80.078125
3686		-76.171875
3687		-78.125000
3688		-74.218750
3689		-76.171875
3690		-70.312500
3691		-74.218750
3692		-70.312500
3693		-72.265625
3694		-66.406250
3695		-70.312500
3696		-64.453125
3697		-66.406250
3698		-62.500000
3699		-64.453125
3700		-58.593750
3701		-60.546875
3702		-54.687500
3703		-58.593750
3704		-52.734375
3705		-54.687500
3706		-48.828125
3707		-50.781250
3708		-44.921875
3709		-46.875000
3710		-42.968750
3711		-42.968750
3712		-39.062500
3713		-39.062500
3714		-35.156250
3715		-35.156250
3716		-29.296875
3717		-33.203125
3718		-25.390625
3719		-27.343750
3720		-21.484375
3721		-23.437500
3722		-17.578125
3723		-19.531250
3724		-13.671875
3725		-15.625000
3726		-9.765625
3727		-11.718750
3728		-5.859375
3729		-7.812500
3730		0.000000
3731		-1.953125
3732		3.906250
3733		1.953125
3734		7.812500
3735		5.859375
3736		11.718750
3737		9.765625
3738		17.578125
3739		15.625000
3740		21.484375
3741		19.531250
3742		25.390625
3743		23.437500
3744		29.296875
3745		25.390625
3746		33.203125
3747		31.250000
3748		37.109375
3749		35.156250
3750		41.015625
3751		39.062500
3752		44.921875
3753		42.968750
3754		48.828125
3755		46.875000
3756		50.781250
3757		48.828125
3758		54.687500
3759		52.734375
3760		58.593750
3761		56.640625
3762		60.546875
3763		60.546875
3764		64.453125
3765		62.500000
3766		66.406250
3767		64.453125
3768		70.312500
3769		68.359375
3770		72.265625
3771		70.312500
3772		74.218750
3773		72.265625
3774		76.171875
3775		74.218750
3776		80.078125
3777		76.171875
3778		80.078125
3779		78.125000
3780		82.031250
3781		80.078125
3782		83.984375
3783		82.031250
3784		85.937500
3785		83.984375
3786		85.937500
3787		83.984375
3788		87.890625
3789		83.984375
3790		89.843750
3791		85.937500
3792		89.843750
3793		85.937500
3794		89.843750
3795		85.937500
3796		91.796875
3797		87.890625
3798		89.843750
3799		85.937500
3800		89.843750
3801		85.937500
3802		89.843750
3803		85.937500
3804		89.843750
3805		85.937500
3806		89.843750
3807		83.984375
3808		87.890625
3809		83.984375
3810		87.890625
3811		82.031250
3812		85.937500
3813		82.031250
3814		83.984375
3815		80.078125
3816		83.984375
3817		78.125000
3818		82.031250
3819		76.171875
3820		80.078125
3821		74.218750
3822		78.125000
3823		72.265625
3824		76.171875
3825		68.359375
3826		74.218750
3827		66.406250
3828		70.312500
3829		64.453125
3830		68.359375
3831		60.546875
3832		64.453125
3833		56.640625
3834		62.500000
3835		54.687500
3836		58.593750
3837		50.781250
3838		56.640625
3839		48.828125
3840		52.734375
3841		44.921875
3842		48.828125
3843		41.015625
3844		46.875000
3845		37.109375
3846		42.968750
3847		33.203125
3848		39.062500
3849		29.296875
3850		35.156250
3851		25.390625
3852		31.250000
3853		21.484375
3854		25.390625
3855		17.578125
3856		21.484375
3857		11.718750
3858		17.578125
3859		7.812500
3860		13.671875
3861		3.906250
3862		9.765625
3863		0.000000
3864		5.859375
3865		-3.906250
3866		0.000000
3867		-9.765625
3868		-3.906250
3869		-13.671875
3870		-7.812500
3871		-17.578125
3872		-11.718750
3873		-21.484375
3874		-15.625000
3875		-25.390625
3876		-19.531250
3877		-31.250000
3878		-23.437500
3879		-33.203125
3880		-27.343750
3881		-37.109375
3882		-33.203125
3883		-42.968750
3884		-37.109375
3885		-46.875000
3886		-41.015625
3887		-48.828125
3888		-44.921875
3889		-52.734375
3890		-46.875000
3891		-56.640625
3892		-50.781250
3893		-60.546875
3894		-54.687500
3895		-64.453125
3896		-58.593750
3897		-66.406250
3898		-60.546875
3899		-68.359375
3900		-64.453125
3901		-70.312500
3902		-66.406250
3903		-74.218750
3904		-68.359375
3905		-76.171875
3906		-72.265625
3907		-76.171875
3908		-74.218750
3909		-80.078125
3910		-74.218750
3911		-80.078125
3912		-76.171875
3913		-82.031250
3914		-78.125000
3915		-82.031250
3916		-80.078125
3917		-83.984375
3918		-80.078125
3919		-83.984375
3920		-82.031250
3921		-85.937500
3922		-82.031250
3923		-85.937500
3924		-82.031250
3925		-85.937500
3926		-82.031250
3927		-83.984375
3928		-82.031250
3929		-83.984375
3930		-82.031250
3931		-83.984375
3932		-80.078125
3933		-83.984375
3934		-80.078125
3935		-83.984375
3936		-78.125000
3937		-80.078125
3938		-76.171875
3939		-78.125000
3940		-76.171875
3941		-78.125000
3942		-72.265625
3943		-76.171875
3944		-72.265625
3945		-74.218750
3946		-68.359375
3947		-72.265625
3948		-66.406250
3949		-68.359375
3950		-64.453125
3951		-66.406250
3952		-60.546875
3953		-62.500000
3954		-58.593750
3955		-60.546875
3956		-54.687500
3957		-56.640625
3958		-50.781250
3959		-52.734375
3960		-48.828125
3961		-50.781250
3962		-44.921875
3963		-46.875000
3964		-41.015625
3965		-42.968750
3966		-37.109375
3967		-39.062500
3968		-31.250000
3969		-35.156250
3970		-29.296875
3971		-31.250000
3972		-25.390625
3973		-25.390625
3974		-21.484375
3975		-21.484375
3976		-15.625000
3977		-17.578125
3978		-11.718750
3979		-13.671875
3980		-7.812500
3981		-9.765625
3982		-3.906250
3983		-5.859375
3984		0.000000
3985		0.000000
3986		3.906250
3987		3.906250
3988		9.765625
3989		7.812500
3990		13.671875
3991		11.718750
3992		17.578125
3993		15.625000
3994		23.437500
3995		19.531250
3996		25.390625
3997		23.437500
3998		29.296875
3999		29.296875
4000		33.203125
4001		33.203125
4002		37.109375
4003		35.156250
4004		41.015625
4005		41.015625
4006		44.921875
4007		44.921875
4008		48.828125
4009		46.875000
4010		52.734375
4011		50.781250
4012		54.687500
4013		54.687500
4014		58.593750
4015		56.640625
4016		62.500000
4017		60.546875
4018		64.453125
4019		62.500000
4020		68.359375
4021		66.406250
4022		70.312500
4023		68.359375
4024		72.265625
4025		70.312500
4026		76.171875
4027		74.218750
4028		78.125000
4029		74.218750
4030		80.078125
4031		76.171875
4032		80.078125
4033		78.125000
4034		82.031250
4035		82.031250
4036		83.984375
4037		82.031250
4038		85.937500
4039		83.984375
4040		87.890625
4041		83.984375
4042		87.890625
4043		85.937500
4044		87.890625
4045		85.937500
4046		89.843750
4047		85.937500
4048		89.843750
4049		87.890625
4050		89.843750
4051		85.937500
4052		89.843750
4053		85.937500
4054		89.843750
4055		85.937500
4056		89.843750
4057		85.937500
4058		89.843750
4059		85.937500
4060		87.890625
4061		83.984375
4062		87.890625
4063		83.984375
4064		85.937500
4065		82.031250
4066		85.937500
4067		80.078125
4068		83.984375
4069		78.125000
4070		82.031250
4071		76.171875
4072		82.031250
4073		74.218750
4074		80.078125
4075		72.265625
4076		76.171875
4077		70.312500
4078		74.218750
4079		68.359375
4080		72.265625
4081		66.406250
4082		70.312500
4083		62.500000
4084		66.406250
4085		58.593750
4086		64.453125
4087		56.640625
4088		62.500000
4089		52.734375
4090		58.593750
4091		50.781250
4092		54.687500
4093		46.875000
4094		52.734375
4095		42.968750
4096		48.828125
4097		39.062500
4098		44.921875
4099		35.156250
4100		41.015625
4101		31.250000
4102		37.109375
4103		27.343750
4104		33.203125
4105		23.437500
4106		29.296875
4107		19.531250
4108		25.390625
4109		13.671875
4110		21.484375
4111		11.718750
4112		15.625000
4113		5.859375
4114		13.671875
4115		1.953125
4116		9.765625
4117		-1.953125
4118		3.906250
4119		-5.859375
4120		0.000000
4121		-9.765625
4122		-5.859375
4123		-15.625000
4124		-7.812500
4125		-19.531250
4126		-13.671875
4127		-23.437500
4128		-17.578125
4129		-27.343750
4130		-21.484375
4131		-31.250000
4132		-25.390625
4133		-35.156250
4134		-29.296875
4135		-39.062500
4136		-33.203125
4137		-42.968750
4138		-37.109375
4139		-46.875000
4140		-41.015625
4141		-50.781250
4142		-44.921875
4143		-54.687500
4144		-48.828125
4145		-56.640625
4146		-52.734375
4147		-62.500000
4148		-56.640625
4149		-62.500000
4150		-58.593750
4151		-66.406250
4152		-62.500000
4153		-68.359375
4154		-64.453125
4155		-72.265625
4156		-66.406250
4157		-74.218750
4158		-68.359375
4159		-76.171875
4160		-70.312500
4161		-78.125000
4162		-74.218750
4163		-80.078125
4164		-74.218750
4165		-80.078125
4166		-76.171875
4167		-82.031250
4168		-78.125000
4169		-82.031250
4170		-80.078125
4171		-83.984375
4172		-80.078125
4173		-83.984375
4174		-80.078125
4175		-85.937500
4176		-80.078125
4177		-83.984375
4178		-82.031250
4179		-85.937500
4180		-82.031250
4181		-83.984375
4182		-80.078125
4183		-83.984375
4184		-82.031250
4185		-83.984375
4186		-80.078125
4187		-83.984375
4188		-78.125000
4189		-82.031250
4190		-78.125000
4191		-80.078125
4192		-76.171875
4193		-78.125000
4194		-74.218750
4195		-76.171875
4196		-72.265625
4197		-74.218750
4198		-70.312500
4199		-72.265625
4200		-68.359375
4201		-70.312500
4202		-66.406250
4203		-68.359375
4204		-62.500000
4205		-64.453125
4206		-60.546875
4207		-62.500000
4208		-56.640625
4209		-58.593750
4210		-54.687500
4211		-56.640625
4212		-50.781250
4213		-52.734375
4214		-46.875000
4215		-48.828125
4216		-42.968750
4217		-44.921875
4218		-39.062500
4219		-41.015625
4220		-35.156250
4221		-39.062500
4222		-31.250000
4223		-33.203125
4224		-27.343750
4225		-29.296875
4226		-23.437500
4227		-25.390625
4228		-19.531250
4229		-21.484375
4230		-13.671875
4231		-17.578125
4232		-9.765625
4233		-13.671875
4234		-5.859375
4235		-7.812500
4236		-1.953125
4237		-3.906250
4238		1.953125
4239		0.000000
4240		5.859375
4241		3.906250
4242		11.718750
4243		9.765625
4244		15.625000
4245		13.671875
4246		19.531250
4247		17.578125
4248		23.437500
4249		21.484375
4250		27.343750
4251		25.390625
4252		31.250000
4253		29.296875
4254		35.156250
4255		33.203125
4256		41.015625
4257		37.109375
4258		42.968750
4259		41.015625
4260		46.875000
4261		44.921875
4262		50.781250
4263		48.828125
4264		52.734375
4265		52.734375
4266		56.640625
4267		54.687500
4268		60.546875
4269		58.593750
4270		62.500000
4271		60.546875
4272		66.406250
4273		64.453125
4274		68.359375
4275		66.406250
4276		72.265625
4277		70.312500
4278		74.218750
4279		72.265625
4280		76.171875
4281		74.218750
4282		78.125000
4283		76.171875
4284		80.078125
4285		78.125000
4286		82.031250
4287		80.078125
4288		83.984375
4289		82.031250
4290		83.984375
4291		82.031250
4292		87.890625
4293		83.984375
4294		87.890625
4295		83.984375
4296		87.890625
4297		85.937500
4298		89.843750
4299		85.937500
4300		89.843750
4301		87.890625
4302		89.843750
4303		87.890625
4304		89.843750
4305		85.937500
4306		91.796875
4307		85.937500
4308		89.843750
4309		85.937500
4310		89.843750
4311		85.937500
4312		89.843750
4313		85.937500
4314		87.890625
4315		83.984375
4316		87.890625
4317		83.984375
4318		87.890625
4319		82.031250
4320		85.937500
4321		80.078125
4322		83.984375
4323		78.125000
4324		82.031250
4325		78.125000
4326		80.078125
4327		74.218750
4328		80.078125
4329		72.265625
4330		76.171875
4331		70.312500
4332		76.171875
4333		68.359375
4334		72.265625
4335		64.453125
4336		68.359375
4337		60.546875
4338		66.406250
4339		58.593750
4340		64.453125
4341		56.640625
4342		60.546875
4343		52.734375
4344		58.593750
4345		48.828125
4346		54.687500
4347		46.875000
4348		50.781250
4349		42.968750
4350		48.828125
4351		39.062500
4352		44.921875
4353		35.156250
4354		39.062500
4355		29.296875
4356		37.109375
4357		27.343750
4358		33.203125
4359		23.437500
4360		29.296875
4361		17.578125
4362		25.390625
4363		13.671875
4364		19.531250
4365		9.765625
4366		15.625000
4367		5.859375
4368		13.671875
4369		1.953125
4370		7.812500
4371		-3.906250
4372		1.953125
4373		-7.812500
4374		-1.953125
4375		-11.718750
4376		-5.859375
4377		-15.625000
4378		-9.765625
4379		-19.531250
4380		-13.671875
4381		-25.390625
4382		-17.578125
4383		-27.343750
4384		-21.484375
4385		-33.203125
4386		-27.343750
4387		-37.109375
4388		-31.250000
4389		-41.015625
4390		-35.156250
4391		-44.921875
4392		-37.109375
4393		-48.828125
4394		-41.015625
4395		-52.734375
4396		-44.921875
4397		-56.640625
4398		-48.828125
4399		-58.593750
4400		-50.781250
4401		-60.546875
4402		-54.687500
4403		-64.453125
4404		-58.593750
4405		-68.359375
4406		-62.500000
4407		-70.312500
4408		-64.453125
4409		-74.218750
4410		-66.406250
4411		-74.218750
4412		-68.359375
4413		-76.171875
4414		-70.312500
4415		-80.078125
4416		-72.265625
4417		-78.125000
4418		-74.218750
4419		-80.078125
4420		-76.171875
4421		-82.031250
4422		-78.125000
4423		-83.984375
4424		-78.125000
4425		-83.984375
4426		-80.078125
4427		-83.984375
4428		-80.078125
4429		-85.937500
4430		-80.078125
4431		-85.937500
4432		-80.078125
4433		-85.937500
4434		-80.078125
4435		-83.984375
4436		-80.078125
4437		-83.984375
4438		-80.078125
4439		-82.031250
4440		-78.125000
4441		-82.031250
4442		-78.125000
4443		-82.031250
4444		-76.171875
4445		-80.078125
4446		-74.218750
4447		-78.125000
4448		-72.265625
4449		-76.171875
4450		-70.312500
4451		-74.218750
4452		-68.359375
4453		-70.312500
4454		-66.406250
4455		-68.359375
4456		-64.453125
4457		-66.406250
4458		-62.500000
4459		-62.500000
4460		-58.593750
4461		-60.546875
4462		-54.687500
4463		-56.640625
4464		-52.734375
4465		-54.687500
4466		-48.828125
4467		-50.781250
4468		-44.921875
4469		-46.875000
4470		-41.015625
4471		-42.968750
4472		-37.109375
4473		-41.015625
4474		-33.203125
4475		-35.156250
4476		-29.296875
4477		-31.250000
4478		-25.390625
4479		-27.343750
4480		-21.484375
4481		-23.437500
4482		-17.578125
4483		-19.531250
4484		-13.671875
4485		-13.671875
4486		-9.765625
4487		-9.765625
4488		-3.906250
4489		-5.859375
4490		0.000000
4491		-1.953125
4492		3.906250
4493		1.953125
4494		7.812500
4495		7.812500
4496		11.718750
4497		11.718750
4498		17.578125
4499		15.625000
4500		21.484375
4501		19.531250
4502		25.390625
4503		23.437500
4504		29.296875
4505		27.343750
4506		33.203125
4507		31.250000
4508		37.109375
4509		35.156250
4510		41.015625
4511		39.062500
4512		44.921875
4513		42.968750
4514		48.828125
4515		46.875000
4516		52.734375
4517		50.781250
4518		54.687500
4519		54.687500
4520		58.593750
4521		56.640625
4522		60.546875
4523		60.546875
4524		64.453125
4525		62.500000
4526		68.359375
4527		66.406250
4528		70.312500
4529		68.359375
4530		72.265625
4531		70.312500
4532		76.171875
4533		72.265625
4534		78.125000
4535		76.171875
4536		80.078125
4537		78.125000
4538		80.078125
4539		80.078125
4540		82.031250
4541		82.031250
4542		83.984375
4543		82.031250
4544		85.937500
4545		83.984375
4546		87.890625
4547		83.984375
4548		87.890625
4549		85.937500
4550		87.890625
4551		85.937500
4552		89.843750
4553		87.890625
4554		89.843750
4555		87.890625
4556		89.843750
4557		85.937500
4558		93.750000
4559		85.937500
4560		93.750000
4561		83.984375
4562		93.750000
4563		87.890625
4564		89.843750
4565		85.937500
4566		89.843750
4567		85.937500
4568		87.890625
4569		83.984375
4570		87.890625
4571		83.984375
4572		85.937500
4573		80.078125
4574		87.890625
4575		78.125000
4576		87.890625
4577		76.171875
4578		85.937500
4579		76.171875
4580		80.078125
4581		74.218750
4582		78.125000
4583		72.265625
4584		76.171875
4585		70.312500
4586		74.218750
4587		68.359375
4588		72.265625
4589		62.500000
4590		68.359375
4591		58.593750
4592		70.312500
4593		56.640625
4594		66.406250
4595		54.687500
4596		64.453125
4597		52.734375
4598		56.640625
4599		48.828125
4600		54.687500
4601		44.921875
4602		50.781250
4603		41.015625
4604		46.875000
4605		39.062500
4606		42.968750
4607		31.250000
4608		41.015625
4609		27.343750
4610		37.109375
4611		23.437500
4612		35.156250
4613		21.484375
4614		27.343750
4615		17.578125
4616		23.437500
4617		13.671875
4618		19.531250
4619		9.765625
4620		15.625000
4621		5.859375
4622		11.718750
4623		-1.953125
4624		7.812500
4625		-5.859375
4626		5.859375
4627		-11.718750
4628		1.953125
4629		-11.718750
4630		-3.906250
4631		-15.625000
4632		-9.765625
4633		-19.531250
4634		-15.625000
4635		-25.390625
4636		-19.531250
4637		-29.296875
4638		-23.437500
4639		-33.203125
4640		-27.343750
4641		-39.062500
4642		-29.296875
4643		-42.968750
4644		-33.203125
4645		-46.875000
4646		-35.156250
4647		-48.828125
4648		-42.968750
4649		-50.781250
4650		-46.875000
4651		-54.687500
4652		-48.828125
4653		-58.593750
4654		-52.734375
4655		-60.546875
4656		-56.640625
4657		-68.359375
4658		-56.640625
4659		-70.312500
4660		-60.546875
4661		-74.218750
4662		-62.500000
4663		-72.265625
4664		-68.359375
4665		-74.218750
4666		-70.312500
4667		-76.171875
4668		-72.265625
4669		-78.125000
4670		-74.218750
4671		-78.125000
4672		-76.171875
4673		-80.078125
4674		-78.125000
4675		-85.937500
4676		-76.171875
4677		-85.937500
4678		-76.171875
4679		-85.937500
4680		-76.171875
4681		-83.984375
4682		-82.031250
4683		-83.984375
4684		-82.031250
4685		-83.984375
4686		-82.031250
4687		-83.984375
4688		-82.031250
4689		-83.984375
4690		-80.078125
4691		-85.937500
4692		-76.171875
4693		-85.937500
4694		-76.171875
4695		-83.984375
4696		-74.218750
4697		-80.078125
4698		-76.171875
4699		-78.125000
4700		-74.218750
4701		-76.171875
4702		-72.265625
4703		-74.218750
4704		-70.312500
4705		-72.265625
4706		-68.359375
4707		-70.312500
4708		-62.500000
4709		-72.265625
4710		-60.546875
4711		-68.359375
4712		-56.640625
4713		-66.406250
4714		-56.640625
4715		-58.593750
4716		-54.687500
4717		-56.640625
4718		-50.781250
4719		-52.734375
4720		-46.875000
4721		-48.828125
4722		-44.921875
4723		-44.921875
4724		-41.015625
4725		-44.921875
4726		-33.203125
4727		-41.015625
4728		-31.250000
4729		-37.109375
4730		-27.343750
4731		-29.296875
4732		-23.437500
4733		-25.390625
4734		-21.484375
4735		-21.484375
4736		-15.625000
4737		-17.578125
4738		-11.718750
4739		-13.671875
4740		-7.812500
4741		-9.765625
4742		-3.906250
4743		-5.859375
4744		1.953125
4745		-1.953125
4746		7.812500
4747		3.906250
4748		9.765625
4749		7.812500
4750		13.671875
4751		11.718750
4752		17.578125
4753		15.625000
4754		21.484375
4755		19.531250
4756		25.390625
4757		23.437500
4758		31.250000
4759		29.296875
4760		35.156250
4761		31.250000
4762		39.062500
4763		35.156250
4764		41.015625
4765		41.015625
4766		44.921875
4767		42.968750
4768		48.828125
4769		46.875000
4770		52.734375
4771		50.781250
4772		56.640625
4773		54.687500
4774		58.593750
4775		58.593750
4776		62.500000
4777		58.593750
4778		68.359375
4779		62.500000
4780		68.359375
4781		66.406250
4782		70.312500
4783		68.359375
4784		74.218750
4785		72.265625
4786		76.171875
4787		74.218750
4788		78.125000
4789		76.171875
4790		80.078125
4791		78.125000
4792		82.031250
4793		80.078125
4794		83.984375
4795		82.031250
4796		83.984375
4797		82.031250
4798		85.937500
4799		83.984375
4800		87.890625
4801		85.937500
4802		87.890625
4803		85.937500
4804		87.890625
4805		85.937500
4806		89.843750
4807		87.890625
4808		89.843750
4809		87.890625
4810		89.843750
4811		87.890625
4812		89.843750
4813		87.890625
4814		89.843750
4815		87.890625
4816		89.843750
4817		87.890625
4818		89.843750
4819		85.937500
4820		89.843750
4821		85.937500
4822		87.890625
4823		83.984375
4824		87.890625
4825		83.984375
4826		85.937500
4827		82.031250
4828		83.984375
4829		80.078125
4830		83.984375
4831		78.125000
4832		82.031250
4833		76.171875
4834		80.078125
4835		74.218750
4836		78.125000
4837		72.265625
4838		76.171875
4839		70.312500
4840		74.218750
4841		66.406250
4842		70.312500
4843		64.453125
4844		68.359375
4845		60.546875
4846		66.406250
4847		58.593750
4848		62.500000
4849		54.687500
4850		58.593750
4851		52.734375
4852		56.640625
4853		48.828125
4854		52.734375
4855		44.921875
4856		48.828125
4857		41.015625
4858		46.875000
4859		37.109375
4860		42.968750
4861		33.203125
4862		39.062500
4863		29.296875
4864		35.156250
4865		23.437500
4866		31.250000
4867		21.484375
4868		27.343750
4869		17.578125
4870		21.484375
4871		11.718750
4872		17.578125
4873		7.812500
4874		13.671875
4875		3.906250
4876		9.765625
4877		0.000000
4878		5.859375
4879		-3.906250
4880		0.000000
4881		-9.765625
4882		-3.906250
4883		-13.671875
4884		-7.812500
4885		-17.578125
4886		-11.718750
4887		-21.484375
4888		-15.625000
4889		-25.390625
4890		-21.484375
4891		-29.296875
4892		-25.390625
4893		-33.203125
4894		-27.343750
4895		-39.062500
4896		-31.250000
4897		-41.015625
4898		-37.109375
4899		-44.921875
4900		-41.015625
4901		-48.828125
4902		-42.968750
4903		-52.734375
4904		-46.875000
4905		-56.640625
4906		-50.781250
4907		-58.593750
4908		-54.687500
4909		-64.453125
4910		-56.640625
4911		-64.453125
4912		-60.546875
4913		-68.359375
4914		-64.453125
4915		-70.312500
4916		-66.406250
4917		-72.265625
4918		-68.359375
4919		-74.218750
4920		-70.312500
4921		-76.171875
4922		-72.265625
4923		-78.125000
4924		-74.218750
4925		-82.031250
4926		-76.171875
4927		-82.031250
4928		-78.125000
4929		-82.031250
4930		-78.125000
4931		-82.031250
4932		-80.078125
4933		-83.984375
4934		-80.078125
4935		-83.984375
4936		-80.078125
4937		-83.984375
4938		-82.031250
4939		-83.984375
4940		-82.031250
4941		-83.984375
4942		-82.031250
4943		-85.937500
4944		-80.078125
4945		-83.984375
4946		-80.078125
4947		-82.031250
4948		-78.125000
4949		-80.078125
4950		-76.171875
4951		-80.078125
4952		-76.171875
4953		-78.125000
4954		-74.218750
4955		-76.171875
4956		-72.265625
4957		-74.218750
4958		-70.312500
4959		-72.265625
4960		-66.406250
4961		-70.312500
4962		-64.453125
4963		-68.359375
4964		-62.500000
4965		-64.453125
4966		-60.546875
4967		-62.500000
4968		-56.640625
4969		-58.593750
4970		-54.687500
4971		-54.687500
4972		-50.781250
4973		-52.734375
4974		-46.875000
4975		-48.828125
4976		-42.968750
4977		-44.921875
4978		-39.062500
4979		-41.015625
4980		-35.156250
4981		-37.109375
4982		-31.250000
4983		-33.203125
4984		-27.343750
4985		-29.296875
4986		-23.437500
4987		-25.390625
4988		-19.531250
4989		-21.484375
4990		-15.625000
4991		-17.578125
4992		-11.718750
4993		-11.718750
4994		-5.859375
4995		-9.765625
4996		-1.953125
4997		-3.906250
4998		1.953125
4999		0.000000
5000		7.812500
5001		3.906250
5002		11.718750
5003		9.765625
5004		15.625000
5005		13.671875
5006		19.531250
5007		17.578125
5008		23.437500
5009		21.484375
5010		27.343750
5011		25.390625
5012		33.203125
5013		29.296875
5014		35.156250
5015		33.203125
5016		39.062500
5017		37.109375
5018		44.921875
5019		41.015625
5020		46.875000
5021		44.921875
5022		50.781250
5023		48.828125
5024		52.734375
5025		52.734375
5026		56.640625
5027		54.687500
5028		60.546875
5029		58.593750
5030		62.500000
5031		62.500000
5032		66.406250
5033		64.453125
5034		68.359375
5035		66.406250
5036		72.265625
5037		70.312500
5038		74.218750
5039		72.265625
5040		76.171875
5041		74.218750
5042		78.125000
5043		76.171875
5044		80.078125
5045		78.125000
5046		82.031250
5047		80.078125
5048		83.984375
5049		82.031250
5050		85.937500
5051		83.984375
5052		85.937500
5053		83.984375
5054		87.890625
5055		85.937500
5056		87.890625
5057		85.937500
5058		89.843750
5059		87.890625
5060		89.843750
5061		87.890625
5062		89.843750
5063		87.890625
5064		89.843750
5065		87.890625
5066		89.843750
5067		87.890625
5068		89.843750
5069		87.890625
5070		89.843750
5071		87.890625
5072		89.843750
5073		85.937500
5074		87.890625
5075		85.937500
5076		87.890625
5077		83.984375
5078		85.937500
5079		82.031250
5080		85.937500
5081		82.031250
5082		83.984375
5083		80.078125
5084		82.031250
5085		78.125000
5086		82.031250
5087		76.171875
5088		80.078125
5089		74.218750
5090		78.125000
5091		72.265625
5092		76.171875
5093		68.359375
5094		72.265625
5095		66.406250
5096		70.312500
5097		62.500000
5098		68.359375
5099		60.546875
5100		64.453125
5101		56.640625
5102		62.500000
5103		54.687500
5104		58.593750
5105		50.781250
5106		54.687500
5107		46.875000
5108		52.734375
5109		42.968750
5110		48.828125
5111		39.062500
5112		44.921875
5113		35.156250
5114		41.015625
5115		31.250000
5116		37.109375
5117		27.343750
5118		33.203125
5119		23.437500
5120		29.296875
5121		19.531250
5122		25.390625
5123		15.625000
5124		21.484375
5125		11.718750
5126		17.578125
5127		7.812500
5128		11.718750
5129		1.953125
5130		7.812500
5131		-1.953125
5132		3.906250
5133		-5.859375
5134		0.000000
5135		-9.765625
5136		-3.906250
5137		-13.671875
5138		-9.765625
5139		-19.531250
5140		-13.671875
5141		-23.437500
5142		-17.578125
5143		-27.343750
5144		-21.484375
5145		-31.250000
5146		-25.390625
5147		-35.156250
5148		-29.296875
5149		-39.062500
5150		-33.203125
5151		-42.968750
5152		-37.109375
5153		-46.875000
5154		-41.015625
5155		-50.781250
5156		-44.921875
5157		-54.687500
5158		-48.828125
5159		-56.640625
5160		-52.734375
5161		-60.546875
5162		-54.687500
5163		-62.500000
5164		-58.593750
5165		-66.406250
5166		-62.500000
5167		-68.359375
5168		-64.453125
5169		-70.312500
5170		-66.406250
5171		-72.265625
5172		-68.359375
5173		-76.171875
5174		-70.312500
5175		-76.171875
5176		-74.218750
5177		-78.125000
5178		-76.171875
5179		-82.031250
5180		-76.171875
5181		-82.031250
5182		-76.171875
5183		-82.031250
5184		-80.078125
5185		-82.031250
5186		-80.078125
5187		-83.984375
5188		-80.078125
5189		-83.984375
5190		-82.031250
5191		-83.984375
5192		-80.078125
5193		-83.984375
5194		-82.031250
5195		-85.937500
5196		-80.078125
5197		-83.984375
5198		-78.125000
5199		-82.031250
5200		-80.078125
5201		-82.031250
5202		-78.125000
5203		-80.078125
5204		-78.125000
5205		-78.125000
5206		-76.171875
5207		-78.125000
5208		-74.218750
5209		-76.171875
5210		-72.265625
5211		-74.218750
5212		-68.359375
5213		-72.265625
5214		-66.406250
5215		-70.312500
5216		-64.453125
5217		-66.406250
5218		-62.500000
5219		-62.500000
5220		-58.593750
5221		-60.546875
5222		-56.640625
5223		-56.640625
5224		-52.734375
5225		-54.687500
5226		-48.828125
5227		-50.781250
5228		-44.921875
5229		-48.828125
5230		-41.015625
5231		-44.921875
5232		-39.062500
5233		-39.062500
5234		-35.156250
5235		-35.156250
5236		-31.250000
5237		-31.250000
5238		-27.343750
5239		-27.343750
5240		-21.484375
5241		-23.437500
5242		-17.578125
5243		-19.531250
5244		-13.671875
5245		-15.625000
5246		-7.812500
5247		-13.671875
5248		-3.906250
5249		-5.859375
5250		0.000000
5251		-1.953125
5252		3.906250
5253		1.953125
5254		7.812500
5255		5.859375
5256		11.718750
5257		9.765625
5258		15.625000
5259		15.625000
5260		19.531250
5261		19.531250
5262		25.390625
5263		21.484375
5264		29.296875
5265		25.390625
5266		33.203125
5267		31.250000
5268		37.109375
5269		35.156250
5270		41.015625
5271		39.062500
5272		44.921875
5273		42.968750
5274		46.875000
5275		46.875000
5276		50.781250
5277		48.828125
5278		54.687500
5279		52.734375
5280		60.546875
5281		56.640625
5282		62.500000
5283		58.593750
5284		64.453125
5285		62.500000
5286		66.406250
5287		66.406250
5288		70.312500
5289		68.359375
5290		72.265625
5291		70.312500
5292		74.218750
5293		72.265625
5294		76.171875
5295		74.218750
5296		80.078125
5297		76.171875
5298		82.031250
5299		78.125000
5300		82.031250
5301		82.031250
5302		83.984375
5303		82.031250
5304		85.937500
5305		83.984375
5306		85.937500
5307		85.937500
5308		87.890625
5309		85.937500
5310		89.843750
5311		87.890625
5312		89.843750
5313		85.937500
5314		91.796875
5315		85.937500
5316		91.796875
5317		87.890625
5318		89.843750
5319		87.890625
5320		89.843750
5321		87.890625
5322		89.843750
5323		87.890625
5324		89.843750
5325		87.890625
5326		89.843750
5327		85.937500
5328		87.890625
5329		83.984375
5330		89.843750
5331		82.031250
5332		87.890625
5333		82.031250
5334		85.937500
5335		82.031250
5336		83.984375
5337		80.078125
5338		82.031250
5339		78.125000
5340		82.031250
5341		76.171875
5342		80.078125
5343		72.265625
5344		76.171875
5345		70.312500
5346		74.218750
5347		68.359375
5348		74.218750
5349		66.406250
5350		72.265625
5351		62.500000
5352		66.406250
5353		60.546875
5354		64.453125
5355		56.640625
5356		62.500000
5357		52.734375
5358		58.593750
5359		50.781250
5360		54.687500
5361		46.875000
5362		50.781250
5363		42.968750
5364		48.828125
5365		39.062500
5366		44.921875
5367		35.156250
5368		41.015625
5369		31.250000
5370		37.109375
5371		27.343750
5372		33.203125
5373		23.437500
5374		29.296875
5375		19.531250
5376		25.390625
5377		13.671875
5378		19.531250
5379		9.765625
5380		15.625000
5381		5.859375
5382		13.671875
5383		1.953125
5384		7.812500
5385		-1.953125
5386		3.906250
5387		-5.859375
5388		-1.953125
5389		-11.718750
5390		-5.859375
5391		-15.625000
5392		-9.765625
5393		-19.531250
5394		-13.671875
5395		-23.437500
5396		-17.578125
5397		-27.343750
5398		-21.484375
5399		-31.250000
5400		-27.343750
5401		-35.156250
5402		-29.296875
5403		-39.062500
5404		-35.156250
5405		-42.968750
5406		-39.062500
5407		-46.875000
5408		-42.968750
5409		-50.781250
5410		-44.921875
5411		-54.687500
5412		-48.828125
5413		-58.593750
5414		-52.734375
5415		-60.546875
5416		-56.640625
5417		-62.500000
5418		-58.593750
5419		-66.406250
5420		-62.500000
5421		-68.359375
5422		-64.453125
5423		-70.312500
5424		-66.406250
5425		-74.218750
5426		-70.312500
5427		-76.171875
5428		-72.265625
5429		-76.171875
5430		-74.218750
5431		-78.125000
5432		-74.218750
5433		-80.078125
5434		-76.171875
5435		-80.078125
5436		-78.125000
5437		-82.031250
5438		-78.125000
5439		-82.031250
5440		-80.078125
5441		-83.984375
5442		-80.078125
5443		-83.984375
5444		-80.078125
5445		-83.984375
5446		-80.078125
5447		-83.984375
5448		-80.078125
5449		-82.031250
5450		-80.078125
5451		-82.031250
5452		-80.078125
5453		-82.031250
5454		-78.125000
5455		-80.078125
5456		-78.125000
5457		-80.078125
5458		-76.171875
5459		-78.125000
5460		-74.218750
5461		-76.171875
5462		-72.265625
5463		-74.218750
5464		-70.312500
5465		-72.265625
5466		-68.359375
5467		-70.312500
5468		-66.406250
5469		-68.359375
5470		-64.453125
5471		-64.453125
5472		-60.546875
5473		-62.500000
5474		-58.593750
5475		-58.593750
5476		-54.687500
5477		-56.640625
5478		-50.781250
5479		-52.734375
5480		-46.875000
5481		-48.828125
5482		-44.921875
5483		-44.921875
5484		-41.015625
5485		-41.015625
5486		-37.109375
5487		-37.109375
5488		-33.203125
5489		-33.203125
5490		-27.343750
5491		-31.250000
5492		-25.390625
5493		-25.390625
5494		-19.531250
5495		-21.484375
5496		-15.625000
5497		-17.578125
5498		-11.718750
5499		-13.671875
5500		-7.812500
5501		-9.765625
5502		-3.906250
5503		-5.859375
5504		1.953125
5505		0.000000
5506		5.859375
5507		3.906250
5508		9.765625
5509		7.812500
5510		13.671875
5511		11.718750
5512		17.578125
5513		15.625000
5514		21.484375
5515		21.484375
5516		25.390625
5517		23.437500
5518		29.296875
5519		29.296875
5520		35.156250
5521		33.203125
5522		39.062500
5523		37.109375
5524		42.968750
5525		41.015625
5526		44.921875
5527		44.921875
5528		48.828125
5529		48.828125
5530		52.734375
5531		50.781250
5532		56.640625
5533		54.687500
5534		60.546875
5535		58.593750
5536		62.500000
5537		60.546875
5538		66.406250
5539		64.453125
5540		68.359375
5541		66.406250
5542		70.312500
5543		68.359375
5544		74.218750
5545		72.265625
5546		76.171875
5547		74.218750
5548		78.125000
5549		76.171875
5550		80.078125
5551		78.125000
5552		82.031250
5553		80.078125
5554		83.984375
5555		82.031250
5556		85.937500
5557		82.031250
5558		85.937500
5559		83.984375
5560		87.890625
5561		85.937500
5562		87.890625
5563		85.937500
5564		89.843750
5565		87.890625
5566		89.843750
5567		87.890625
5568		89.843750
5569		87.890625
5570		89.843750
5571		87.890625
5572		89.843750
5573		87.890625
5574		89.843750
5575		87.890625
5576		91.796875
5577		87.890625
5578		89.843750
5579		85.937500
5580		89.843750
5581		85.937500
5582		89.843750
5583		85.937500
5584		87.890625
5585		83.984375
5586		87.890625
5587		82.031250
5588		85.937500
5589		80.078125
5590		83.984375
5591		80.078125
5592		82.031250
5593		78.125000
5594		80.078125
5595		74.218750
5596		78.125000
5597		72.265625
5598		76.171875
5599		70.312500
5600		74.218750
5601		68.359375
5602		72.265625
5603		64.453125
5604		68.359375
5605		62.500000
5606		66.406250
5607		58.593750
5608		64.453125
5609		56.640625
5610		60.546875
5611		52.734375
5612		56.640625
5613		48.828125
5614		54.687500
5615		44.921875
5616		50.781250
5617		41.015625
5618		46.875000
5619		37.109375
5620		42.968750
5621		35.156250
5622		39.062500
5623		31.250000
5624		35.156250
5625		25.390625
5626		31.250000
5627		21.484375
5628		27.343750
5629		17.578125
5630		23.437500
5631		13.671875
5632		19.531250
5633		9.765625
5634		15.625000
5635		5.859375
5636		11.718750
5637		0.000000
5638		5.859375
5639		-3.906250
5640		1.953125
5641		-7.812500
5642		-1.953125
5643		-11.718750
5644		-5.859375
5645		-15.625000
5646		-11.718750
5647		-21.484375
5648		-15.625000
5649		-25.390625
5650		-19.531250
5651		-29.296875
5652		-23.437500
5653		-33.203125
5654		-27.343750
5655		-37.109375
5656		-31.250000
5657		-41.015625
5658		-35.156250
5659		-44.921875
5660		-39.062500
5661		-48.828125
5662		-42.968750
5663		-52.734375
5664		-46.875000
5665		-54.687500
5666		-50.781250
5667		-58.593750
5668		-52.734375
5669		-60.546875
5670		-56.640625
5671		-64.453125
5672		-60.546875
5673		-66.406250
5674		-62.500000
5675		-68.359375
5676		-64.453125
5677		-72.265625
5678		-68.359375
5679		-74.218750
5680		-70.312500
5681		-76.171875
5682		-72.265625
5683		-78.125000
5684		-74.218750
5685		-78.125000
5686		-76.171875
5687		-80.078125
5688		-76.171875
5689		-80.078125
5690		-78.125000
5691		-82.031250
5692		-78.125000
5693		-82.031250
5694		-80.078125
5695		-82.031250
5696		-80.078125
5697		-82.031250
5698		-80.078125
5699		-83.984375
5700		-80.078125
5701		-82.031250
5702		-80.078125
5703		-82.031250
5704		-80.078125
5705		-82.031250
5706		-78.125000
5707		-80.078125
5708		-78.125000
5709		-80.078125
5710		-76.171875
5711		-78.125000
5712		-76.171875
5713		-76.171875
5714		-74.218750
5715		-74.218750
5716		-72.265625
5717		-74.218750
5718		-70.312500
5719		-70.312500
5720		-66.406250
5721		-68.359375
5722		-64.453125
5723		-66.406250
5724		-62.500000
5725		-62.500000
5726		-58.593750
5727		-60.546875
5728		-54.687500
5729		-56.640625
5730		-52.734375
5731		-54.687500
5732		-48.828125
5733		-50.781250
5734		-46.875000
5735		-46.875000
5736		-42.968750
5737		-44.921875
5738		-39.062500
5739		-41.015625
5740		-35.156250
5741		-37.109375
5742		-31.250000
5743		-33.203125
5744		-27.343750
5745		-29.296875
5746		-23.437500
5747		-23.437500
5748		-19.531250
5749		-19.531250
5750		-13.671875
5751		-15.625000
5752		-9.765625
5753		-11.718750
5754		-5.859375
5755		-7.812500
5756		-1.953125
5757		-3.906250
5758		1.953125
5759		1.953125
5760		5.859375
5761		5.859375
5762		11.718750
5763		9.765625
5764		15.625000
5765		13.671875
5766		19.531250
5767		17.578125
5768		23.437500
5769		21.484375
5770		27.343750
5771		27.343750
5772		31.250000
5773		31.250000
5774		35.156250
5775		35.156250
5776		41.015625
5777		37.109375
5778		42.968750
5779		41.015625
5780		46.875000
5781		44.921875
5782		50.781250
5783		48.828125
5784		54.687500
5785		52.734375
5786		56.640625
5787		56.640625
5788		60.546875
5789		58.593750
5790		64.453125
5791		62.500000
5792		66.406250
5793		64.453125
5794		70.312500
5795		68.359375
5796		72.265625
5797		70.312500
5798		74.218750
5799		72.265625
5800		76.171875
5801		74.218750
5802		78.125000
5803		78.125000
5804		80.078125
5805		80.078125
5806		82.031250
5807		82.031250
5808		85.937500
5809		82.031250
5810		85.937500
5811		83.984375
5812		87.890625
5813		85.937500
5814		87.890625
5815		85.937500
5816		89.843750
5817		87.890625
5818		89.843750
5819		87.890625
5820		91.796875
5821		87.890625
5822		91.796875
5823		89.843750
5824		91.796875
5825		89.843750
5826		91.796875
5827		89.843750
5828		91.796875
5829		87.890625
5830		91.796875
5831		87.890625
5832		89.843750
5833		87.890625
5834		89.843750
5835		85.937500
5836		89.843750
5837		85.937500
5838		87.890625
5839		83.984375
5840		87.890625
5841		82.031250
5842		85.937500
5843		82.031250
5844		83.984375
5845		80.078125
5846		83.984375
5847		78.125000
5848		80.078125
5849		76.171875
5850		78.125000
5851		72.265625
5852		76.171875
5853		70.312500
5854		74.218750
5855		68.359375
5856		72.265625
5857		64.453125
5858		68.359375
5859		62.500000
5860		66.406250
5861		58.593750
5862		64.453125
5863		56.640625
5864		60.546875
5865		52.734375
5866		56.640625
5867		48.828125
5868		54.687500
5869		44.921875
5870		50.781250
5871		41.015625
5872		46.875000
5873		37.109375
5874		42.968750
5875		33.203125
5876		39.062500
5877		29.296875
5878		35.156250
5879		25.390625
5880		31.250000
5881		21.484375
5882		27.343750
5883		17.578125
5884		23.437500
5885		13.671875
5886		19.531250
5887		9.765625
5888		13.671875
5889		3.906250
5890		9.765625
5891		0.000000
5892		5.859375
5893		-3.906250
5894		1.953125
5895		-7.812500
5896		-1.953125
5897		-11.718750
5898		-5.859375
5899		-17.578125
5900		-9.765625
5901		-21.484375
5902		-15.625000
5903		-25.390625
5904		-19.531250
5905		-29.296875
5906		-23.437500
5907		-33.203125
5908		-27.343750
5909		-37.109375
5910		-31.250000
5911		-41.015625
5912		-35.156250
5913		-44.921875
5914		-39.062500
5915		-48.828125
5916		-42.968750
5917		-50.781250
5918		-46.875000
5919		-54.687500
5920		-50.781250
5921		-58.593750
5922		-52.734375
5923		-60.546875
5924		-56.640625
5925		-64.453125
5926		-60.546875
5927		-66.406250
5928		-62.500000
5929		-68.359375
5930		-64.453125
5931		-72.265625
5932		-68.359375
5933		-72.265625
5934		-70.312500
5935		-74.218750
5936		-72.265625
5937		-76.171875
5938		-74.218750
5939		-78.125000
5940		-74.218750
5941		-80.078125
5942		-76.171875
5943		-80.078125
5944		-78.125000
5945		-82.031250
5946		-78.125000
5947		-82.031250
5948		-80.078125
5949		-82.031250
5950		-80.078125
5951		-82.031250
5952		-80.078125
5953		-82.031250
5954		-80.078125
5955		-82.031250
5956		-80.078125
5957		-82.031250
5958		-80.078125
5959		-82.031250
5960		-78.125000
5961		-80.078125
5962		-78.125000
5963		-78.125000
5964		-76.171875
5965		-78.125000
5966		-74.218750
5967		-76.171875
5968		-72.265625
5969		-74.218750
5970		-70.312500
5971		-72.265625
5972		-68.359375
5973		-70.312500
5974		-66.406250
5975		-68.359375
5976		-64.453125
5977		-64.453125
5978		-60.546875
5979		-62.500000
5980		-58.593750
5981		-58.593750
5982		-54.687500
5983		-56.640625
5984		-50.781250
5985		-52.734375
5986		-48.828125
5987		-48.828125
5988		-44.921875
5989		-46.875000
5990		-41.015625
5991		-42.968750
5992		-37.109375
5993		-39.062500
5994		-33.203125
5995		-35.156250
5996		-29.296875
5997		-31.250000
5998		-25.390625
5999		-27.343750
6000		-21.484375
6001		-23.437500
6002		-17.578125
6003		-17.578125
6004		-13.671875
6005		-13.671875
6006		-9.765625
6007		-9.765625
6008		-3.906250
6009		-5.859375
6010		0.000000
6011		-1.953125
6012		3.906250
6013		1.953125
6014		7.812500
6015		5.859375
6016		11.718750
6017		11.718750
6018		17.578125
6019		15.625000
6020		21.484375
6021		19.531250
6022		25.390625
6023		23.437500
6024		29.296875
6025		27.343750
6026		33.203125
6027		31.250000
6028		37.109375
6029		35.156250
6030		41.015625
6031		39.062500
6032		44.921875
6033		42.968750
6034		48.828125
6035		46.875000
6036		52.734375
6037		50.781250
6038		54.687500
6039		54.687500
6040		58.593750
6041		56.640625
6042		62.500000
6043		60.546875
6044		66.406250
6045		62.500000
6046		68.359375
6047		66.406250
6048		70.312500
6049		68.359375
6050		74.218750
6051		72.265625
6052		76.171875
6053		74.218750
6054		78.125000
6055		76.171875
6056		80.078125
6057		78.125000
6058		82.031250
6059		80.078125
6060		83.984375
6061		82.031250
6062		85.937500
6063		83.984375
6064		85.937500
6065		83.984375
6066		87.890625
6067		85.937500
6068		89.843750
6069		87.890625
6070		89.843750
6071		87.890625
6072		89.843750
6073		87.890625
6074		91.796875
6075		89.843750
6076		91.796875
6077		89.843750
6078		91.796875
6079		89.843750
6080		91.796875
6081		89.843750
6082		91.796875
6083		87.890625
6084		91.796875
6085		87.890625
6086		91.796875
6087		87.890625
6088		89.843750
6089		85.937500
6090		89.843750
6091		85.937500
6092		87.890625
6093		83.984375
6094		87.890625
6095		82.031250
6096		85.937500
6097		80.078125
6098		83.984375
6099		80.078125
6100		82.031250
6101		76.171875
6102		80.078125
6103		74.218750
6104		78.125000
6105		72.265625
6106		76.171875
6107		68.359375
6108		74.218750
6109		68.359375
6110		72.265625
6111		64.453125
6112		68.359375
6113		62.500000
6114		66.406250
6115		58.593750
6116		62.500000
6117		54.687500
6118		60.546875
6119		52.734375
6120		56.640625
6121		48.828125
6122		52.734375
6123		44.921875
6124		50.781250
6125		41.015625
6126		46.875000
6127		37.109375
6128		42.968750
6129		33.203125
6130		39.062500
6131		29.296875
6132		35.156250
6133		25.390625
6134		31.250000
6135		21.484375
6136		27.343750
6137		17.578125
6138		23.437500
6139		11.718750
6140		17.578125
6141		7.812500
6142		13.671875
6143		3.906250
6144		9.765625
6145		-1.953125
6146		5.859375
6147		-5.859375
6148		0.000000
6149		-9.765625
6150		-3.906250
6151		-13.671875
6152		-7.812500
6153		-17.578125
6154		-11.718750
6155		-21.484375
6156		-15.625000
6157		-25.390625
6158		-19.531250
6159		-29.296875
6160		-25.390625
6161		-33.203125
6162		-29.296875
6163		-39.062500
6164		-33.203125
6165		-41.015625
6166		-35.156250
6167		-44.921875
6168		-41.015625
6169		-48.828125
6170		-42.968750
6171		-52.734375
6172		-46.875000
6173		-54.687500
6174		-50.781250
6175		-58.593750
6176		-54.687500
6177		-62.500000
6178		-56.640625
6179		-64.453125
6180		-60.546875
6181		-66.406250
6182		-62.500000
6183		-68.359375
6184		-64.453125
6185		-70.312500
6186		-68.359375
6187		-74.218750
6188		-70.312500
6189		-74.218750
6190		-72.265625
6191		-78.125000
6192		-72.265625
6193		-78.125000
6194		-74.218750
6195		-80.078125
6196		-76.171875
6197		-80.078125
6198		-78.125000
6199		-80.078125
6200		-78.125000
6201		-82.031250
6202		-78.125000
6203		-82.031250
6204		-78.125000
6205		-82.031250
6206		-80.078125
6207		-83.984375
6208		-78.125000
6209		-82.031250
6210		-78.125000
6211		-82.031250
6212		-78.125000
6213		-82.031250
6214		-76.171875
6215		-80.078125
6216		-76.171875
6217		-78.125000
6218		-74.218750
6219		-76.171875
6220		-74.218750
6221		-74.218750
6222		-72.265625
6223		-72.265625
6224		-70.312500
6225		-72.265625
6226		-66.406250
6227		-70.312500
6228		-64.453125
6229		-68.359375
6230		-62.500000
6231		-64.453125
6232		-60.546875
6233		-64.453125
6234		-56.640625
6235		-58.593750
6236		-52.734375
6237		-54.687500
6238		-48.828125
6239		-52.734375
6240		-46.875000
6241		-48.828125
6242		-42.968750
6243		-44.921875
6244		-39.062500
6245		-41.015625
6246		-33.203125
6247		-37.109375
6248		-31.250000
6249		-35.156250
6250		-25.390625
6251		-29.296875
6252		-23.437500
6253		-25.390625
6254		-19.531250
6255		-21.484375
6256		-15.625000
6257		-17.578125
6258		-9.765625
6259		-13.671875
6260		-7.812500
6261		-9.765625
6262		-1.953125
6263		-5.859375
6264		1.953125
6265		0.000000
6266		9.765625
6267		3.906250
6268		9.765625
6269		7.812500
6270		13.671875
6271		13.671875
6272		19.531250
6273		15.625000
6274		23.437500
6275		21.484375
6276		27.343750
6277		25.390625
6278		31.250000
6279		29.296875
6280		35.156250
6281		33.203125
6282		39.062500
6283		37.109375
6284		42.968750
6285		41.015625
6286		46.875000
6287		44.921875
6288		50.781250
6289		46.875000
6290		56.640625
6291		48.828125
6292		58.593750
6293		54.687500
6294		60.546875
6295		58.593750
6296		62.500000
6297		58.593750
6298		68.359375
6299		62.500000
6300		72.265625
6301		68.359375
6302		72.265625
6303		70.312500
6304		74.218750
6305		72.265625
6306		78.125000
6307		74.218750
6308		82.031250
6309		74.218750
6310		82.031250
6311		78.125000
6312		82.031250
6313		80.078125
6314		87.890625
6315		82.031250
6316		85.937500
6317		80.078125
6318		89.843750
6319		83.984375
6320		87.890625
6321		85.937500
6322		89.843750
6323		85.937500
6324		93.750000
6325		85.937500
6326		91.796875
6327		89.843750
6328		91.796875
6329		87.890625
6330		95.703125
6331		85.937500
6332		95.703125
6333		85.937500
6334		95.703125
6335		89.843750
6336		91.796875
6337		87.890625
6338		91.796875
6339		85.937500
6340		93.750000
6341		83.984375
6342		93.750000
6343		85.937500
6344		89.843750
6345		83.984375
6346		87.890625
6347		80.078125
6348		89.843750
6349		80.078125
6350		87.890625
6351		80.078125
6352		83.984375
6353		78.125000
6354		82.031250
6355		76.171875
6356		82.031250
6357		72.265625
6358		80.078125
6359		70.312500
6360		76.171875
6361		70.312500
6362		74.218750
6363		64.453125
6364		72.265625
6365		62.500000
6366		72.265625
6367		60.546875
6368		68.359375
6369		58.593750
6370		62.500000
6371		52.734375
6372		58.593750
6373		48.828125
6374		56.640625
6375		44.921875
6376		54.687500
6377		42.968750
6378		48.828125
6379		39.062500
6380		44.921875
6381		33.203125
6382		44.921875
6383		27.343750
6384		39.062500
6385		27.343750
6386		33.203125
6387		23.437500
6388		29.296875
6389		19.531250
6390		25.390625
6391		13.671875
6392		23.437500
6393		11.718750
6394		19.531250
6395		7.812500
6396		13.671875
6397		-1.953125
6398		9.765625
6399		-1.953125
6400		5.859375
6401		-5.859375
6402		1.953125
6403		-9.765625
6404		-3.906250
6405		-15.625000
6406		-9.765625
6407		-21.484375
6408		-11.718750
6409		-23.437500
6410		-17.578125
6411		-27.343750
6412		-21.484375
6413		-33.203125
6414		-25.390625
6415		-35.156250
6416		-27.343750
6417		-39.062500
6418		-33.203125
6419		-42.968750
6420		-37.109375
6421		-46.875000
6422		-41.015625
6423		-50.781250
6424		-44.921875
6425		-54.687500
6426		-44.921875
6427		-56.640625
6428		-50.781250
6429		-58.593750
6430		-54.687500
6431		-64.453125
6432		-54.687500
6433		-66.406250
6434		-60.546875
6435		-68.359375
6436		-62.500000
6437		-70.312500
6438		-66.406250
6439		-74.218750
6440		-68.359375
6441		-76.171875
6442		-68.359375
6443		-78.125000
6444		-70.312500
6445		-78.125000
6446		-74.218750
6447		-82.031250
6448		-74.218750
6449		-82.031250
6450		-72.265625
6451		-83.984375
6452		-74.218750
6453		-82.031250
6454		-78.125000
6455		-82.031250
6456		-78.125000
6457		-82.031250
6458		-78.125000
6459		-83.984375
6460		-76.171875
6461		-83.984375
6462		-78.125000
6463		-82.031250
6464		-78.125000
6465		-83.984375
6466		-76.171875
6467		-82.031250
6468		-74.218750
6469		-80.078125
6470		-76.171875
6471		-78.125000
6472		-74.218750
6473		-76.171875
6474		-72.265625
6475		-76.171875
6476		-68.359375
6477		-72.265625
6478		-68.359375
6479		-70.312500
6480		-66.406250
6481		-68.359375
6482		-62.500000
6483		-66.406250
6484		-62.500000
6485		-66.406250
6486		-58.593750
6487		-60.546875
6488		-56.640625
6489		-56.640625
6490		-52.734375
6491		-54.687500
6492		-44.921875
6493		-50.781250
6494		-44.921875
6495		-46.875000
6496		-42.968750
6497		-42.968750
6498		-37.109375
6499		-41.015625
6500		-35.156250
6501		-35.156250
6502		-31.250000
6503		-31.250000
6504		-25.390625
6505		-27.343750
6506		-23.437500
6507		-23.437500
6508		-17.578125
6509		-19.531250
6510		-13.671875
6511		-17.578125
6512		-9.765625
6513		-11.718750
6514		-5.859375
6515		-7.812500
6516		-1.953125
6517		-3.906250
6518		1.953125
6519		1.953125
6520		7.812500
6521		5.859375
6522		11.718750
6523		9.765625
6524		15.625000
6525		13.671875
6526		19.531250
6527		19.531250
6528		23.437500
6529		21.484375
6530		27.343750
6531		27.343750
6532		31.250000
6533		31.250000
6534		37.109375
6535		35.156250
6536		39.062500
6537		39.062500
6538		42.968750
6539		42.968750
6540		46.875000
6541		44.921875
6542		50.781250
6543		48.828125
6544		54.687500
6545		52.734375
6546		58.593750
6547		54.687500
6548		60.546875
6549		58.593750
6550		64.453125
6551		62.500000
6552		68.359375
6553		64.453125
6554		70.312500
6555		68.359375
6556		72.265625
6557		70.312500
6558		76.171875
6559		72.265625
6560		78.125000
6561		74.218750
6562		80.078125
6563		76.171875
6564		82.031250
6565		78.125000
6566		83.984375
6567		80.078125
6568		85.937500
6569		82.031250
6570		85.937500
6571		83.984375
6572		87.890625
6573		85.937500
6574		89.843750
6575		85.937500
6576		91.796875
6577		87.890625
6578		91.796875
6579		87.890625
6580		93.750000
6581		87.890625
6582		93.750000
6583		87.890625
6584		93.750000
6585		87.890625
6586		93.750000
6587		89.843750
6588		91.796875
6589		89.843750
6590		91.796875
6591		87.890625
6592		93.750000
6593		87.890625
6594		91.796875
6595		85.937500
6596		91.796875
6597		85.937500
6598		91.796875
6599		83.984375
6600		89.843750
6601		83.984375
6602		87.890625
6603		82.031250
6604		87.890625
6605		80.078125
6606		83.984375
6607		78.125000
6608		82.031250
6609		76.171875
6610		82.031250
6611		74.218750
6612		80.078125
6613		70.312500
6614		78.125000
6615		68.359375
6616		74.218750
6617		66.406250
6618		72.265625
6619		64.453125
6620		68.359375
6621		60.546875
6622		64.453125
6623		56.640625
6624		62.500000
6625		54.687500
6626		60.546875
6627		50.781250
6628		56.640625
6629		44.921875
6630		52.734375
6631		42.968750
6632		50.781250
6633		39.062500
6634		44.921875
6635		35.156250
6636		41.015625
6637		31.250000
6638		37.109375
6639		27.343750
6640		33.203125
6641		23.437500
6642		29.296875
6643		19.531250
6644		25.390625
6645		15.625000
6646		21.484375
6647		11.718750
6648		17.578125
6649		5.859375
6650		11.718750
6651		1.953125
6652		7.812500
6653		-1.953125
6654		5.859375
6655		-5.859375
6656		0.000000
6657		-11.718750
6658		-3.906250
6659		-15.625000
6660		-7.812500
6661		-19.531250
6662		-13.671875
6663		-25.390625
6664		-15.625000
6665		-27.343750
6666		-21.484375
6667		-31.250000
6668		-25.390625
6669		-35.156250
6670		-29.296875
6671		-39.062500
6672		-33.203125
6673		-42.968750
6674		-37.109375
6675		-46.875000
6676		-41.015625
6677		-48.828125
6678		-44.921875
6679		-52.734375
6680		-46.875000
6681		-56.640625
6682		-48.828125
6683		-58.593750
6684		-54.687500
6685		-62.500000
6686		-56.640625
6687		-64.453125
6688		-58.593750
6689		-66.406250
6690		-62.500000
6691		-70.312500
6692		-66.406250
6693		-72.265625
6694		-68.359375
6695		-74.218750
6696		-70.312500
6697		-76.171875
6698		-70.312500
6699		-78.125000
6700		-72.265625
6701		-78.125000
6702		-74.218750
6703		-78.125000
6704		-74.218750
6705		-80.078125
6706		-76.171875
6707		-80.078125
6708		-78.125000
6709		-82.031250
6710		-78.125000
6711		-82.031250
6712		-78.125000
6713		-82.031250
6714		-76.171875
6715		-82.031250
6716		-76.171875
6717		-80.078125
6718		-76.171875
6719		-80.078125
6720		-76.171875
6721		-80.078125
6722		-76.171875
6723		-78.125000
6724		-74.218750
6725		-76.171875
6726		-72.265625
6727		-76.171875
6728		-70.312500
6729		-72.265625
6730		-68.359375
6731		-72.265625
6732		-66.406250
6733		-68.359375
6734		-64.453125
6735		-66.406250
6736		-62.500000
6737		-64.453125
6738		-58.593750
6739		-60.546875
6740		-56.640625
6741		-58.593750
6742		-52.734375
6743		-54.687500
6744		-48.828125
6745		-52.734375
6746		-46.875000
6747		-48.828125
6748		-42.968750
6749		-44.921875
6750		-39.062500
6751		-41.015625
6752		-37.109375
6753		-37.109375
6754		-31.250000
6755		-33.203125
6756		-29.296875
6757		-29.296875
6758		-23.437500
6759		-25.390625
6760		-19.531250
6761		-23.437500
6762		-15.625000
6763		-17.578125
6764		-11.718750
6765		-13.671875
6766		-7.812500
6767		-9.765625
6768		-3.906250
6769		-5.859375
6770		1.953125
6771		0.000000
6772		5.859375
6773		3.906250
6774		9.765625
6775		7.812500
6776		13.671875
6777		11.718750
6778		17.578125
6779		15.625000
6780		21.484375
6781		21.484375
6782		25.390625
6783		25.390625
6784		31.250000
6785		29.296875
6786		35.156250
6787		33.203125
6788		39.062500
6789		37.109375
6790		42.968750
6791		41.015625
6792		46.875000
6793		42.968750
6794		48.828125
6795		48.828125
6796		52.734375
6797		50.781250
6798		56.640625
6799		52.734375
6800		60.546875
6801		58.593750
6802		62.500000
6803		60.546875
6804		66.406250
6805		62.500000
6806		68.359375
6807		66.406250
6808		72.265625
6809		70.312500
6810		74.218750
6811		72.265625
6812		76.171875
6813		74.218750
6814		78.125000
6815		78.125000
6816		82.031250
6817		80.078125
6818		82.031250
6819		80.078125
6820		85.937500
6821		82.031250
6822		85.937500
6823		83.984375
6824		87.890625
6825		85.937500
6826		89.843750
6827		85.937500
6828		89.843750
6829		87.890625
6830		91.796875
6831		87.890625
6832		91.796875
6833		89.843750
6834		91.796875
6835		89.843750
6836		93.750000
6837		89.843750
6838		93.750000
6839		89.843750
6840		93.750000
6841		89.843750
6842		93.750000
6843		89.843750
6844		93.750000
6845		89.843750
6846		91.796875
6847		87.890625
6848		91.796875
6849		87.890625
6850		89.843750
6851		85.937500
6852		89.843750
6853		83.984375
6854		87.890625
6855		83.984375
6856		87.890625
6857		82.031250
6858		85.937500
6859		80.078125
6860		83.984375
6861		78.125000
6862		82.031250
6863		74.218750
6864		80.078125
6865		74.218750
6866		78.125000
6867		70.312500
6868		76.171875
6869		68.359375
6870		74.218750
6871		64.453125
6872		70.312500
6873		62.500000
6874		68.359375
6875		60.546875
6876		64.453125
6877		56.640625
6878		62.500000
6879		52.734375
6880		58.593750
6881		50.781250
6882		54.687500
6883		46.875000
6884		50.781250
6885		42.968750
6886		48.828125
6887		39.062500
6888		44.921875
6889		35.156250
6890		41.015625
6891		31.250000
6892		37.109375
6893		27.343750
6894		33.203125
6895		21.484375
6896		29.296875
6897		19.531250
6898		23.437500
6899		13.671875
6900		21.484375
6901		9.765625
6902		15.625000
6903		5.859375
6904		11.718750
6905		1.953125
6906		7.812500
6907		-1.953125
6908		3.906250
6909		-7.812500
6910		-1.953125
6911		-11.718750
6912		-5.859375
6913		-15.625000
6914		-9.765625
6915		-19.531250
6916		-13.671875
6917		-23.437500
6918		-17.578125
6919		-27.343750
6920		-21.484375
6921		-31.250000
6922		-27.343750
6923		-35.156250
6924		-31.250000
6925		-39.062500
6926		-35.156250
6927		-44.921875
6928		-37.109375
6929		-46.875000
6930		-41.015625
6931		-50.781250
6932		-44.921875
6933		-52.734375
6934		-48.828125
6935		-56.640625
6936		-52.734375
6937		-60.546875
6938		-54.687500
6939		-62.500000
6940		-56.640625
6941		-64.453125
6942		-60.546875
6943		-68.359375
6944		-64.453125
6945		-70.312500
6946		-66.406250
6947		-72.265625
6948		-68.359375
6949		-74.218750
6950		-70.312500
6951		-76.171875
6952		-72.265625
6953		-76.171875
6954		-72.265625
6955		-78.125000
6956		-74.218750
6957		-78.125000
6958		-76.171875
6959		-80.078125
6960		-76.171875
6961		-80.078125
6962		-76.171875
6963		-80.078125
6964		-78.125000
6965		-82.031250
6966		-76.171875
6967		-82.031250
6968		-76.171875
6969		-80.078125
6970		-78.125000
6971		-80.078125
6972		-76.171875
6973		-80.078125
6974		-76.171875
6975		-78.125000
6976		-76.171875
6977		-78.125000
6978		-74.218750
6979		-76.171875
6980		-72.265625
6981		-74.218750
6982		-70.312500
6983		-72.265625
6984		-68.359375
6985		-70.312500
6986		-66.406250
6987		-68.359375
6988		-64.453125
6989		-66.406250
6990		-60.546875
6991		-62.500000
6992		-58.593750
6993		-60.546875
6994		-54.687500
6995		-56.640625
6996		-52.734375
6997		-54.687500
6998		-48.828125
6999		-50.781250
7000		-46.875000
7001		-48.828125
7002		-42.968750
7003		-44.921875
7004		-39.062500
7005		-41.015625
7006		-35.156250
7007		-37.109375
7008		-31.250000
7009		-33.203125
7010		-27.343750
7011		-29.296875
7012		-23.437500
7013		-25.390625
7014		-19.531250
7015		-21.484375
7016		-13.671875
7017		-15.625000
7018		-9.765625
7019		-11.718750
7020		-5.859375
7021		-7.812500
7022		-1.953125
7023		-3.906250
7024		1.953125
7025		0.000000
7026		5.859375
7027		5.859375
7028		11.718750
7029		9.765625
7030		15.625000
7031		13.671875
7032		19.531250
7033		17.578125
7034		23.437500
7035		21.484375
7036		27.343750
7037		25.390625
7038		31.250000
7039		29.296875
7040		37.109375
7041		33.203125
7042		39.062500
7043		37.109375
7044		42.968750
7045		41.015625
7046		46.875000
7047		44.921875
7048		50.781250
7049		48.828125
7050		54.687500
7051		52.734375
7052		58.593750
7053		56.640625
7054		60.546875
7055		58.593750
7056		64.453125
7057		62.500000
7058		66.406250
7059		66.406250
7060		70.312500
7061		68.359375
7062		72.265625
7063		70.312500
7064		76.171875
7065		72.265625
7066		76.171875
7067		76.171875
7068		80.078125
7069		76.171875
7070		82.031250
7071		80.078125
7072		83.984375
7073		82.031250
7074		85.937500
7075		83.984375
7076		85.937500
7077		85.937500
7078		89.843750
7079		85.937500
7080		89.843750
7081		87.890625
7082		91.796875
7083		87.890625
7084		91.796875
7085		89.843750
7086		91.796875
7087		89.843750
7088		93.750000
7089		89.843750
7090		93.750000
7091		89.843750
7092		93.750000
7093		89.843750
7094		93.750000
7095		89.843750
7096		93.750000
7097		89.843750
7098		93.750000
7099		87.890625
7100		91.796875
7101		87.890625
7102		91.796875
7103		87.890625
7104		91.796875
7105		85.937500
7106		89.843750
7107		85.937500
7108		87.890625
7109		83.984375
7110		87.890625
7111		80.078125
7112		85.937500
7113		80.078125
7114		83.984375
7115		78.125000
7116		82.031250
7117		76.171875
7118		80.078125
7119		72.265625
7120		78.125000
7121		70.312500
7122		76.171875
7123		68.359375
7124		72.265625
7125		66.406250
7126		70.312500
7127		62.500000
7128		66.406250
7129		58.593750
7130		64.453125
7131		56.640625
7132		60.546875
7133		52.734375
7134		58.593750
7135		48.828125
7136		54.687500
7137		44.921875
7138		50.781250
7139		41.015625
7140		46.875000
7141		37.109375
7142		42.968750
7143		33.203125
7144		39.062500
7145		31.250000
7146		35.156250
7147		25.390625
7148		31.250000
7149		21.484375
7150		27.343750
7151		17.578125
7152		23.437500
7153		13.671875
7154		19.531250
7155		9.765625
7156		15.625000
7157		3.906250
7158		11.718750
7159		0.000000
7160		5.859375
7161		-3.906250
7162		1.953125
7163		-7.812500
7164		-1.953125
7165		-11.718750
7166		-5.859375
7167		-15.625000
7168		-11.718750
7169		-21.484375
7170		-15.625000
7171		-25.390625
7172		-19.531250
7173		-29.296875
7174		-23.437500
7175		-33.203125
7176		-27.343750
7177		-37.109375
7178		-31.250000
7179		-41.015625
7180		-35.156250
7181		-44.921875
7182		-39.062500
7183		-46.875000
7184		-42.968750
7185		-50.781250
7186		-44.921875
7187		-54.687500
7188		-48.828125
7189		-56.640625
7190		-52.734375
7191		-60.546875
7192		-54.687500
7193		-62.500000
7194		-58.593750
7195		-66.406250
7196		-60.546875
7197		-68.359375
7198		-64.453125
7199		-70.312500
7200		-66.406250
7201		-72.265625
7202		-68.359375
7203		-74.218750
7204		-70.312500
7205		-76.171875
7206		-72.265625
7207		-78.125000
7208		-72.265625
7209		-78.125000
7210		-74.218750
7211		-78.125000
7212		-76.171875
7213		-80.078125
7214		-76.171875
7215		-80.078125
7216		-76.171875
7217		-80.078125
7218		-76.171875
7219		-80.078125
7220		-76.171875
7221		-80.078125
7222		-78.125000
7223		-80.078125
7224		-76.171875
7225		-80.078125
7226		-76.171875
7227		-78.125000
7228		-76.171875
7229		-76.171875
7230		-74.218750
7231		-76.171875
7232		-72.265625
7233		-74.218750
7234		-70.312500
7235		-72.265625
7236		-68.359375
7237		-72.265625
7238		-66.406250
7239		-68.359375
7240		-64.453125
7241		-66.406250
7242		-62.500000
7243		-64.453125
7244		-60.546875
7245		-62.500000
7246		-56.640625
7247		-60.546875
7248		-54.687500
7249		-56.640625
7250		-50.781250
7251		-52.734375
7252		-46.875000
7253		-48.828125
7254		-44.921875
7255		-46.875000
7256		-41.015625
7257		-42.968750
7258		-37.109375
7259		-39.062500
7260		-33.203125
7261		-35.156250
7262		-29.296875
7263		-31.250000
7264		-25.390625
7265		-29.296875
7266		-21.484375
7267		-23.437500
7268		-17.578125
7269		-19.531250
7270		-13.671875
7271		-15.625000
7272		-7.812500
7273		-11.718750
7274		-5.859375
7275		-5.859375
7276		0.000000
7277		-1.953125
7278		3.906250
7279		1.953125
7280		7.812500
7281		5.859375
7282		11.718750
7283		11.718750
7284		17.578125
7285		13.671875
7286		21.484375
7287		19.531250
7288		25.390625
7289		23.437500
7290		29.296875
7291		27.343750
7292		33.203125
7293		31.250000
7294		37.109375
7295		35.156250
7296		41.015625
7297		39.062500
7298		44.921875
7299		42.968750
7300		48.828125
7301		46.875000
7302		52.734375
7303		50.781250
7304		54.687500
7305		52.734375
7306		58.593750
7307		56.640625
7308		62.500000
7309		60.546875
7310		64.453125
7311		64.453125
7312		68.359375
7313		66.406250
7314		72.265625
7315		68.359375
7316		74.218750
7317		72.265625
7318		76.171875
7319		74.218750
7320		78.125000
7321		76.171875
7322		80.078125
7323		78.125000
7324		82.031250
7325		80.078125
7326		83.984375
7327		82.031250
7328		85.937500
7329		83.984375
7330		87.890625
7331		83.984375
7332		87.890625
7333		87.890625
7334		89.843750
7335		87.890625
7336		91.796875
7337		87.890625
7338		91.796875
7339		89.843750
7340		91.796875
7341		89.843750
7342		93.750000
7343		89.843750
7344		93.750000
7345		91.796875
7346		93.750000
7347		89.843750
7348		93.750000
7349		89.843750
7350		93.750000
7351		89.843750
7352		93.750000
7353		89.843750
7354		91.796875
7355		87.890625
7356		91.796875
7357		87.890625
7358		91.796875
7359		85.937500
7360		89.843750
7361		85.937500
7362		87.890625
7363		83.984375
7364		85.937500
7365		82.031250
7366		85.937500
7367		80.078125
7368		83.984375
7369		78.125000
7370		82.031250
7371		76.171875
7372		80.078125
7373		74.218750
7374		78.125000
7375		70.312500
7376		74.218750
7377		68.359375
7378		72.265625
7379		64.453125
7380		70.312500
7381		62.500000
7382		66.406250
7383		58.593750
7384		64.453125
7385		54.687500
7386		60.546875
7387		52.734375
7388		56.640625
7389		48.828125
7390		54.687500
7391		44.921875
7392		50.781250
7393		41.015625
7394		46.875000
7395		37.109375
7396		42.968750
7397		33.203125
7398		39.062500
7399		29.296875
7400		35.156250
7401		25.390625
7402		31.250000
7403		21.484375
7404		27.343750
7405		17.578125
7406		23.437500
7407		11.718750
7408		17.578125
7409		7.812500
7410		13.671875
7411		3.906250
7412		9.765625
7413		0.000000
7414		5.859375
7415		-3.906250
7416		1.953125
7417		-9.765625
7418		-3.906250
7419		-13.671875
7420		-7.812500
7421		-17.578125
7422		-11.718750
7423		-21.484375
7424		-15.625000
7425		-25.390625
7426		-19.531250
7427		-29.296875
7428		-23.437500
7429		-33.203125
7430		-27.343750
7431		-37.109375
7432		-31.250000
7433		-41.015625
7434		-35.156250
7435		-44.921875
7436		-39.062500
7437		-48.828125
7438		-42.968750
7439		-50.781250
7440		-46.875000
7441		-54.687500
7442		-48.828125
7443		-58.593750
7444		-52.734375
7445		-60.546875
7446		-56.640625
7447		-64.453125
7448		-58.593750
7449		-66.406250
7450		-60.546875
7451		-68.359375
7452		-64.453125
7453		-70.312500
7454		-66.406250
7455		-72.265625
7456		-68.359375
7457		-74.218750
7458		-70.312500
7459		-76.171875
7460		-72.265625
7461		-76.171875
7462		-74.218750
7463		-78.125000
7464		-74.218750
7465		-80.078125
7466		-74.218750
7467		-80.078125
7468		-76.171875
7469		-80.078125
7470		-76.171875
7471		-80.078125
7472		-76.171875
7473		-80.078125
7474		-76.171875
7475		-80.078125
7476		-76.171875
7477		-80.078125
7478		-76.171875
7479		-78.125000
7480		-76.171875
7481		-78.125000
7482		-74.218750
7483		-76.171875
7484		-72.265625
7485		-76.171875
7486		-72.265625
7487		-74.218750
7488		-70.312500
7489		-72.265625
7490		-68.359375
7491		-70.312500
7492		-66.406250
7493		-68.359375
7494		-62.500000
7495		-66.406250
7496		-62.500000
7497		-62.500000
7498		-58.593750
7499		-60.546875
7500		-56.640625
7501		-58.593750
7502		-52.734375
7503		-54.687500
7504		-50.781250
7505		-50.781250
7506		-46.875000
7507		-48.828125
7508		-42.968750
7509		-44.921875
7510		-39.062500
7511		-42.968750
7512		-35.156250
7513		-37.109375
7514		-31.250000
7515		-33.203125
7516		-27.343750
7517		-29.296875
7518		-23.437500
7519		-25.390625
7520		-19.531250
7521		-21.484375
7522		-15.625000
7523		-17.578125
7524		-11.718750
7525		-13.671875
7526		-5.859375
7527		-9.765625
7528		-3.906250
7529		-3.906250
7530		1.953125
7531		0.000000
7532		7.812500
7533		3.906250
7534		9.765625
7535		7.812500
7536		13.671875
7537		11.718750
7538		17.578125
7539		17.578125
7540		23.437500
7541		21.484375
7542		27.343750
7543		25.390625
7544		31.250000
7545		29.296875
7546		35.156250
7547		33.203125
7548		39.062500
7549		37.109375
7550		42.968750
7551		41.015625
7552		46.875000
7553		44.921875
7554		50.781250
7555		48.828125
7556		52.734375
7557		50.781250
7558		56.640625
7559		54.687500
7560		60.546875
7561		58.593750
7562		62.500000
7563		62.500000
7564		66.406250
7565		64.453125
7566		70.312500
7567		68.359375
7568		72.265625
7569		70.312500
7570		76.171875
7571		72.265625
7572		78.125000
7573		74.218750
7574		80.078125
7575		78.125000
7576		82.031250
7577		80.078125
7578		83.984375
7579		82.031250
7580		85.937500
7581		83.984375
7582		85.937500
7583		83.984375
7584		87.890625
7585		85.937500
7586		89.843750
7587		87.890625
7588		91.796875
7589		87.890625
7590		91.796875
7591		89.843750
7592		91.796875
7593		89.843750
7594		93.750000
7595		89.843750
7596		95.703125
7597		91.796875
7598		93.750000
7599		89.843750
7600		93.750000
7601		91.796875
7602		93.750000
7603		89.843750
7604		93.750000
7605		89.843750
7606		93.750000
7607		89.843750
7608		93.750000
7609		87.890625
7610		91.796875
7611		87.890625
7612		91.796875
7613		85.937500
7614		89.843750
7615		83.984375
7616		87.890625
7617		83.984375
7618		87.890625
7619		82.031250
7620		85.937500
7621		80.078125
7622		83.984375
7623		78.125000
7624		82.031250
7625		74.218750
7626		80.078125
7627		72.265625
7628		76.171875
7629		70.312500
7630		74.218750
7631		68.359375
7632		72.265625
7633		64.453125
7634		68.359375
7635		62.500000
7636		66.406250
7637		58.593750
7638		64.453125
7639		54.687500
7640		60.546875
7641		50.781250
7642		56.640625
7643		46.875000
7644		52.734375
7645		44.921875
7646		50.781250
7647		41.015625
7648		44.921875
7649		37.109375
7650		41.015625
7651		33.203125
7652		39.062500
7653		27.343750
7654		33.203125
7655		23.437500
7656		31.250000
7657		19.531250
7658		25.390625
7659		15.625000
7660		21.484375
7661		11.718750
7662		17.578125
7663		7.812500
7664		13.671875
7665		3.906250
7666		9.765625
7667		-1.953125
7668		3.906250
7669		-5.859375
7670		0.000000
7671		-9.765625
7672		-3.906250
7673		-13.671875
7674		-7.812500
7675		-17.578125
7676		-11.718750
7677		-23.437500
7678		-15.625000
7679		-25.390625
7680		-21.484375
7681		-29.296875
7682		-25.390625
7683		-35.156250
7684		-29.296875
7685		-37.109375
7686		-33.203125
7687		-41.015625
7688		-37.109375
7689		-44.921875
7690		-41.015625
7691		-48.828125
7692		-42.968750
7693		-52.734375
7694		-46.875000
7695		-56.640625
7696		-50.781250
7697		-58.593750
7698		-52.734375
7699		-62.500000
7700		-56.640625
7701		-64.453125
7702		-58.593750
7703		-66.406250
7704		-62.500000
7705		-68.359375
7706		-64.453125
7707		-70.312500
7708		-66.406250
7709		-72.265625
7710		-68.359375
7711		-74.218750
7712		-70.312500
7713		-76.171875
7714		-72.265625
7715		-76.171875
7716		-74.218750
7717		-78.125000
7718		-74.218750
7719		-78.125000
7720		-76.171875
7721		-80.078125
7722		-76.171875
7723		-80.078125
7724		-76.171875
7725		-80.078125
7726		-76.171875
7727		-80.078125
7728		-76.171875
7729		-80.078125
7730		-76.171875
7731		-78.125000
7732		-76.171875
7733		-78.125000
7734		-74.218750
7735		-78.125000
7736		-74.218750
7737		-76.171875
7738		-72.265625
7739		-76.171875
7740		-70.312500
7741		-74.218750
7742		-68.359375
7743		-72.265625
7744		-68.359375
7745		-70.312500
7746		-64.453125
7747		-68.359375
7748		-64.453125
7749		-64.453125
7750		-60.546875
7751		-64.453125
7752		-58.593750
7753		-60.546875
7754		-54.687500
7755		-58.593750
7756		-52.734375
7757		-54.687500
7758		-48.828125
7759		-50.781250
7760		-44.921875
7761		-46.875000
7762		-42.968750
7763		-44.921875
7764		-39.062500
7765		-41.015625
7766		-35.156250
7767		-37.109375
7768		-31.250000
7769		-33.203125
7770		-27.343750
7771		-29.296875
7772		-23.437500
7773		-25.390625
7774		-17.578125
7775		-21.484375
7776		-15.625000
7777		-15.625000
7778		-9.765625
7779		-11.718750
7780		-5.859375
7781		-7.812500
7782		-1.953125
7783		-3.906250
7784		1.953125
7785		0.000000
7786		5.859375
7787		3.906250
7788		11.718750
7789		9.765625
7790		15.625000
7791		13.671875
7792		19.531250
7793		17.578125
7794		23.437500
7795		21.484375
7796		29.296875
7797		25.390625
7798		31.250000
7799		29.296875
7800		35.156250
7801		33.203125
7802		39.062500
7803		37.109375
7804		42.968750
7805		41.015625
7806		46.875000
7807		44.921875
7808		50.781250
7809		48.828125
7810		54.687500
7811		52.734375
7812		56.640625
7813		56.640625
7814		60.546875
7815		58.593750
7816		64.453125
7817		62.500000
7818		66.406250
7819		64.453125
7820		70.312500
7821		68.359375
7822		72.265625
7823		70.312500
7824		74.218750
7825		74.218750
7826		78.125000
7827		76.171875
7828		80.078125
7829		78.125000
7830		82.031250
7831		80.078125
7832		83.984375
7833		82.031250
7834		85.937500
7835		83.984375
7836		87.890625
7837		85.937500
7838		87.890625
7839		85.937500
7840		89.843750
7841		87.890625
7842		91.796875
7843		87.890625
7844		91.796875
7845		89.843750
7846		91.796875
7847		89.843750
7848		93.750000
7849		91.796875
7850		93.750000
7851		91.796875
7852		93.750000
7853		89.843750
7854		93.750000
7855		91.796875
7856		93.750000
7857		91.796875
7858		93.750000
7859		89.843750
7860		93.750000
7861		89.843750
7862		91.796875
7863		87.890625
7864		91.796875
7865		87.890625
7866		89.843750
7867		85.937500
7868		89.843750
7869		83.984375
7870		87.890625
7871		83.984375
7872		87.890625
7873		82.031250
7874		83.984375
7875		78.125000
7876		82.031250
7877		76.171875
7878		80.078125
7879		74.218750
7880		78.125000
7881		72.265625
7882		76.171875
7883		70.312500
7884		74.218750
7885		66.406250
7886		70.312500
7887		62.500000
7888		68.359375
7889		60.546875
7890		64.453125
7891		56.640625
7892		62.500000
7893		52.734375
7894		58.593750
7895		50.781250
7896		56.640625
7897		46.875000
7898		52.734375
7899		42.968750
7900		48.828125
7901		39.062500
7902		44.921875
7903		35.156250
7904		41.015625
7905		31.250000
7906		37.109375
7907		27.343750
7908		33.203125
7909		23.437500
7910		29.296875
7911		19.531250
7912		25.390625
7913		13.671875
7914		19.531250
7915		9.765625
7916		15.625000
7917		5.859375
7918		11.718750
7919		1.953125
7920		7.812500
7921		-1.953125
7922		3.906250
7923		-7.812500
7924		0.000000
7925		-11.718750
7926		-5.859375
7927		-15.625000
7928		-9.765625
7929		-19.531250
7930		-13.671875
7931		-23.437500
7932		-17.578125
7933		-27.343750
7934		-21.484375
7935		-31.250000
7936		-25.390625
7937		-35.156250
7938		-29.296875
7939		-39.062500
7940		-33.203125
7941		-42.968750
7942		-37.109375
7943		-46.875000
7944		-41.015625
7945		-50.781250
7946		-44.921875
7947		-52.734375
7948		-48.828125
7949		-56.640625
7950		-50.781250
7951		-58.593750
7952		-54.687500
7953		-62.500000
7954		-56.640625
7955		-64.453125
7956		-60.546875
7957		-66.406250
7958		-62.500000
7959		-70.312500
7960		-64.453125
7961		-70.312500
7962		-66.406250
7963		-74.218750
7964		-68.359375
7965		-74.218750
7966		-70.312500
7967		-76.171875
7968		-72.265625
7969		-78.125000
7970		-74.218750
7971		-78.125000
7972		-74.218750
7973		-80.078125
7974		-76.171875
7975		-80.078125
7976		-76.171875
7977		-80.078125
7978		-76.171875
7979		-80.078125
7980		-76.171875
7981		-82.031250
7982		-76.171875
7983		-80.078125
7984		-76.171875
7985		-78.125000
7986		-76.171875
7987		-78.125000
7988		-76.171875
7989		-78.125000
7990		-74.218750
7991		-76.171875
7992		-72.265625
7993		-74.218750
7994		-70.312500
7995		-74.218750
7996		-70.312500
7997		-72.265625
7998		-66.406250
7999		-68.359375
8000		-66.406250
8001		-66.406250
8002		-62.500000
8003		-64.453125
8004		-60.546875
8005		-62.500000
8006		-58.593750
8007		-60.546875
8008		-54.687500
8009		-56.640625
8010		-52.734375
8011		-54.687500
8012		-48.828125
8013		-50.781250
8014		-44.921875
8015		-46.875000
8016		-41.015625
8017		-42.968750
8018		-39.062500
8019		-39.062500
8020		-33.203125
8021		-35.156250
8022		-31.250000
8023		-31.250000
8024		-25.390625
8025		-27.343750
8026		-21.484375
8027		-23.437500
8028		-17.578125
8029		-19.531250
8030		-13.671875
8031		-15.625000
8032		-9.765625
8033		-11.718750
8034		-5.859375
8035		-7.812500
8036		-1.953125
8037		-3.906250
8038		3.906250
8039		1.953125
8040		7.812500
8041		5.859375
8042		11.718750
8043		9.765625
8044		15.625000
8045		13.671875
8046		19.531250
8047		17.578125
8048		25.390625
8049		21.484375
8050		27.343750
8051		27.343750
8052		31.250000
8053		31.250000
8054		37.109375
8055		35.156250
8056		41.015625
8057		39.062500
8058		44.921875
8059		42.968750
8060		48.828125
8061		46.875000
8062		50.781250
8063		48.828125
8064		54.687500
8065		52.734375
8066		58.593750
8067		56.640625
8068		60.546875
8069		60.546875
8070		64.453125
8071		62.500000
8072		68.359375
8073		66.406250
8074		70.312500
8075		68.359375
8076		74.218750
8077		72.265625
8078		76.171875
8079		74.218750
8080		78.125000
8081		76.171875
8082		80.078125
8083		78.125000
8084		82.031250
8085		80.078125
8086		83.984375
8087		82.031250
8088		85.937500
8089		83.984375
8090		87.890625
8091		85.937500
8092		89.843750
8093		87.890625
8094		89.843750
8095		87.890625
8096		91.796875
8097		87.890625
8098		91.796875
8099		89.843750
8100		91.796875
8101		89.843750
8102		93.750000
8103		89.843750
8104		93.750000
8105		89.843750
8106		93.750000
8107		91.796875
8108		93.750000
8109		91.796875
8110		93.750000
8111		89.843750
8112		93.750000
8113		89.843750
8114		93.750000
8115		87.890625
8116		93.750000
8117		87.890625
8118		91.796875
8119		87.890625
8120		89.843750
8121		85.937500
8122		89.843750
8123		83.984375
8124		87.890625
8125		82.031250
8126		85.937500
8127		80.078125
8128		83.984375
8129		78.125000
8130		82.031250
8131		76.171875
8132		80.078125
8133		74.218750
8134		78.125000
8135		72.265625
8136		76.171875
8137		68.359375
8138		72.265625
8139		66.406250
8140		70.312500
8141		62.500000
8142		68.359375
8143		58.593750
8144		64.453125
8145		56.640625
8146		62.500000
8147		52.734375
8148		58.593750
8149		48.828125
8150		54.687500
8151		44.921875
8152		50.781250
8153		41.015625
8154		46.875000
8155		37.109375
8156		42.968750
8157		35.156250
8158		39.062500
8159		29.296875
8160		35.156250
8161		25.390625
8162		31.250000
8163		21.484375
8164		27.343750
8165		17.578125
8166		23.437500
8167		13.671875
8168		19.531250
8169		9.765625
8170		15.625000
8171		3.906250
8172		9.765625
8173		0.000000
8174		5.859375
8175		-3.906250
8176		1.953125
8177		-7.812500
8178		-1.953125
8179		-11.718750
8180		-5.859375
8181		-15.625000
8182		-11.718750
8183		-21.484375
8184		-15.625000
8185		-25.390625
8186		-19.531250
8187		-29.296875
8188		-23.437500
8189		-33.203125
8190		-27.343750
8191		-37.109375
8192		-31.250000
8193		-41.015625
8194		-35.156250
8195		-44.921875
8196		-39.062500
8197		-46.875000
8198		-42.968750
8199		-50.781250
8200		-44.921875
8201		-54.687500
8202		-48.828125
8203		-56.640625
8204		-52.734375
8205		-60.546875
8206		-54.687500
8207		-62.500000
8208		-56.640625
8209		-66.406250
8210		-60.546875
8211		-68.359375
8212		-64.453125
8213		-70.312500
8214		-66.406250
8215		-72.265625
8216		-68.359375
8217		-74.218750
8218		-68.359375
8219		-74.218750
8220		-72.265625
8221		-78.125000
8222		-72.265625
8223		-78.125000
8224		-74.218750
8225		-80.078125
8226		-76.171875
8227		-80.078125
8228		-76.171875
8229		-80.078125
8230		-76.171875
8231		-80.078125
8232		-76.171875
8233		-80.078125
8234		-78.125000
8235		-80.078125
8236		-78.125000
8237		-80.078125
8238		-76.171875
8239		-78.125000
8240		-76.171875
8241		-78.125000
8242		-74.218750
8243		-76.171875
8244		-74.218750
8245		-76.171875
8246		-72.265625
8247		-74.218750
8248		-70.312500
8249		-72.265625
8250		-68.359375
8251		-70.312500
8252		-66.406250
8253		-68.359375
8254		-64.453125
8255		-66.406250
8256		-62.500000
8257		-64.453125
8258		-60.546875
8259		-62.500000
8260		-56.640625
8261		-58.593750
8262		-54.687500
8263		-56.640625
8264		-50.781250
8265		-52.734375
8266		-46.875000
8267		-48.828125
8268		-44.921875
8269		-44.921875
8270		-41.015625
8271		-41.015625
8272		-37.109375
8273		-39.062500
8274		-33.203125
8275		-35.156250
8276		-27.343750
8277		-31.250000
8278		-25.390625
8279		-27.343750
8280		-21.484375
8281		-21.484375
8282		-15.625000
8283		-19.531250
8284		-11.718750
8285		-13.671875
8286		-7.812500
8287		-9.765625
8288		-3.906250
8289		-5.859375
8290		0.000000
8291		-1.953125
8292		3.906250
8293		1.953125
8294		7.812500
8295		7.812500
8296		13.671875
8297		11.718750
8298		17.578125
8299		15.625000
8300		21.484375
8301		19.531250
8302		25.390625
8303		23.437500
8304		29.296875
8305		27.343750
8306		33.203125
8307		31.250000
8308		37.109375
8309		35.156250
8310		41.015625
8311		39.062500
8312		44.921875
8313		42.968750
8314		48.828125
8315		44.921875
8316		54.687500
8317		48.828125
8318		54.687500
8319		54.687500
8320		58.593750
8321		56.640625
8322		62.500000
8323		60.546875
8324		64.453125
8325		60.546875
8326		68.359375
8327		66.406250
8328		70.312500
8329		68.359375
8330		76.171875
8331		72.265625
8332		76.171875
8333		72.265625
8334		80.078125
8335		78.125000
8336		80.078125
8337		80.078125
8338		83.984375
8339		80.078125
8340		85.937500
8341		80.078125
8342		87.890625
8343		82.031250
8344		89.843750
8345		83.984375
8346		89.843750
8347		83.984375
8348		91.796875
8349		85.937500
8350		91.796875
8351		85.937500
8352		93.750000
8353		89.843750
8354		91.796875
8355		89.843750
8356		93.750000
8357		87.890625
8358		95.703125
8359		87.890625
8360		95.703125
8361		87.890625
8362		95.703125
8363		87.890625
8364		95.703125
8365		87.890625
8366		95.703125
8367		87.890625
8368		95.703125
8369		87.890625
8370		91.796875
8371		87.890625
8372		89.843750
8373		83.984375
8374		89.843750
8375		83.984375
8376		89.843750
8377		82.031250
8378		89.843750
8379		80.078125
8380		87.890625
8381		78.125000
8382		85.937500
8383		76.171875
8384		83.984375
8385		74.218750
8386		82.031250
8387		72.265625
8388		76.171875
8389		68.359375
8390		74.218750
8391		66.406250
8392		74.218750
8393		62.500000
8394		72.265625
8395		60.546875
8396		68.359375
8397		56.640625
8398		64.453125
8399		52.734375
8400		62.500000
8401		50.781250
8402		58.593750
8403		48.828125
8404		52.734375
8405		44.921875
8406		50.781250
8407		39.062500
8408		46.875000
8409		35.156250
8410		42.968750
8411		31.250000
8412		39.062500
8413		27.343750
8414		37.109375
8415		23.437500
8416		33.203125
8417		19.531250
8418		29.296875
8419		15.625000
8420		21.484375
8421		11.718750
8422		17.578125
8423		5.859375
8424		13.671875
8425		1.953125
8426		11.718750
8427		-1.953125
8428		7.812500
8429		-7.812500
8430		1.953125
8431		-11.718750
8432		-1.953125
8433		-15.625000
8434		-5.859375
8435		-17.578125
8436		-9.765625
8437		-21.484375
8438		-17.578125
8439		-27.343750
8440		-21.484375
8441		-31.250000
8442		-23.437500
8443		-35.156250
8444		-27.343750
8445		-39.062500
8446		-31.250000
8447		-42.968750
8448		-33.203125
8449		-46.875000
8450		-39.062500
8451		-50.781250
8452		-41.015625
8453		-52.734375
8454		-46.875000
8455		-54.687500
8456		-50.781250
8457		-60.546875
8458		-52.734375
8459		-62.500000
8460		-54.687500
8461		-66.406250
8462		-56.640625
8463		-68.359375
8464		-60.546875
8465		-70.312500
8466		-62.500000
8467		-72.265625
8468		-64.453125
8469		-74.218750
8470		-66.406250
8471		-74.218750
8472		-70.312500
8473		-78.125000
8474		-70.312500
8475		-80.078125
8476		-72.265625
8477		-80.078125
8478		-72.265625
8479		-82.031250
8480		-74.218750
8481		-82.031250
8482		-74.218750
8483		-82.031250
8484		-74.218750
8485		-82.031250
8486		-74.218750
8487		-80.078125
8488		-78.125000
8489		-80.078125
8490		-78.125000
8491		-82.031250
8492		-74.218750
8493		-80.078125
8494		-74.218750
8495		-80.078125
8496		-72.265625
8497		-78.125000
8498		-70.312500
8499		-78.125000
8500		-70.312500
8501		-76.171875
8502		-68.359375
8503		-72.265625
8504		-68.359375
8505		-70.312500
8506		-66.406250
8507		-68.359375
8508		-62.500000
8509		-68.359375
8510		-60.546875
8511		-64.453125
8512		-56.640625
8513		-62.500000
8514		-54.687500
8515		-60.546875
8516		-50.781250
8517		-56.640625
8518		-48.828125
8519		-54.687500
8520		-46.875000
8521		-48.828125
8522		-42.968750
8523		-44.921875
8524		-37.109375
8525		-42.968750
8526		-33.203125
8527		-39.062500
8528		-29.296875
8529		-35.156250
8530		-25.390625
8531		-31.250000
8532		-21.484375
8533		-27.343750
8534		-17.578125
8535		-23.437500
8536		-15.625000
8537		-17.578125
8538		-11.718750
8539		-13.671875
8540		-7.812500
8541		-9.765625
8542		-1.953125
8543		-5.859375
8544		3.906250
8545		-1.953125
8546		7.812500
8547		1.953125
8548		11.718750
8549		5.859375
8550		15.625000
8551		9.765625
8552		19.531250
8553		13.671875
8554		21.484375
8555		21.484375
8556		27.343750
8557		25.390625
8558		33.203125
8559		27.343750
8560		37.109375
8561		31.250000
8562		41.015625
8563		35.156250
8564		44.921875
8565		39.062500
8566		48.828125
8567		42.968750
8568		52.734375
8569		46.875000
8570		54.687500
8571		52.734375
8572		56.640625
8573		54.687500
8574		60.546875
8575		56.640625
8576		64.453125
8577		60.546875
8578		68.359375
8579		62.500000
8580		70.312500
8581		66.406250
8582		74.218750
8583		68.359375
8584		76.171875
8585		70.312500
8586		78.125000
8587		74.218750
8588		80.078125
8589		78.125000
8590		82.031250
8591		78.125000
8592		85.937500
8593		80.078125
8594		87.890625
8595		82.031250
8596		87.890625
8597		82.031250
8598		89.843750
8599		83.984375
8600		91.796875
8601		85.937500
8602		91.796875
8603		85.937500
8604		91.796875
8605		89.843750
8606		91.796875
8607		87.890625
8608		95.703125
8609		87.890625
8610		95.703125
8611		87.890625
8612		95.703125
8613		87.890625
8614		95.703125
8615		87.890625
8616		95.703125
8617		87.890625
8618		95.703125
8619		87.890625
8620		95.703125
8621		89.843750
8622		91.796875
8623		87.890625
8624		91.796875
8625		85.937500
8626		91.796875
8627		83.984375
8628		91.796875
8629		82.031250
8630		89.843750
8631		80.078125
8632		87.890625
8633		78.125000
8634		85.937500
8635		78.125000
8636		85.937500
8637		76.171875
8638		82.031250
8639		74.218750
8640		78.125000
8641		70.312500
8642		76.171875
8643		68.359375
8644		76.171875
8645		64.453125
8646		74.218750
8647		62.500000
8648		70.312500
8649		58.593750
8650		68.359375
8651		54.687500
8652		64.453125
8653		52.734375
8654		60.546875
8655		50.781250
8656		56.640625
8657		46.875000
8658		52.734375
8659		41.015625
8660		50.781250
8661		37.109375
8662		46.875000
8663		33.203125
8664		42.968750
8665		29.296875
8666		39.062500
8667		25.390625
8668		35.156250
8669		21.484375
8670		31.250000
8671		19.531250
8672		25.390625
8673		15.625000
8674		21.484375
8675		9.765625
8676		15.625000
8677		3.906250
8678		13.671875
8679		0.000000
8680		9.765625
8681		-3.906250
8682		5.859375
8683		-7.812500
8684		1.953125
8685		-13.671875
8686		-1.953125
8687		-13.671875
8688		-5.859375
8689		-19.531250
8690		-13.671875
8691		-25.390625
8692		-17.578125
8693		-29.296875
8694		-19.531250
8695		-33.203125
8696		-23.437500
8697		-37.109375
8698		-29.296875
8699		-41.015625
8700		-31.250000
8701		-44.921875
8702		-35.156250
8703		-46.875000
8704		-39.062500
8705		-48.828125
8706		-44.921875
8707		-52.734375
8708		-48.828125
8709		-58.593750
8710		-50.781250
8711		-62.500000
8712		-52.734375
8713		-64.453125
8714		-54.687500
8715		-66.406250
8716		-58.593750
8717		-68.359375
8718		-60.546875
8719		-70.312500
8720		-62.500000
8721		-72.265625
8722		-66.406250
8723		-72.265625
8724		-70.312500
8725		-78.125000
8726		-70.312500
8727		-78.125000
8728		-70.312500
8729		-80.078125
8730		-72.265625
8731		-80.078125
8732		-72.265625
8733		-82.031250
8734		-74.218750
8735		-82.031250
8736		-74.218750
8737		-82.031250
8738		-76.171875
8739		-80.078125
8740		-78.125000
8741		-80.078125
8742		-78.125000
8743		-82.031250
8744		-74.218750
8745		-82.031250
8746		-74.218750
8747		-80.078125
8748		-74.218750
8749		-80.078125
8750		-72.265625
8751		-78.125000
8752		-70.312500
8753		-78.125000
8754		-68.359375
8755		-74.218750
8756		-70.312500
8757		-72.265625
8758		-68.359375
8759		-70.312500
8760		-64.453125
8761		-70.312500
8762		-60.546875
8763		-66.406250
8764		-58.593750
8765		-64.453125
8766		-56.640625
8767		-62.500000
8768		-52.734375
8769		-58.593750
8770		-48.828125
8771		-56.640625
8772		-48.828125
8773		-50.781250
8774		-44.921875
8775		-46.875000
8776		-39.062500
8777		-44.921875
8778		-35.156250
8779		-42.968750
8780		-33.203125
8781		-37.109375
8782		-29.296875
8783		-33.203125
8784		-25.390625
8785		-29.296875
8786		-21.484375
8787		-25.390625
8788		-17.578125
8789		-19.531250
8790		-13.671875
8791		-15.625000
8792		-9.765625
8793		-11.718750
8794		-3.906250
8795		-9.765625
8796		0.000000
8797		-5.859375
8798		3.906250
8799		-1.953125
8800		7.812500
8801		3.906250
8802		13.671875
8803		7.812500
8804		17.578125
8805		11.718750
8806		19.531250
8807		17.578125
8808		23.437500
8809		21.484375
8810		29.296875
8811		25.390625
8812		33.203125
8813		29.296875
8814		37.109375
8815		33.203125
8816		41.015625
8817		37.109375
8818		46.875000
8819		39.062500
8820		48.828125
8821		44.921875
8822		50.781250
8823		48.828125
8824		54.687500
8825		52.734375
8826		56.640625
8827		54.687500
8828		62.500000
8829		56.640625
8830		66.406250
8831		60.546875
8832		70.312500
8833		64.453125
8834		72.265625
8835		66.406250
8836		74.218750
8837		68.359375
8838		78.125000
8839		74.218750
8840		78.125000
8841		76.171875
8842		80.078125
8843		76.171875
8844		83.984375
8845		78.125000
8846		85.937500
8847		80.078125
8848		87.890625
8849		82.031250
8850		89.843750
8851		83.984375
8852		89.843750
8853		83.984375
8854		91.796875
8855		85.937500
8856		93.750000
8857		89.843750
8858		91.796875
8859		89.843750
8860		93.750000
8861		87.890625
8862		95.703125
8863		89.843750
8864		95.703125
8865		89.843750
8866		95.703125
8867		87.890625
8868		95.703125
8869		87.890625
8870		95.703125
8871		87.890625
8872		95.703125
8873		89.843750
8874		91.796875
8875		89.843750
8876		91.796875
8877		85.937500
8878		93.750000
8879		85.937500
8880		91.796875
8881		82.031250
8882		91.796875
8883		82.031250
8884		89.843750
8885		80.078125
8886		87.890625
8887		78.125000
8888		85.937500
8889		78.125000
8890		83.984375
8891		76.171875
8892		80.078125
8893		72.265625
8894		78.125000
8895		68.359375
8896		78.125000
8897		66.406250
8898		76.171875
8899		64.453125
8900		72.265625
8901		60.546875
8902		70.312500
8903		58.593750
8904		66.406250
8905		54.687500
8906		62.500000
8907		52.734375
8908		58.593750
8909		48.828125
8910		54.687500
8911		42.968750
8912		52.734375
8913		41.015625
8914		50.781250
8915		37.109375
8916		46.875000
8917		33.203125
8918		41.015625
8919		29.296875
8920		37.109375
8921		25.390625
8922		35.156250
8923		21.484375
8924		29.296875
8925		17.578125
8926		23.437500
8927		11.718750
8928		19.531250
8929		7.812500
8930		17.578125
8931		3.906250
8932		13.671875
8933		-1.953125
8934		7.812500
8935		-5.859375
8936		3.906250
8937		-9.765625
8938		0.000000
8939		-11.718750
8940		-3.906250
8941		-15.625000
8942		-9.765625
8943		-21.484375
8944		-13.671875
8945		-25.390625
8946		-15.625000
8947		-31.250000
8948		-21.484375
8949		-33.203125
8950		-25.390625
8951		-39.062500
8952		-29.296875
8953		-42.968750
8954		-33.203125
8955		-44.921875
8956		-35.156250
8957		-46.875000
8958		-41.015625
8959		-50.781250
8960		-44.921875
8961		-54.687500
8962		-48.828125
8963		-58.593750
8964		-50.781250
8965		-62.500000
8966		-52.734375
8967		-64.453125
8968		-56.640625
8969		-66.406250
8970		-58.593750
8971		-68.359375
8972		-60.546875
8973		-70.312500
8974		-64.453125
8975		-72.265625
8976		-68.359375
8977		-74.218750
8978		-70.312500
8979		-76.171875
8980		-68.359375
8981		-78.125000
8982		-70.312500
8983		-78.125000
8984		-72.265625
8985		-80.078125
8986		-72.265625
8987		-80.078125
8988		-74.218750
8989		-82.031250
8990		-74.218750
8991		-80.078125
8992		-78.125000
8993		-80.078125
8994		-78.125000
8995		-82.031250
8996		-74.218750
8997		-82.031250
8998		-74.218750
8999		-80.078125
9000		-74.218750
9001		-80.078125
9002		-72.265625
9003		-80.078125
9004		-72.265625
9005		-78.125000
9006		-70.312500
9007		-76.171875
9008		-70.312500
9009		-72.265625
9010		-68.359375
9011		-72.265625
9012		-66.406250
9013		-70.312500
9014		-62.500000
9015		-68.359375
9016		-60.546875
9017		-66.406250
9018		-58.593750
9019		-64.453125
9020		-54.687500
9021		-60.546875
9022		-52.734375
9023		-58.593750
9024		-50.781250
9025		-52.734375
9026		-46.875000
9027		-48.828125
9028		-44.921875
9029		-46.875000
9030		-39.062500
9031		-42.968750
9032		-35.156250
9033		-41.015625
9034		-31.250000
9035		-37.109375
9036		-27.343750
9037		-33.203125
9038		-23.437500
9039		-29.296875
9040		-19.531250
9041		-23.437500
9042		-17.578125
9043		-17.578125
9044		-13.671875
9045		-15.625000
9046		-7.812500
9047		-11.718750
9048		-3.906250
9049		-7.812500
9050		1.953125
9051		-3.906250
9052		5.859375
9053		0.000000
9054		9.765625
9055		3.906250
9056		13.671875
9057		7.812500
9058		15.625000
9059		15.625000
9060		21.484375
9061		19.531250
9062		27.343750
9063		21.484375
9064		31.250000
9065		25.390625
9066		35.156250
9067		31.250000
9068		39.062500
9069		33.203125
9070		42.968750
9071		37.109375
9072		46.875000
9073		41.015625
9074		48.828125
9075		46.875000
9076		52.734375
9077		50.781250
9078		54.687500
9079		52.734375
9080		60.546875
9081		56.640625
9082		62.500000
9083		58.593750
9084		66.406250
9085		62.500000
9086		68.359375
9087		64.453125
9088		72.265625
9089		68.359375
9090		74.218750
9091		70.312500
9092		76.171875
9093		74.218750
9094		78.125000
9095		76.171875
9096		83.984375
9097		76.171875
9098		85.937500
9099		80.078125
9100		85.937500
9101		80.078125
9102		87.890625
9103		82.031250
9104		89.843750
9105		83.984375
9106		91.796875
9107		83.984375
9108		91.796875
9109		87.890625
9110		91.796875
9111		89.843750
9112		91.796875
9113		87.890625
9114		95.703125
9115		87.890625
9116		95.703125
9117		89.843750
9118		95.703125
9119		89.843750
9120		95.703125
9121		89.843750
9122		95.703125
9123		87.890625
9124		95.703125
9125		91.796875
9126		93.750000
9127		89.843750
9128		91.796875
9129		87.890625
9130		93.750000
9131		85.937500
9132		93.750000
9133		83.984375
9134		91.796875
9135		83.984375
9136		91.796875
9137		82.031250
9138		89.843750
9139		80.078125
9140		87.890625
9141		80.078125
9142		85.937500
9143		78.125000
9144		82.031250
9145		74.218750
9146		80.078125
9147		72.265625
9148		80.078125
9149		68.359375
9150		76.171875
9151		66.406250
9152		74.218750
9153		62.500000
9154		72.265625
9155		60.546875
9156		68.359375
9157		58.593750
9158		66.406250
9159		56.640625
9160		60.546875
9161		52.734375
9162		56.640625
9163		46.875000
9164		54.687500
9165		42.968750
9166		52.734375
9167		41.015625
9168		48.828125
9169		35.156250
9170		44.921875
9171		33.203125
9172		41.015625
9173		27.343750
9174		37.109375
9175		25.390625
9176		33.203125
9177		21.484375
9178		27.343750
9179		15.625000
9180		23.437500
9181		9.765625
9182		19.531250
9183		5.859375
9184		15.625000
9185		1.953125
9186		11.718750
9187		-1.953125
9188		7.812500
9189		-5.859375
9190		3.906250
9191		-7.812500
9192		0.000000
9193		-13.671875
9194		-7.812500
9195		-17.578125
9196		-11.718750
9197		-23.437500
9198		-13.671875
9199		-27.343750
9200		-17.578125
9201		-31.250000
9202		-21.484375
9203		-35.156250
9204		-25.390625
9205		-39.062500
9206		-29.296875
9207		-42.968750
9208		-33.203125
9209		-44.921875
9210		-39.062500
9211		-48.828125
9212		-42.968750
9213		-52.734375
9214		-44.921875
9215		-56.640625
9216		-48.828125
9217		-60.546875
9218		-50.781250
9219		-62.500000
9220		-54.687500
9221		-64.453125
9222		-56.640625
9223		-68.359375
9224		-58.593750
9225		-68.359375
9226		-62.500000
9227		-70.312500
9228		-66.406250
9229		-72.265625
9230		-68.359375
9231		-76.171875
9232		-68.359375
9233		-78.125000
9234		-70.312500
9235		-78.125000
9236		-72.265625
9237		-80.078125
9238		-72.265625
9239		-80.078125
9240		-74.218750
9241		-82.031250
9242		-74.218750
9243		-80.078125
9244		-76.171875
9245		-80.078125
9246		-78.125000
9247		-82.031250
9248		-74.218750
9249		-82.031250
9250		-74.218750
9251		-82.031250
9252		-74.218750
9253		-80.078125
9254		-74.218750
9255		-80.078125
9256		-72.265625
9257		-78.125000
9258		-72.265625
9259		-78.125000
9260		-70.312500
9261		-74.218750
9262		-70.312500
9263		-72.265625
9264		-66.406250
9265		-72.265625
9266		-64.453125
9267		-70.312500
9268		-62.500000
9269		-68.359375
9270		-58.593750
9271		-64.453125
9272		-56.640625
9273		-62.500000
9274		-54.687500
9275		-60.546875
9276		-52.734375
9277		-54.687500
9278		-50.781250
9279		-50.781250
9280		-46.875000
9281		-48.828125
9282		-41.015625
9283		-46.875000
9284		-37.109375
9285		-42.968750
9286		-33.203125
9287		-39.062500
9288		-29.296875
9289		-35.156250
9290		-25.390625
9291		-33.203125
9292		-21.484375
9293		-27.343750
9294		-19.531250
9295		-21.484375
9296		-15.625000
9297		-17.578125
9298		-9.765625
9299		-15.625000
9300		-5.859375
9301		-9.765625
9302		0.000000
9303		-5.859375
9304		3.906250
9305		-1.953125
9306		7.812500
9307		1.953125
9308		11.718750
9309		5.859375
9310		13.671875
9311		11.718750
9312		17.578125
9313		15.625000
9314		23.437500
9315		17.578125
9316		27.343750
9317		21.484375
9318		31.250000
9319		27.343750
9320		37.109375
9321		31.250000
9322		41.015625
9323		35.156250
9324		44.921875
9325		39.062500
9326		46.875000
9327		44.921875
9328		48.828125
9329		48.828125
9330		52.734375
9331		50.781250
9332		58.593750
9333		52.734375
9334		62.500000
9335		56.640625
9336		64.453125
9337		58.593750
9338		68.359375
9339		62.500000
9340		70.312500
9341		66.406250
9342		74.218750
9343		68.359375
9344		74.218750
9345		72.265625
9346		76.171875
9347		74.218750
9348		80.078125
9349		76.171875
9350		83.984375
9351		78.125000
9352		85.937500
9353		80.078125
9354		87.890625
9355		82.031250
9356		89.843750
9357		83.984375
9358		91.796875
9359		83.984375
9360		91.796875
9361		87.890625
9362		91.796875
9363		89.843750
9364		91.796875
9365		87.890625
9366		93.750000
9367		87.890625
9368		95.703125
9369		87.890625
9370		95.703125
9371		89.843750
9372		95.703125
9373		89.843750
9374		95.703125
9375		89.843750
9376		95.703125
9377		89.843750
9378		93.750000
9379		89.843750
9380		93.750000
9381		87.890625
9382		93.750000
9383		87.890625
9384		93.750000
9385		85.937500
9386		93.750000
9387		83.984375
9388		91.796875
9389		82.031250
9390		89.843750
9391		82.031250
9392		89.843750
9393		80.078125
9394		87.890625
9395		80.078125
9396		83.984375
9397		76.171875
9398		82.031250
9399		72.265625
9400		82.031250
9401		70.312500
9402		80.078125
9403		68.359375
9404		76.171875
9405		66.406250
9406		74.218750
9407		62.500000
9408		72.265625
9409		60.546875
9410		68.359375
9411		58.593750
9412		64.453125
9413		54.687500
9414		60.546875
9415		50.781250
9416		58.593750
9417		46.875000
9418		54.687500
9419		42.968750
9420		50.781250
9421		37.109375
9422		48.828125
9423		35.156250
9424		42.968750
9425		29.296875
9426		41.015625
9427		29.296875
9428		37.109375
9429		25.390625
9430		29.296875
9431		17.578125
9432		25.390625
9433		13.671875
9434		23.437500
9435		9.765625
9436		19.531250
9437		5.859375
9438		15.625000
9439		1.953125
9440		11.718750
9441		-3.906250
9442		5.859375
9443		-5.859375
9444		1.953125
9445		-9.765625
9446		-3.906250
9447		-13.671875
9448		-7.812500
9449		-19.531250
9450		-11.718750
9451		-23.437500
9452		-15.625000
9453		-29.296875
9454		-17.578125
9455		-31.250000
9456		-21.484375
9457		-37.109375
9458		-27.343750
9459		-41.015625
9460		-31.250000
9461		-41.015625
9462		-35.156250
9463		-44.921875
9464		-41.015625
9465		-50.781250
9466		-42.968750
9467		-54.687500
9468		-44.921875
9469		-56.640625
9470		-48.828125
9471		-60.546875
9472		-50.781250
9473		-64.453125
9474		-54.687500
9475		-66.406250
9476		-56.640625
9477		-66.406250
9478		-60.546875
9479		-68.359375
9480		-64.453125
9481		-72.265625
9482		-66.406250
9483		-74.218750
9484		-66.406250
9485		-76.171875
9486		-68.359375
9487		-78.125000
9488		-70.312500
9489		-78.125000
9490		-72.265625
9491		-80.078125
9492		-72.265625
9493		-80.078125
9494		-74.218750
9495		-80.078125
9496		-76.171875
9497		-80.078125
9498		-78.125000
9499		-82.031250
9500		-76.171875
9501		-82.031250
9502		-74.218750
9503		-82.031250
9504		-74.218750
9505		-80.078125
9506		-74.218750
9507		-80.078125
9508		-72.265625
9509		-80.078125
9510		-72.265625
9511		-78.125000
9512		-72.265625
9513		-74.218750
9514		-70.312500
9515		-74.218750
9516		-68.359375
9517		-74.218750
9518		-66.406250
9519		-72.265625
9520		-64.453125
9521		-70.312500
9522		-62.500000
9523		-66.406250
9524		-58.593750
9525		-64.453125
9526		-56.640625
9527		-62.500000
9528		-54.687500
9529		-56.640625
9530		-52.734375
9531		-54.687500
9532		-48.828125
9533		-52.734375
9534		-42.968750
9535		-48.828125
9536		-39.062500
9537		-44.921875
9538		-37.109375
9539		-42.968750
9540		-33.203125
9541		-39.062500
9542		-29.296875
9543		-35.156250
9544		-25.390625
9545		-31.250000
9546		-23.437500
9547		-25.390625
9548		-19.531250
9549		-21.484375
9550		-13.671875
9551		-19.531250
9552		-9.765625
9553		-13.671875
9554		-3.906250
9555		-9.765625
9556		0.000000
9557		-5.859375
9558		3.906250
9559		-1.953125
9560		7.812500
9561		3.906250
9562		11.718750
9563		9.765625
9564		15.625000
9565		13.671875
9566		21.484375
9567		15.625000
9568		25.390625
9569		19.531250
9570		29.296875
9571		23.437500
9572		33.203125
9573		27.343750
9574		39.062500
9575		31.250000
9576		41.015625
9577		35.156250
9578		44.921875
9579		41.015625
9580		46.875000
9581		44.921875
9582		50.781250
9583		48.828125
9584		56.640625
9585		50.781250
9586		60.546875
9587		54.687500
9588		64.453125
9589		56.640625
9590		66.406250
9591		60.546875
9592		68.359375
9593		62.500000
9594		72.265625
9595		66.406250
9596		72.265625
9597		70.312500
9598		74.218750
9599		72.265625
9600		80.078125
9601		74.218750
9602		82.031250
9603		76.171875
9604		83.984375
9605		78.125000
9606		85.937500
9607		80.078125
9608		87.890625
9609		82.031250
9610		89.843750
9611		82.031250
9612		89.843750
9613		85.937500
9614		89.843750
9615		87.890625
9616		89.843750
9617		85.937500
9618		93.750000
9619		87.890625
9620		95.703125
9621		87.890625
9622		95.703125
9623		87.890625
9624		95.703125
9625		87.890625
9626		95.703125
9627		89.843750
9628		95.703125
9629		89.843750
9630		95.703125
9631		91.796875
9632		93.750000
9633		87.890625
9634		93.750000
9635		87.890625
9636		93.750000
9637		85.937500
9638		93.750000
9639		85.937500
9640		91.796875
9641		83.984375
9642		91.796875
9643		82.031250
9644		89.843750
9645		82.031250
9646		87.890625
9647		82.031250
9648		83.984375
9649		78.125000
9650		82.031250
9651		74.218750
9652		82.031250
9653		72.265625
9654		80.078125
9655		70.312500
9656		78.125000
9657		66.406250
9658		76.171875
9659		64.453125
9660		72.265625
9661		60.546875
9662		70.312500
9663		60.546875
9664		64.453125
9665		56.640625
9666		62.500000
9667		50.781250
9668		60.546875
9669		48.828125
9670		56.640625
9671		44.921875
9672		54.687500
9673		41.015625
9674		48.828125
9675		37.109375
9676		46.875000
9677		33.203125
9678		42.968750
9679		31.250000
9680		39.062500
9681		27.343750
9682		33.203125
9683		21.484375
9684		27.343750
9685		15.625000
9686		25.390625
9687		11.718750
9688		21.484375
9689		7.812500
9690		17.578125
9691		3.906250
9692		13.671875
9693		0.000000
9694		9.765625
9695		-3.906250
9696		3.906250
9697		-7.812500
9698		-1.953125
9699		-11.718750
9700		-5.859375
9701		-15.625000
9702		-9.765625
9703		-21.484375
9704		-11.718750
9705		-25.390625
9706		-15.625000
9707		-29.296875
9708		-19.531250
9709		-33.203125
9710		-25.390625
9711		-37.109375
9712		-29.296875
9713		-39.062500
9714		-33.203125
9715		-42.968750
9716		-39.062500
9717		-48.828125
9718		-41.015625
9719		-52.734375
9720		-42.968750
9721		-54.687500
9722		-46.875000
9723		-58.593750
9724		-48.828125
9725		-60.546875
9726		-52.734375
9727		-64.453125
9728		-56.640625
9729		-66.406250
9730		-58.593750
9731		-66.406250
9732		-62.500000
9733		-70.312500
9734		-64.453125
9735		-74.218750
9736		-66.406250
9737		-76.171875
9738		-68.359375
9739		-78.125000
9740		-70.312500
9741		-78.125000
9742		-70.312500
9743		-80.078125
9744		-72.265625
9745		-80.078125
9746		-72.265625
9747		-80.078125
9748		-76.171875
9749		-80.078125
9750		-78.125000
9751		-82.031250
9752		-74.218750
9753		-82.031250
9754		-76.171875
9755		-82.031250
9756		-76.171875
9757		-82.031250
9758		-74.218750
9759		-82.031250
9760		-74.218750
9761		-80.078125
9762		-74.218750
9763		-80.078125
9764		-74.218750
9765		-76.171875
9766		-72.265625
9767		-76.171875
9768		-70.312500
9769		-74.218750
9770		-68.359375
9771		-74.218750
9772		-64.453125
9773		-70.312500
9774		-62.500000
9775		-68.359375
9776		-60.546875
9777		-66.406250
9778		-58.593750
9779		-64.453125
9780		-56.640625
9781		-58.593750
9782		-54.687500
9783		-56.640625
9784		-50.781250
9785		-54.687500
9786		-44.921875
9787		-52.734375
9788		-42.968750
9789		-48.828125
9790		-39.062500
9791		-44.921875
9792		-35.156250
9793		-41.015625
9794		-33.203125
9795		-37.109375
9796		-27.343750
9797		-33.203125
9798		-25.390625
9799		-27.343750
9800		-21.484375
9801		-23.437500
9802		-15.625000
9803		-21.484375
9804		-11.718750
9805		-17.578125
9806		-7.812500
9807		-11.718750
9808		-3.906250
9809		-9.765625
9810		1.953125
9811		-5.859375
9812		3.906250
9813		0.000000
9814		7.812500
9815		5.859375
9816		11.718750
9817		9.765625
9818		15.625000
9819		13.671875
9820		21.484375
9821		15.625000
9822		25.390625
9823		21.484375
9824		31.250000
9825		25.390625
9826		35.156250
9827		29.296875
9828		39.062500
9829		33.203125
9830		42.968750
9831		37.109375
9832		44.921875
9833		42.968750
9834		46.875000
9835		46.875000
9836		52.734375
9837		48.828125
9838		56.640625
9839		52.734375
9840		60.546875
9841		54.687500
9842		64.453125
9843		56.640625
9844		66.406250
9845		60.546875
9846		70.312500
9847		64.453125
9848		70.312500
9849		68.359375
9850		72.265625
9851		72.265625
9852		76.171875
9853		72.265625
9854		80.078125
9855		74.218750
9856		82.031250
9857		76.171875
9858		83.984375
9859		78.125000
9860		85.937500
9861		80.078125
9862		87.890625
9863		82.031250
9864		89.843750
9865		85.937500
9866		87.890625
9867		85.937500
9868		89.843750
9869		85.937500
9870		93.750000
9871		85.937500
9872		93.750000
9873		87.890625
9874		93.750000
9875		87.890625
9876		95.703125
9877		89.843750
9878		95.703125
9879		87.890625
9880		95.703125
9881		89.843750
9882		95.703125
9883		89.843750
9884		93.750000
9885		87.890625
9886		95.703125
9887		87.890625
9888		93.750000
9889		85.937500
9890		93.750000
9891		85.937500
9892		91.796875
9893		83.984375
9894		91.796875
9895		82.031250
9896		89.843750
9897		82.031250
9898		89.843750
9899		82.031250
9900		85.937500
9901		80.078125
9902		83.984375
9903		76.171875
9904		83.984375
9905		74.218750
9906		82.031250
9907		70.312500
9908		80.078125
9909		68.359375
9910		78.125000
9911		66.406250
9912		74.218750
9913		62.500000
9914		72.265625
9915		62.500000
9916		68.359375
9917		58.593750
9918		64.453125
9919		52.734375
9920		60.546875
9921		50.781250
9922		58.593750
9923		46.875000
9924		56.640625
9925		42.968750
9926		52.734375
9927		39.062500
9928		48.828125
9929		35.156250
9930		44.921875
9931		33.203125
9932		41.015625
9933		29.296875
9934		35.156250
9935		25.390625
9936		31.250000
9937		19.531250
9938		29.296875
9939		15.625000
9940		25.390625
9941		11.718750
9942		21.484375
9943		7.812500
9944		15.625000
9945		1.953125
9946		11.718750
9947		-1.953125
9948		7.812500
9949		-3.906250
9950		1.953125
9951		-7.812500
9952		-1.953125
9953		-15.625000
9954		-7.812500
9955		-19.531250
9956		-9.765625
9957		-23.437500
9958		-13.671875
9959		-27.343750
9960		-17.578125
9961		-31.250000
9962		-21.484375
9963		-35.156250
9964		-25.390625
9965		-37.109375
9966		-29.296875
9967		-41.015625
9968		-35.156250
9969		-46.875000
9970		-39.062500
9971		-48.828125
9972		-41.015625
9973		-54.687500
9974		-44.921875
9975		-56.640625
9976		-48.828125
9977		-60.546875
9978		-50.781250
9979		-62.500000
9980		-54.687500
9981		-64.453125
9982		-56.640625
9983		-66.406250
9984		-62.500000
9985		-68.359375
9986		-64.453125
9987		-72.265625
9988		-64.453125
9989		-74.218750
9990		-66.406250
9991		-76.171875
9992		-68.359375
9993		-78.125000
9994		-70.312500
9995		-78.125000
9996		-72.265625
9997		-80.078125
9998		-74.218750
9999		-80.078125
10000		-74.218750
