Channel              :		CH1
Frequency            :		1.975kHz
Period               :		0.506ms
PK-PK                :		95.70mV
Probe attenuation    :		1X
Voltage per ADC value:		0.122070mV
Time interval        :		2.00000us

index		CH1_Voltage(mV)
1		54.687500
2		54.687500
3		52.734375
4		54.687500
5		52.734375
6		54.687500
7		50.781250
8		52.734375
9		48.828125
10		54.687500
11		48.828125
12		52.734375
13		48.828125
14		52.734375
15		46.875000
16		50.781250
17		46.875000
18		50.781250
19		44.921875
20		48.828125
21		44.921875
22		48.828125
23		42.968750
24		46.875000
25		41.015625
26		44.921875
27		41.015625
28		44.921875
29		39.062500
30		42.968750
31		37.109375
32		41.015625
33		35.156250
34		39.062500
35		33.203125
36		39.062500
37		31.250000
38		35.156250
39		31.250000
40		33.203125
41		27.343750
42		31.250000
43		25.390625
44		31.250000
45		25.390625
46		29.296875
47		23.437500
48		27.343750
49		21.484375
50		25.390625
51		17.578125
52		23.437500
53		17.578125
54		19.531250
55		15.625000
56		17.578125
57		11.718750
58		15.625000
59		9.765625
60		15.625000
61		7.812500
62		11.718750
63		5.859375
64		9.765625
65		3.906250
66		7.812500
67		1.953125
68		5.859375
69		0.000000
70		3.906250
71		-1.953125
72		1.953125
73		-3.906250
74		0.000000
75		-5.859375
76		-1.953125
77		-7.812500
78		-3.906250
79		-9.765625
80		-5.859375
81		-11.718750
82		-7.812500
83		-13.671875
84		-9.765625
85		-15.625000
86		-11.718750
87		-17.578125
88		-13.671875
89		-17.578125
90		-15.625000
91		-21.484375
92		-15.625000
93		-21.484375
94		-17.578125
95		-23.437500
96		-19.531250
97		-23.437500
98		-19.531250
99		-25.390625
100		-21.484375
101		-25.390625
102		-23.437500
103		-27.343750
104		-23.437500
105		-29.296875
106		-23.437500
107		-27.343750
108		-25.390625
109		-29.296875
110		-25.390625
111		-29.296875
112		-27.343750
113		-29.296875
114		-27.343750
115		-31.250000
116		-27.343750
117		-31.250000
118		-27.343750
119		-31.250000
120		-27.343750
121		-31.250000
122		-27.343750
123		-31.250000
124		-29.296875
125		-31.250000
126		-27.343750
127		-31.250000
128		-27.343750
129		-29.296875
130		-27.343750
131		-29.296875
132		-27.343750
133		-29.296875
134		-25.390625
135		-27.343750
136		-25.390625
137		-27.343750
138		-23.437500
139		-25.390625
140		-23.437500
141		-25.390625
142		-21.484375
143		-25.390625
144		-21.484375
145		-23.437500
146		-19.531250
147		-21.484375
148		-17.578125
149		-19.531250
150		-17.578125
151		-19.531250
152		-15.625000
153		-17.578125
154		-13.671875
155		-17.578125
156		-13.671875
157		-15.625000
158		-11.718750
159		-13.671875
160		-7.812500
161		-11.718750
162		-7.812500
163		-9.765625
164		-3.906250
165		-7.812500
166		-3.906250
167		-5.859375
168		-1.953125
169		-3.906250
170		0.000000
171		-1.953125
172		1.953125
173		0.000000
174		3.906250
175		3.906250
176		5.859375
177		3.906250
178		7.812500
179		5.859375
180		11.718750
181		9.765625
182		13.671875
183		11.718750
184		15.625000
185		13.671875
186		17.578125
187		15.625000
188		19.531250
189		17.578125
190		21.484375
191		19.531250
192		23.437500
193		21.484375
194		25.390625
195		23.437500
196		27.343750
197		25.390625
198		29.296875
199		27.343750
200		31.250000
201		29.296875
202		33.203125
203		31.250000
204		35.156250
205		33.203125
206		37.109375
207		35.156250
208		37.109375
209		35.156250
210		41.015625
211		37.109375
212		41.015625
213		39.062500
214		42.968750
215		41.015625
216		44.921875
217		42.968750
218		44.921875
219		42.968750
220		46.875000
221		44.921875
222		48.828125
223		46.875000
224		48.828125
225		46.875000
226		50.781250
227		48.828125
228		52.734375
229		48.828125
230		52.734375
231		48.828125
232		52.734375
233		50.781250
234		54.687500
235		50.781250
236		54.687500
237		50.781250
238		54.687500
239		52.734375
240		56.640625
241		52.734375
242		56.640625
243		52.734375
244		56.640625
245		52.734375
246		56.640625
247		52.734375
248		56.640625
249		52.734375
250		56.640625
251		52.734375
252		56.640625
253		52.734375
254		56.640625
255		52.734375
256		56.640625
257		52.734375
258		54.687500
259		52.734375
260		54.687500
261		50.781250
262		54.687500
263		50.781250
264		52.734375
265		48.828125
266		52.734375
267		48.828125
268		50.781250
269		48.828125
270		50.781250
271		46.875000
272		48.828125
273		44.921875
274		48.828125
275		44.921875
276		46.875000
277		42.968750
278		46.875000
279		41.015625
280		44.921875
281		39.062500
282		42.968750
283		39.062500
284		42.968750
285		37.109375
286		41.015625
287		35.156250
288		39.062500
289		33.203125
290		39.062500
291		31.250000
292		35.156250
293		29.296875
294		33.203125
295		27.343750
296		33.203125
297		25.390625
298		29.296875
299		23.437500
300		29.296875
301		23.437500
302		27.343750
303		19.531250
304		23.437500
305		17.578125
306		21.484375
307		15.625000
308		19.531250
309		13.671875
310		17.578125
311		11.718750
312		15.625000
313		9.765625
314		13.671875
315		7.812500
316		11.718750
317		5.859375
318		9.765625
319		3.906250
320		7.812500
321		1.953125
322		5.859375
323		0.000000
324		3.906250
325		-1.953125
326		1.953125
327		-5.859375
328		0.000000
329		-5.859375
330		-1.953125
331		-7.812500
332		-3.906250
333		-9.765625
334		-5.859375
335		-11.718750
336		-7.812500
337		-13.671875
338		-9.765625
339		-15.625000
340		-11.718750
341		-15.625000
342		-13.671875
343		-17.578125
344		-15.625000
345		-19.531250
346		-15.625000
347		-21.484375
348		-17.578125
349		-23.437500
350		-19.531250
351		-23.437500
352		-21.484375
353		-25.390625
354		-21.484375
355		-25.390625
356		-23.437500
357		-27.343750
358		-23.437500
359		-27.343750
360		-25.390625
361		-29.296875
362		-25.390625
363		-29.296875
364		-25.390625
365		-29.296875
366		-27.343750
367		-31.250000
368		-27.343750
369		-29.296875
370		-27.343750
371		-31.250000
372		-27.343750
373		-33.203125
374		-27.343750
375		-31.250000
376		-27.343750
377		-31.250000
378		-27.343750
379		-31.250000
380		-27.343750
381		-31.250000
382		-27.343750
383		-29.296875
384		-25.390625
385		-29.296875
386		-25.390625
387		-29.296875
388		-25.390625
389		-27.343750
390		-23.437500
391		-27.343750
392		-23.437500
393		-25.390625
394		-23.437500
395		-25.390625
396		-21.484375
397		-23.437500
398		-19.531250
399		-23.437500
400		-19.531250
401		-21.484375
402		-17.578125
403		-21.484375
404		-17.578125
405		-19.531250
406		-15.625000
407		-17.578125
408		-13.671875
409		-15.625000
410		-11.718750
411		-13.671875
412		-9.765625
413		-13.671875
414		-7.812500
415		-11.718750
416		-5.859375
417		-7.812500
418		-3.906250
419		-7.812500
420		-1.953125
421		-3.906250
422		0.000000
423		-3.906250
424		1.953125
425		0.000000
426		1.953125
427		1.953125
428		5.859375
429		1.953125
430		7.812500
431		5.859375
432		9.765625
433		5.859375
434		11.718750
435		9.765625
436		13.671875
437		11.718750
438		15.625000
439		13.671875
440		17.578125
441		15.625000
442		19.531250
443		17.578125
444		21.484375
445		19.531250
446		23.437500
447		21.484375
448		25.390625
449		23.437500
450		27.343750
451		25.390625
452		29.296875
453		27.343750
454		33.203125
455		29.296875
456		33.203125
457		31.250000
458		35.156250
459		33.203125
460		37.109375
461		35.156250
462		39.062500
463		35.156250
464		41.015625
465		37.109375
466		42.968750
467		39.062500
468		42.968750
469		41.015625
470		44.921875
471		42.968750
472		46.875000
473		42.968750
474		48.828125
475		44.921875
476		48.828125
477		46.875000
478		50.781250
479		46.875000
480		50.781250
481		48.828125
482		52.734375
483		48.828125
484		52.734375
485		50.781250
486		52.734375
487		50.781250
488		54.687500
489		50.781250
490		54.687500
491		52.734375
492		54.687500
493		52.734375
494		54.687500
495		52.734375
496		56.640625
497		52.734375
498		56.640625
499		52.734375
500		56.640625
501		52.734375
502		56.640625
503		52.734375
504		56.640625
505		52.734375
506		56.640625
507		50.781250
508		56.640625
509		52.734375
510		54.687500
511		52.734375
512		54.687500
513		50.781250
514		54.687500
515		50.781250
516		54.687500
517		48.828125
518		52.734375
519		48.828125
520		52.734375
521		48.828125
522		52.734375
523		46.875000
524		50.781250
525		46.875000
526		50.781250
527		44.921875
528		48.828125
529		42.968750
530		46.875000
531		42.968750
532		44.921875
533		41.015625
534		44.921875
535		41.015625
536		42.968750
537		39.062500
538		42.968750
539		35.156250
540		41.015625
541		35.156250
542		39.062500
543		33.203125
544		37.109375
545		31.250000
546		35.156250
547		29.296875
548		33.203125
549		27.343750
550		31.250000
551		25.390625
552		29.296875
553		23.437500
554		27.343750
555		21.484375
556		25.390625
557		19.531250
558		23.437500
559		17.578125
560		21.484375
561		15.625000
562		19.531250
563		13.671875
564		17.578125
565		11.718750
566		15.625000
567		9.765625
568		13.671875
569		7.812500
570		11.718750
571		3.906250
572		9.765625
573		3.906250
574		7.812500
575		1.953125
576		5.859375
577		0.000000
578		1.953125
579		-3.906250
580		0.000000
581		-5.859375
582		-1.953125
583		-7.812500
584		-3.906250
585		-7.812500
586		-3.906250
587		-9.765625
588		-5.859375
589		-13.671875
590		-7.812500
591		-13.671875
592		-9.765625
593		-15.625000
594		-11.718750
595		-17.578125
596		-13.671875
597		-19.531250
598		-15.625000
599		-19.531250
600		-17.578125
601		-21.484375
602		-17.578125
603		-23.437500
604		-19.531250
605		-23.437500
606		-21.484375
607		-25.390625
608		-21.484375
609		-25.390625
610		-21.484375
611		-27.343750
612		-23.437500
613		-29.296875
614		-25.390625
615		-29.296875
616		-25.390625
617		-29.296875
618		-25.390625
619		-31.250000
620		-27.343750
621		-31.250000
622		-27.343750
623		-31.250000
624		-27.343750
625		-31.250000
626		-27.343750
627		-31.250000
628		-29.296875
629		-29.296875
630		-27.343750
631		-31.250000
632		-27.343750
633		-31.250000
634		-27.343750
635		-29.296875
636		-27.343750
637		-29.296875
638		-25.390625
639		-29.296875
640		-25.390625
641		-27.343750
642		-25.390625
643		-29.296875
644		-23.437500
645		-25.390625
646		-23.437500
647		-25.390625
648		-21.484375
649		-25.390625
650		-21.484375
651		-23.437500
652		-19.531250
653		-21.484375
654		-17.578125
655		-21.484375
656		-17.578125
657		-19.531250
658		-15.625000
659		-19.531250
660		-13.671875
661		-15.625000
662		-13.671875
663		-15.625000
664		-11.718750
665		-13.671875
666		-9.765625
667		-11.718750
668		-7.812500
669		-9.765625
670		-5.859375
671		-7.812500
672		-3.906250
673		-5.859375
674		-1.953125
675		-3.906250
676		0.000000
677		-1.953125
678		1.953125
679		0.000000
680		3.906250
681		1.953125
682		5.859375
683		3.906250
684		7.812500
685		5.859375
686		9.765625
687		7.812500
688		11.718750
689		9.765625
690		15.625000
691		11.718750
692		15.625000
693		13.671875
694		17.578125
695		17.578125
696		19.531250
697		19.531250
698		23.437500
699		21.484375
700		25.390625
701		23.437500
702		27.343750
703		25.390625
704		27.343750
705		25.390625
706		31.250000
707		27.343750
708		33.203125
709		29.296875
710		33.203125
711		33.203125
712		35.156250
713		33.203125
714		37.109375
715		35.156250
716		39.062500
717		37.109375
718		41.015625
719		39.062500
720		42.968750
721		41.015625
722		44.921875
723		41.015625
724		44.921875
725		42.968750
726		46.875000
727		42.968750
728		46.875000
729		46.875000
730		48.828125
731		46.875000
732		50.781250
733		48.828125
734		50.781250
735		48.828125
736		52.734375
737		48.828125
738		52.734375
739		50.781250
740		52.734375
741		50.781250
742		54.687500
743		52.734375
744		56.640625
745		52.734375
746		54.687500
747		52.734375
748		56.640625
749		52.734375
750		56.640625
751		52.734375
752		56.640625
753		52.734375
754		56.640625
755		52.734375
756		56.640625
757		52.734375
758		56.640625
759		52.734375
760		56.640625
761		52.734375
762		54.687500
763		52.734375
764		54.687500
765		50.781250
766		54.687500
767		50.781250
768		54.687500
769		50.781250
770		54.687500
771		50.781250
772		52.734375
773		48.828125
774		52.734375
775		48.828125
776		50.781250
777		46.875000
778		50.781250
779		44.921875
780		48.828125
781		44.921875
782		48.828125
783		42.968750
784		46.875000
785		41.015625
786		44.921875
787		41.015625
788		44.921875
789		39.062500
790		42.968750
791		37.109375
792		41.015625
793		35.156250
794		39.062500
795		35.156250
796		37.109375
797		33.203125
798		37.109375
799		31.250000
800		35.156250
801		29.296875
802		33.203125
803		27.343750
804		31.250000
805		25.390625
806		29.296875
807		23.437500
808		27.343750
809		21.484375
810		25.390625
811		19.531250
812		23.437500
813		17.578125
814		21.484375
815		15.625000
816		19.531250
817		11.718750
818		17.578125
819		11.718750
820		15.625000
821		7.812500
822		13.671875
823		5.859375
824		9.765625
825		3.906250
826		9.765625
827		1.953125
828		5.859375
829		0.000000
830		3.906250
831		-1.953125
832		1.953125
833		-3.906250
834		0.000000
835		-5.859375
836		-1.953125
837		-7.812500
838		-3.906250
839		-9.765625
840		-5.859375
841		-11.718750
842		-7.812500
843		-13.671875
844		-9.765625
845		-13.671875
846		-9.765625
847		-15.625000
848		-11.718750
849		-17.578125
850		-13.671875
851		-19.531250
852		-15.625000
853		-21.484375
854		-17.578125
855		-21.484375
856		-19.531250
857		-23.437500
858		-19.531250
859		-23.437500
860		-21.484375
861		-25.390625
862		-21.484375
863		-27.343750
864		-23.437500
865		-27.343750
866		-23.437500
867		-29.296875
868		-25.390625
869		-29.296875
870		-25.390625
871		-29.296875
872		-25.390625
873		-29.296875
874		-27.343750
875		-29.296875
876		-27.343750
877		-31.250000
878		-27.343750
879		-29.296875
880		-27.343750
881		-31.250000
882		-27.343750
883		-31.250000
884		-27.343750
885		-31.250000
886		-27.343750
887		-31.250000
888		-27.343750
889		-31.250000
890		-25.390625
891		-29.296875
892		-25.390625
893		-29.296875
894		-25.390625
895		-27.343750
896		-25.390625
897		-27.343750
898		-23.437500
899		-27.343750
900		-23.437500
901		-25.390625
902		-21.484375
903		-25.390625
904		-21.484375
905		-23.437500
906		-19.531250
907		-21.484375
908		-19.531250
909		-19.531250
910		-17.578125
911		-19.531250
912		-15.625000
913		-17.578125
914		-13.671875
915		-15.625000
916		-11.718750
917		-13.671875
918		-9.765625
919		-13.671875
920		-9.765625
921		-11.718750
922		-7.812500
923		-9.765625
924		-5.859375
925		-7.812500
926		-3.906250
927		-5.859375
928		0.000000
929		-3.906250
930		0.000000
931		-1.953125
932		1.953125
933		0.000000
934		3.906250
935		1.953125
936		5.859375
937		3.906250
938		9.765625
939		5.859375
940		11.718750
941		7.812500
942		13.671875
943		11.718750
944		15.625000
945		13.671875
946		17.578125
947		15.625000
948		19.531250
949		17.578125
950		21.484375
951		19.531250
952		23.437500
953		21.484375
954		25.390625
955		23.437500
956		27.343750
957		25.390625
958		29.296875
959		27.343750
960		31.250000
961		29.296875
962		33.203125
963		31.250000
964		35.156250
965		33.203125
966		37.109375
967		33.203125
968		37.109375
969		37.109375
970		39.062500
971		37.109375
972		41.015625
973		39.062500
974		42.968750
975		41.015625
976		44.921875
977		42.968750
978		44.921875
979		42.968750
980		46.875000
981		44.921875
982		48.828125
983		44.921875
984		50.781250
985		46.875000
986		50.781250
987		48.828125
988		52.734375
989		48.828125
990		52.734375
991		50.781250
992		54.687500
993		50.781250
994		54.687500
995		50.781250
996		54.687500
997		52.734375
998		54.687500
999		52.734375
1000		56.640625
1001		52.734375
1002		56.640625
1003		52.734375
1004		56.640625
1005		52.734375
1006		56.640625
1007		52.734375
1008		56.640625
1009		52.734375
1010		56.640625
1011		52.734375
1012		56.640625
1013		52.734375
1014		56.640625
1015		52.734375
1016		56.640625
1017		52.734375
1018		56.640625
1019		50.781250
1020		54.687500
1021		50.781250
1022		54.687500
1023		50.781250
1024		54.687500
1025		48.828125
1026		52.734375
1027		48.828125
1028		52.734375
1029		48.828125
1030		50.781250
1031		46.875000
1032		50.781250
1033		44.921875
1034		48.828125
1035		44.921875
1036		48.828125
1037		42.968750
1038		46.875000
1039		42.968750
1040		46.875000
1041		41.015625
1042		44.921875
1043		39.062500
1044		42.968750
1045		37.109375
1046		41.015625
1047		35.156250
1048		39.062500
1049		33.203125
1050		37.109375
1051		33.203125
1052		37.109375
1053		31.250000
1054		35.156250
1055		29.296875
1056		33.203125
1057		27.343750
1058		31.250000
1059		25.390625
1060		29.296875
1061		23.437500
1062		27.343750
1063		21.484375
1064		25.390625
1065		19.531250
1066		23.437500
1067		17.578125
1068		19.531250
1069		15.625000
1070		19.531250
1071		11.718750
1072		15.625000
1073		9.765625
1074		13.671875
1075		7.812500
1076		11.718750
1077		5.859375
1078		9.765625
1079		3.906250
1080		7.812500
1081		1.953125
1082		5.859375
1083		0.000000
1084		3.906250
1085		-1.953125
1086		1.953125
1087		-3.906250
1088		0.000000
1089		-5.859375
1090		-1.953125
1091		-7.812500
1092		-3.906250
1093		-9.765625
1094		-5.859375
1095		-11.718750
1096		-7.812500
1097		-13.671875
1098		-9.765625
1099		-13.671875
1100		-11.718750
1101		-17.578125
1102		-11.718750
1103		-17.578125
1104		-13.671875
1105		-19.531250
1106		-15.625000
1107		-21.484375
1108		-17.578125
1109		-23.437500
1110		-17.578125
1111		-23.437500
1112		-19.531250
1113		-25.390625
1114		-21.484375
1115		-25.390625
1116		-23.437500
1117		-27.343750
1118		-23.437500
1119		-27.343750
1120		-23.437500
1121		-27.343750
1122		-25.390625
1123		-29.296875
1124		-25.390625
1125		-29.296875
1126		-25.390625
1127		-29.296875
1128		-27.343750
1129		-31.250000
1130		-27.343750
1131		-29.296875
1132		-27.343750
1133		-29.296875
1134		-27.343750
1135		-31.250000
1136		-27.343750
1137		-31.250000
1138		-27.343750
1139		-29.296875
1140		-27.343750
1141		-31.250000
1142		-25.390625
1143		-31.250000
1144		-25.390625
1145		-29.296875
1146		-25.390625
1147		-29.296875
1148		-25.390625
1149		-27.343750
1150		-23.437500
1151		-27.343750
1152		-23.437500
1153		-25.390625
1154		-23.437500
1155		-25.390625
1156		-21.484375
1157		-23.437500
1158		-21.484375
1159		-23.437500
1160		-19.531250
1161		-21.484375
1162		-17.578125
1163		-19.531250
1164		-15.625000
1165		-17.578125
1166		-15.625000
1167		-15.625000
1168		-13.671875
1169		-15.625000
1170		-11.718750
1171		-13.671875
1172		-9.765625
1173		-11.718750
1174		-7.812500
1175		-9.765625
1176		-5.859375
1177		-7.812500
1178		-3.906250
1179		-5.859375
1180		-1.953125
1181		-5.859375
1182		0.000000
1183		-1.953125
1184		1.953125
1185		0.000000
1186		3.906250
1187		1.953125
1188		5.859375
1189		3.906250
1190		7.812500
1191		5.859375
1192		9.765625
1193		7.812500
1194		11.718750
1195		9.765625
1196		13.671875
1197		11.718750
1198		15.625000
1199		13.671875
1200		17.578125
1201		15.625000
1202		21.484375
1203		17.578125
1204		21.484375
1205		19.531250
1206		23.437500
1207		21.484375
1208		25.390625
1209		23.437500
1210		27.343750
1211		25.390625
1212		31.250000
1213		29.296875
1214		33.203125
1215		29.296875
1216		33.203125
1217		31.250000
1218		35.156250
1219		33.203125
1220		37.109375
1221		35.156250
1222		39.062500
1223		37.109375
1224		41.015625
1225		39.062500
1226		42.968750
1227		39.062500
1228		42.968750
1229		41.015625
1230		44.921875
1231		42.968750
1232		46.875000
1233		44.921875
1234		46.875000
1235		44.921875
1236		48.828125
1237		46.875000
1238		50.781250
1239		46.875000
1240		50.781250
1241		48.828125
1242		50.781250
1243		48.828125
1244		52.734375
1245		50.781250
1246		52.734375
1247		50.781250
1248		54.687500
1249		52.734375
1250		54.687500
1251		52.734375
1252		54.687500
1253		52.734375
1254		56.640625
1255		52.734375
1256		56.640625
1257		54.687500
1258		56.640625
1259		54.687500
1260		56.640625
1261		52.734375
1262		56.640625
1263		52.734375
1264		56.640625
1265		52.734375
1266		56.640625
1267		54.687500
1268		56.640625
1269		52.734375
1270		56.640625
1271		52.734375
1272		56.640625
1273		52.734375
1274		54.687500
1275		50.781250
1276		54.687500
1277		50.781250
1278		54.687500
1279		48.828125
1280		52.734375
1281		48.828125
1282		52.734375
1283		46.875000
1284		50.781250
1285		46.875000
1286		50.781250
1287		44.921875
1288		48.828125
1289		44.921875
1290		46.875000
1291		42.968750
1292		46.875000
1293		41.015625
1294		44.921875
1295		41.015625
1296		44.921875
1297		39.062500
1298		42.968750
1299		37.109375
1300		41.015625
1301		35.156250
1302		39.062500
1303		33.203125
1304		37.109375
1305		33.203125
1306		35.156250
1307		29.296875
1308		33.203125
1309		29.296875
1310		33.203125
1311		25.390625
1312		31.250000
1313		25.390625
1314		29.296875
1315		21.484375
1316		27.343750
1317		21.484375
1318		23.437500
1319		17.578125
1320		21.484375
1321		15.625000
1322		19.531250
1323		13.671875
1324		19.531250
1325		11.718750
1326		15.625000
1327		9.765625
1328		13.671875
1329		7.812500
1330		11.718750
1331		3.906250
1332		9.765625
1333		3.906250
1334		7.812500
1335		1.953125
1336		5.859375
1337		0.000000
1338		3.906250
1339		-1.953125
1340		1.953125
1341		-3.906250
1342		0.000000
1343		-5.859375
1344		-1.953125
1345		-7.812500
1346		-3.906250
1347		-9.765625
1348		-5.859375
1349		-11.718750
1350		-7.812500
1351		-13.671875
1352		-9.765625
1353		-15.625000
1354		-11.718750
1355		-17.578125
1356		-13.671875
1357		-17.578125
1358		-15.625000
1359		-19.531250
1360		-15.625000
1361		-21.484375
1362		-17.578125
1363		-23.437500
1364		-19.531250
1365		-23.437500
1366		-19.531250
1367		-25.390625
1368		-21.484375
1369		-27.343750
1370		-23.437500
1371		-27.343750
1372		-23.437500
1373		-27.343750
1374		-23.437500
1375		-27.343750
1376		-25.390625
1377		-29.296875
1378		-25.390625
1379		-29.296875
1380		-25.390625
1381		-31.250000
1382		-27.343750
1383		-29.296875
1384		-27.343750
1385		-29.296875
1386		-27.343750
1387		-31.250000
1388		-27.343750
1389		-31.250000
1390		-27.343750
1391		-31.250000
1392		-27.343750
1393		-29.296875
1394		-27.343750
1395		-29.296875
1396		-25.390625
1397		-29.296875
1398		-25.390625
1399		-29.296875
1400		-25.390625
1401		-27.343750
1402		-25.390625
1403		-27.343750
1404		-23.437500
1405		-27.343750
1406		-23.437500
1407		-25.390625
1408		-21.484375
1409		-23.437500
1410		-21.484375
1411		-23.437500
1412		-19.531250
1413		-21.484375
1414		-19.531250
1415		-21.484375
1416		-17.578125
1417		-19.531250
1418		-15.625000
1419		-17.578125
1420		-15.625000
1421		-17.578125
1422		-13.671875
1423		-15.625000
1424		-11.718750
1425		-13.671875
1426		-9.765625
1427		-11.718750
1428		-7.812500
1429		-9.765625
1430		-5.859375
1431		-7.812500
1432		-3.906250
1433		-5.859375
1434		-1.953125
1435		-3.906250
1436		0.000000
1437		-1.953125
1438		1.953125
1439		0.000000
1440		3.906250
1441		1.953125
1442		5.859375
1443		3.906250
1444		9.765625
1445		5.859375
1446		9.765625
1447		7.812500
1448		11.718750
1449		9.765625
1450		13.671875
1451		11.718750
1452		15.625000
1453		13.671875
1454		19.531250
1455		17.578125
1456		21.484375
1457		19.531250
1458		23.437500
1459		21.484375
1460		25.390625
1461		23.437500
1462		27.343750
1463		25.390625
1464		29.296875
1465		27.343750
1466		31.250000
1467		29.296875
1468		31.250000
1469		31.250000
1470		33.203125
1471		33.203125
1472		37.109375
1473		35.156250
1474		37.109375
1475		35.156250
1476		39.062500
1477		37.109375
1478		41.015625
1479		39.062500
1480		42.968750
1481		39.062500
1482		44.921875
1483		41.015625
1484		44.921875
1485		42.968750
1486		46.875000
1487		44.921875
1488		48.828125
1489		44.921875
1490		48.828125
1491		46.875000
1492		50.781250
1493		48.828125
1494		50.781250
1495		48.828125
1496		52.734375
1497		50.781250
1498		52.734375
1499		50.781250
1500		54.687500
1501		52.734375
1502		54.687500
1503		52.734375
1504		54.687500
1505		52.734375
1506		56.640625
1507		52.734375
1508		56.640625
1509		52.734375
1510		56.640625
1511		52.734375
1512		56.640625
1513		52.734375
1514		56.640625
1515		54.687500
1516		56.640625
1517		52.734375
1518		56.640625
1519		54.687500
1520		56.640625
1521		52.734375
1522		56.640625
1523		52.734375
1524		56.640625
1525		52.734375
1526		54.687500
1527		52.734375
1528		54.687500
1529		50.781250
1530		54.687500
1531		50.781250
1532		54.687500
1533		48.828125
1534		52.734375
1535		48.828125
1536		52.734375
1537		46.875000
1538		50.781250
1539		46.875000
1540		50.781250
1541		44.921875
1542		48.828125
1543		44.921875
1544		48.828125
1545		42.968750
1546		46.875000
1547		41.015625
1548		44.921875
1549		39.062500
1550		42.968750
1551		39.062500
1552		41.015625
1553		37.109375
1554		41.015625
1555		35.156250
1556		39.062500
1557		33.203125
1558		37.109375
1559		31.250000
1560		35.156250
1561		29.296875
1562		33.203125
1563		27.343750
1564		31.250000
1565		25.390625
1566		29.296875
1567		23.437500
1568		27.343750
1569		21.484375
1570		25.390625
1571		17.578125
1572		23.437500
1573		17.578125
1574		21.484375
1575		15.625000
1576		19.531250
1577		13.671875
1578		17.578125
1579		11.718750
1580		15.625000
1581		9.765625
1582		13.671875
1583		7.812500
1584		11.718750
1585		5.859375
1586		7.812500
1587		3.906250
1588		5.859375
1589		0.000000
1590		5.859375
1591		0.000000
1592		1.953125
1593		-3.906250
1594		1.953125
1595		-5.859375
1596		-1.953125
1597		-5.859375
1598		-3.906250
1599		-9.765625
1600		-5.859375
1601		-9.765625
1602		-5.859375
1603		-11.718750
1604		-9.765625
1605		-13.671875
1606		-9.765625
1607		-15.625000
1608		-11.718750
1609		-17.578125
1610		-13.671875
1611		-19.531250
1612		-15.625000
1613		-19.531250
1614		-17.578125
1615		-21.484375
1616		-17.578125
1617		-23.437500
1618		-19.531250
1619		-23.437500
1620		-21.484375
1621		-25.390625
1622		-21.484375
1623		-27.343750
1624		-21.484375
1625		-27.343750
1626		-23.437500
1627		-27.343750
1628		-23.437500
1629		-29.296875
1630		-25.390625
1631		-29.296875
1632		-25.390625
1633		-31.250000
1634		-25.390625
1635		-29.296875
1636		-27.343750
1637		-29.296875
1638		-27.343750
1639		-31.250000
1640		-27.343750
1641		-31.250000
1642		-27.343750
1643		-29.296875
1644		-27.343750
1645		-31.250000
1646		-27.343750
1647		-31.250000
1648		-27.343750
1649		-29.296875
1650		-27.343750
1651		-29.296875
1652		-25.390625
1653		-29.296875
1654		-25.390625
1655		-29.296875
1656		-23.437500
1657		-27.343750
1658		-23.437500
1659		-25.390625
1660		-23.437500
1661		-25.390625
1662		-21.484375
1663		-25.390625
1664		-19.531250
1665		-23.437500
1666		-19.531250
1667		-23.437500
1668		-17.578125
1669		-19.531250
1670		-15.625000
1671		-19.531250
1672		-15.625000
1673		-17.578125
1674		-13.671875
1675		-15.625000
1676		-13.671875
1677		-15.625000
1678		-11.718750
1679		-11.718750
1680		-7.812500
1681		-13.671875
1682		-7.812500
1683		-11.718750
1684		-3.906250
1685		-7.812500
1686		-3.906250
1687		-5.859375
1688		-1.953125
1689		-3.906250
1690		1.953125
1691		-3.906250
1692		3.906250
1693		-1.953125
1694		5.859375
1695		1.953125
1696		7.812500
1697		3.906250
1698		9.765625
1699		5.859375
1700		11.718750
1701		7.812500
1702		13.671875
1703		11.718750
1704		15.625000
1705		13.671875
1706		17.578125
1707		13.671875
1708		21.484375
1709		15.625000
1710		21.484375
1711		19.531250
1712		23.437500
1713		21.484375
1714		27.343750
1715		21.484375
1716		29.296875
1717		23.437500
1718		31.250000
1719		27.343750
1720		31.250000
1721		29.296875
1722		33.203125
1723		29.296875
1724		37.109375
1725		31.250000
1726		39.062500
1727		33.203125
1728		41.015625
1729		35.156250
1730		41.015625
1731		35.156250
1732		42.968750
1733		37.109375
1734		44.921875
1735		39.062500
1736		44.921875
1737		42.968750
1738		44.921875
1739		42.968750
1740		48.828125
1741		42.968750
1742		50.781250
1743		44.921875
1744		50.781250
1745		44.921875
1746		52.734375
1747		46.875000
1748		52.734375
1749		46.875000
1750		54.687500
1751		48.828125
1752		54.687500
1753		50.781250
1754		54.687500
1755		50.781250
1756		54.687500
1757		50.781250
1758		56.640625
1759		50.781250
1760		56.640625
1761		50.781250
1762		58.593750
1763		50.781250
1764		58.593750
1765		50.781250
1766		58.593750
1767		52.734375
1768		58.593750
1769		52.734375
1770		56.640625
1771		54.687500
1772		56.640625
1773		52.734375
1774		58.593750
1775		50.781250
1776		58.593750
1777		50.781250
1778		56.640625
1779		48.828125
1780		56.640625
1781		50.781250
1782		56.640625
1783		48.828125
1784		56.640625
1785		48.828125
1786		56.640625
1787		48.828125
1788		52.734375
1789		48.828125
1790		50.781250
1791		44.921875
1792		52.734375
1793		44.921875
1794		50.781250
1795		42.968750
1796		50.781250
1797		41.015625
1798		48.828125
1799		41.015625
1800		48.828125
1801		39.062500
1802		46.875000
1803		39.062500
1804		42.968750
1805		37.109375
1806		41.015625
1807		35.156250
1808		39.062500
1809		33.203125
1810		39.062500
1811		31.250000
1812		37.109375
1813		29.296875
1814		35.156250
1815		27.343750
1816		33.203125
1817		25.390625
1818		31.250000
1819		25.390625
1820		29.296875
1821		23.437500
1822		27.343750
1823		17.578125
1824		25.390625
1825		15.625000
1826		25.390625
1827		13.671875
1828		21.484375
1829		11.718750
1830		21.484375
1831		11.718750
1832		17.578125
1833		7.812500
1834		15.625000
1835		7.812500
1836		13.671875
1837		5.859375
1838		9.765625
1839		3.906250
1840		7.812500
1841		0.000000
1842		7.812500
1843		-1.953125
1844		5.859375
1845		-3.906250
1846		3.906250
1847		-5.859375
1848		1.953125
1849		-7.812500
1850		0.000000
1851		-9.765625
1852		-1.953125
1853		-9.765625
1854		-3.906250
1855		-11.718750
1856		-7.812500
1857		-15.625000
1858		-9.765625
1859		-17.578125
1860		-9.765625
1861		-17.578125
1862		-9.765625
1863		-19.531250
1864		-11.718750
1865		-21.484375
1866		-13.671875
1867		-23.437500
1868		-15.625000
1869		-23.437500
1870		-15.625000
1871		-23.437500
1872		-19.531250
1873		-25.390625
1874		-21.484375
1875		-27.343750
1876		-21.484375
1877		-29.296875
1878		-21.484375
1879		-29.296875
1880		-23.437500
1881		-31.250000
1882		-23.437500
1883		-31.250000
1884		-23.437500
1885		-31.250000
1886		-25.390625
1887		-29.296875
1888		-25.390625
1889		-29.296875
1890		-27.343750
1891		-33.203125
1892		-25.390625
1893		-33.203125
1894		-25.390625
1895		-31.250000
1896		-25.390625
1897		-33.203125
1898		-25.390625
1899		-33.203125
1900		-25.390625
1901		-31.250000
1902		-25.390625
1903		-31.250000
1904		-25.390625
1905		-29.296875
1906		-27.343750
1907		-29.296875
1908		-23.437500
1909		-29.296875
1910		-23.437500
1911		-29.296875
1912		-21.484375
1913		-27.343750
1914		-21.484375
1915		-27.343750
1916		-19.531250
1917		-25.390625
1918		-17.578125
1919		-25.390625
1920		-17.578125
1921		-21.484375
1922		-17.578125
1923		-19.531250
1924		-17.578125
1925		-21.484375
1926		-13.671875
1927		-19.531250
1928		-11.718750
1929		-17.578125
1930		-9.765625
1931		-15.625000
1932		-7.812500
1933		-13.671875
1934		-5.859375
1935		-11.718750
1936		-3.906250
1937		-9.765625
1938		-3.906250
1939		-5.859375
1940		-3.906250
1941		-5.859375
1942		0.000000
1943		-5.859375
1944		3.906250
1945		-1.953125
1946		5.859375
1947		-1.953125
1948		7.812500
1949		1.953125
1950		9.765625
1951		3.906250
1952		11.718750
1953		5.859375
1954		11.718750
1955		9.765625
1956		13.671875
1957		11.718750
1958		15.625000
1959		11.718750
1960		19.531250
1961		13.671875
1962		21.484375
1963		15.625000
1964		23.437500
1965		17.578125
1966		25.390625
1967		19.531250
1968		27.343750
1969		21.484375
1970		29.296875
1971		25.390625
1972		29.296875
1973		27.343750
1974		31.250000
1975		29.296875
1976		35.156250
1977		29.296875
1978		37.109375
1979		31.250000
1980		39.062500
1981		33.203125
1982		41.015625
1983		33.203125
1984		42.968750
1985		37.109375
1986		44.921875
1987		37.109375
1988		44.921875
1989		41.015625
1990		44.921875
1991		41.015625
1992		48.828125
1993		41.015625
1994		48.828125
1995		42.968750
1996		50.781250
1997		44.921875
1998		50.781250
1999		44.921875
2000		52.734375
2001		46.875000
2002		52.734375
2003		46.875000
2004		54.687500
2005		50.781250
2006		52.734375
2007		50.781250
2008		54.687500
2009		50.781250
2010		56.640625
2011		48.828125
2012		56.640625
2013		50.781250
2014		58.593750
2015		50.781250
2016		58.593750
2017		50.781250
2018		58.593750
2019		50.781250
2020		58.593750
2021		52.734375
2022		58.593750
2023		54.687500
2024		56.640625
2025		50.781250
2026		58.593750
2027		50.781250
2028		58.593750
2029		50.781250
2030		56.640625
2031		50.781250
2032		56.640625
2033		50.781250
2034		56.640625
2035		48.828125
2036		56.640625
2037		48.828125
2038		54.687500
2039		50.781250
2040		52.734375
2041		48.828125
2042		52.734375
2043		46.875000
2044		52.734375
2045		44.921875
2046		52.734375
2047		42.968750
2048		50.781250
2049		42.968750
2050		48.828125
2051		41.015625
2052		48.828125
2053		39.062500
2054		46.875000
2055		41.015625
2056		44.921875
2057		39.062500
2058		41.015625
2059		35.156250
2060		41.015625
2061		33.203125
2062		41.015625
2063		31.250000
2064		39.062500
2065		29.296875
2066		37.109375
2067		27.343750
2068		35.156250
2069		25.390625
2070		33.203125
2071		25.390625
2072		31.250000
2073		23.437500
2074		27.343750
2075		19.531250
2076		25.390625
2077		17.578125
2078		25.390625
2079		15.625000
2080		23.437500
2081		13.671875
2082		21.484375
2083		11.718750
2084		19.531250
2085		9.765625
2086		17.578125
2087		7.812500
2088		15.625000
2089		7.812500
2090		11.718750
2091		5.859375
2092		9.765625
2093		1.953125
2094		9.765625
2095		0.000000
2096		7.812500
2097		-1.953125
2098		5.859375
2099		-5.859375
2100		3.906250
2101		-7.812500
2102		1.953125
2103		-9.765625
2104		-1.953125
2105		-9.765625
2106		-3.906250
2107		-9.765625
2108		-5.859375
2109		-13.671875
2110		-7.812500
2111		-15.625000
2112		-7.812500
2113		-17.578125
2114		-9.765625
2115		-19.531250
2116		-11.718750
2117		-19.531250
2118		-13.671875
2119		-23.437500
2120		-13.671875
2121		-23.437500
2122		-15.625000
2123		-21.484375
2124		-19.531250
2125		-23.437500
2126		-21.484375
2127		-27.343750
2128		-19.531250
2129		-27.343750
2130		-21.484375
2131		-29.296875
2132		-21.484375
2133		-29.296875
2134		-23.437500
2135		-31.250000
2136		-23.437500
2137		-31.250000
2138		-23.437500
2139		-31.250000
2140		-25.390625
2141		-29.296875
2142		-27.343750
2143		-31.250000
2144		-25.390625
2145		-33.203125
2146		-25.390625
2147		-33.203125
2148		-25.390625
2149		-33.203125
2150		-25.390625
2151		-33.203125
2152		-25.390625
2153		-33.203125
2154		-25.390625
2155		-31.250000
2156		-25.390625
2157		-29.296875
2158		-27.343750
2159		-29.296875
2160		-25.390625
2161		-31.250000
2162		-23.437500
2163		-29.296875
2164		-23.437500
2165		-29.296875
2166		-21.484375
2167		-27.343750
2168		-21.484375
2169		-27.343750
2170		-19.531250
2171		-25.390625
2172		-19.531250
2173		-23.437500
2174		-19.531250
2175		-21.484375
2176		-17.578125
2177		-21.484375
2178		-13.671875
2179		-19.531250
2180		-11.718750
2181		-19.531250
2182		-11.718750
2183		-17.578125
2184		-9.765625
2185		-15.625000
2186		-7.812500
2187		-13.671875
2188		-5.859375
2189		-11.718750
2190		-5.859375
2191		-7.812500
2192		-3.906250
2193		-7.812500
2194		0.000000
2195		-5.859375
2196		1.953125
2197		-3.906250
2198		3.906250
2199		-1.953125
2200		5.859375
2201		0.000000
2202		7.812500
2203		1.953125
2204		9.765625
2205		3.906250
2206		11.718750
2207		7.812500
2208		11.718750
2209		9.765625
2210		13.671875
2211		9.765625
2212		17.578125
2213		11.718750
2214		19.531250
2215		13.671875
2216		21.484375
2217		15.625000
2218		23.437500
2219		17.578125
2220		27.343750
2221		19.531250
2222		29.296875
2223		21.484375
2224		27.343750
2225		27.343750
2226		31.250000
2227		27.343750
2228		33.203125
2229		27.343750
2230		37.109375
2231		29.296875
2232		37.109375
2233		31.250000
2234		39.062500
2235		33.203125
2236		41.015625
2237		35.156250
2238		42.968750
2239		37.109375
2240		42.968750
2241		41.015625
2242		42.968750
2243		42.968750
2244		44.921875
2245		41.015625
2246		48.828125
2247		42.968750
2248		48.828125
2249		42.968750
2250		50.781250
2251		44.921875
2252		52.734375
2253		44.921875
2254		52.734375
2255		46.875000
2256		54.687500
2257		48.828125
2258		52.734375
2259		50.781250
2260		52.734375
2261		48.828125
2262		56.640625
2263		48.828125
2264		56.640625
2265		50.781250
2266		56.640625
2267		50.781250
2268		58.593750
2269		50.781250
2270		58.593750
2271		50.781250
2272		58.593750
2273		50.781250
2274		58.593750
2275		54.687500
2276		56.640625
2277		50.781250
2278		58.593750
2279		50.781250
2280		58.593750
2281		50.781250
2282		58.593750
2283		50.781250
2284		56.640625
2285		50.781250
2286		56.640625
2287		48.828125
2288		56.640625
2289		48.828125
2290		56.640625
2291		50.781250
2292		52.734375
2293		48.828125
2294		52.734375
2295		46.875000
2296		52.734375
2297		44.921875
2298		52.734375
2299		44.921875
2300		50.781250
2301		42.968750
2302		50.781250
2303		41.015625
2304		48.828125
2305		41.015625
2306		48.828125
2307		41.015625
2308		46.875000
2309		39.062500
2310		42.968750
2311		35.156250
2312		42.968750
2313		33.203125
2314		42.968750
2315		33.203125
2316		41.015625
2317		31.250000
2318		39.062500
2319		29.296875
2320		37.109375
2321		27.343750
2322		35.156250
2323		25.390625
2324		33.203125
2325		25.390625
2326		29.296875
2327		21.484375
2328		27.343750
2329		19.531250
2330		27.343750
2331		17.578125
2332		25.390625
2333		15.625000
2334		23.437500
2335		11.718750
2336		21.484375
2337		9.765625
2338		19.531250
2339		9.765625
2340		17.578125
2341		9.765625
2342		13.671875
2343		7.812500
2344		9.765625
2345		1.953125
2346		9.765625
2347		0.000000
2348		7.812500
2349		-1.953125
2350		7.812500
2351		-3.906250
2352		5.859375
2353		-5.859375
2354		1.953125
2355		-7.812500
2356		0.000000
2357		-7.812500
2358		-1.953125
2359		-9.765625
2360		-5.859375
2361		-11.718750
2362		-7.812500
2363		-13.671875
2364		-7.812500
2365		-17.578125
2366		-7.812500
2367		-19.531250
2368		-9.765625
2369		-19.531250
2370		-11.718750
2371		-21.484375
2372		-13.671875
2373		-21.484375
2374		-15.625000
2375		-21.484375
2376		-19.531250
2377		-23.437500
2378		-19.531250
2379		-27.343750
2380		-19.531250
2381		-27.343750
2382		-19.531250
2383		-29.296875
2384		-21.484375
2385		-29.296875
2386		-21.484375
2387		-29.296875
2388		-23.437500
2389		-31.250000
2390		-23.437500
2391		-31.250000
2392		-25.390625
2393		-29.296875
2394		-27.343750
2395		-33.203125
2396		-25.390625
2397		-33.203125
2398		-25.390625
2399		-33.203125
2400		-25.390625
2401		-33.203125
2402		-25.390625
2403		-33.203125
2404		-25.390625
2405		-33.203125
2406		-25.390625
2407		-33.203125
2408		-25.390625
2409		-29.296875
2410		-25.390625
2411		-29.296875
2412		-27.343750
2413		-31.250000
2414		-23.437500
2415		-29.296875
2416		-23.437500
2417		-29.296875
2418		-21.484375
2419		-29.296875
2420		-21.484375
2421		-27.343750
2422		-19.531250
2423		-27.343750
2424		-19.531250
2425		-23.437500
2426		-19.531250
2427		-21.484375
2428		-19.531250
2429		-21.484375
2430		-15.625000
2431		-21.484375
2432		-13.671875
2433		-19.531250
2434		-11.718750
2435		-17.578125
2436		-11.718750
2437		-15.625000
2438		-9.765625
2439		-15.625000
2440		-7.812500
2441		-13.671875
2442		-5.859375
2443		-9.765625
2444		-5.859375
2445		-7.812500
2446		-1.953125
2447		-7.812500
2448		0.000000
2449		-5.859375
2450		1.953125
2451		-3.906250
2452		3.906250
2453		-1.953125
2454		5.859375
2455		0.000000
2456		7.812500
2457		1.953125
2458		9.765625
2459		5.859375
2460		9.765625
2461		7.812500
2462		11.718750
2463		9.765625
2464		17.578125
2465		11.718750
2466		19.531250
2467		11.718750
2468		19.531250
2469		15.625000
2470		23.437500
2471		15.625000
2472		23.437500
2473		19.531250
2474		27.343750
2475		21.484375
2476		27.343750
2477		25.390625
2478		29.296875
2479		25.390625
2480		33.203125
2481		27.343750
2482		35.156250
2483		29.296875
2484		37.109375
2485		31.250000
2486		39.062500
2487		31.250000
2488		39.062500
2489		33.203125
2490		41.015625
2491		35.156250
2492		42.968750
2493		39.062500
2494		42.968750
2495		41.015625
2496		42.968750
2497		39.062500
2498		46.875000
2499		41.015625
2500		48.828125
2501		42.968750
2502		50.781250
2503		42.968750
2504		50.781250
2505		44.921875
2506		52.734375
2507		44.921875
2508		52.734375
2509		46.875000
2510		52.734375
2511		48.828125
2512		52.734375
2513		48.828125
2514		54.687500
2515		48.828125
2516		56.640625
2517		50.781250
2518		56.640625
2519		50.781250
2520		56.640625
2521		50.781250
2522		56.640625
2523		50.781250
2524		58.593750
2525		50.781250
2526		58.593750
2527		54.687500
2528		56.640625
2529		52.734375
2530		56.640625
2531		50.781250
2532		58.593750
2533		50.781250
2534		58.593750
2535		50.781250
2536		58.593750
2537		50.781250
2538		56.640625
2539		50.781250
2540		56.640625
2541		48.828125
2542		56.640625
2543		50.781250
2544		52.734375
2545		50.781250
2546		52.734375
2547		46.875000
2548		54.687500
2549		46.875000
2550		52.734375
2551		44.921875
2552		52.734375
2553		42.968750
2554		50.781250
2555		42.968750
2556		50.781250
2557		41.015625
2558		48.828125
2559		41.015625
2560		46.875000
2561		41.015625
2562		44.921875
2563		39.062500
2564		42.968750
2565		35.156250
2566		42.968750
2567		33.203125
2568		41.015625
2569		31.250000
2570		39.062500
2571		31.250000
2572		37.109375
2573		29.296875
2574		35.156250
2575		27.343750
2576		33.203125
2577		27.343750
2578		31.250000
2579		25.390625
2580		29.296875
2581		21.484375
2582		27.343750
2583		19.531250
2584		27.343750
2585		17.578125
2586		25.390625
2587		13.671875
2588		23.437500
2589		11.718750
2590		19.531250
2591		9.765625
2592		17.578125
2593		9.765625
2594		15.625000
2595		7.812500
2596		11.718750
2597		3.906250
2598		11.718750
2599		1.953125
2600		9.765625
2601		0.000000
2602		7.812500
2603		-1.953125
2604		5.859375
2605		-3.906250
2606		3.906250
2607		-5.859375
2608		1.953125
2609		-5.859375
2610		0.000000
2611		-7.812500
2612		-3.906250
2613		-9.765625
2614		-5.859375
2615		-13.671875
2616		-5.859375
2617		-15.625000
2618		-7.812500
2619		-15.625000
2620		-9.765625
2621		-19.531250
2622		-11.718750
2623		-19.531250
2624		-11.718750
2625		-21.484375
2626		-13.671875
2627		-21.484375
2628		-17.578125
2629		-21.484375
2630		-19.531250
2631		-25.390625
2632		-17.578125
2633		-27.343750
2634		-19.531250
2635		-27.343750
2636		-21.484375
2637		-29.296875
2638		-21.484375
2639		-29.296875
2640		-23.437500
2641		-31.250000
2642		-23.437500
2643		-31.250000
2644		-23.437500
2645		-29.296875
2646		-27.343750
2647		-31.250000
2648		-25.390625
2649		-31.250000
2650		-25.390625
2651		-33.203125
2652		-25.390625
2653		-33.203125
2654		-25.390625
2655		-33.203125
2656		-25.390625
2657		-33.203125
2658		-25.390625
2659		-33.203125
2660		-25.390625
2661		-29.296875
2662		-27.343750
2663		-29.296875
2664		-27.343750
2665		-31.250000
2666		-23.437500
2667		-31.250000
2668		-23.437500
2669		-29.296875
2670		-23.437500
2671		-29.296875
2672		-21.484375
2673		-27.343750
2674		-21.484375
2675		-27.343750
2676		-19.531250
2677		-27.343750
2678		-19.531250
2679		-23.437500
2680		-19.531250
2681		-23.437500
2682		-15.625000
2683		-21.484375
2684		-13.671875
2685		-21.484375
2686		-13.671875
2687		-19.531250
2688		-11.718750
2689		-17.578125
2690		-9.765625
2691		-15.625000
2692		-7.812500
2693		-15.625000
2694		-7.812500
2695		-9.765625
2696		-7.812500
2697		-7.812500
2698		-3.906250
2699		-7.812500
2700		0.000000
2701		-5.859375
2702		0.000000
2703		-3.906250
2704		1.953125
2705		-3.906250
2706		3.906250
2707		0.000000
2708		5.859375
2709		1.953125
2710		9.765625
2711		5.859375
2712		9.765625
2713		7.812500
2714		11.718750
2715		7.812500
2716		15.625000
2717		9.765625
2718		17.578125
2719		11.718750
2720		19.531250
2721		13.671875
2722		21.484375
2723		15.625000
2724		23.437500
2725		17.578125
2726		25.390625
2727		19.531250
2728		25.390625
2729		23.437500
2730		27.343750
2731		25.390625
2732		31.250000
2733		25.390625
2734		33.203125
2735		27.343750
2736		35.156250
2737		29.296875
2738		37.109375
2739		31.250000
2740		39.062500
2741		33.203125
2742		41.015625
2743		33.203125
2744		42.968750
2745		37.109375
2746		41.015625
2747		39.062500
2748		42.968750
2749		39.062500
2750		46.875000
2751		41.015625
2752		48.828125
2753		41.015625
2754		48.828125
2755		42.968750
2756		50.781250
2757		44.921875
2758		50.781250
2759		44.921875
2760		52.734375
2761		46.875000
2762		52.734375
2763		48.828125
2764		52.734375
2765		48.828125
2766		54.687500
2767		48.828125
2768		56.640625
2769		48.828125
2770		56.640625
2771		50.781250
2772		56.640625
2773		50.781250
2774		56.640625
2775		50.781250
2776		58.593750
2777		50.781250
2778		58.593750
2779		52.734375
2780		56.640625
2781		52.734375
2782		56.640625
2783		50.781250
2784		58.593750
2785		50.781250
2786		58.593750
2787		50.781250
2788		58.593750
2789		50.781250
2790		58.593750
2791		50.781250
2792		56.640625
2793		48.828125
2794		56.640625
2795		50.781250
2796		54.687500
2797		50.781250
2798		52.734375
2799		46.875000
2800		54.687500
2801		46.875000
2802		54.687500
2803		44.921875
2804		52.734375
2805		44.921875
2806		52.734375
2807		42.968750
2808		50.781250
2809		42.968750
2810		48.828125
2811		41.015625
2812		48.828125
2813		41.015625
2814		44.921875
2815		37.109375
2816		44.921875
2817		37.109375
2818		44.921875
2819		35.156250
2820		42.968750
2821		33.203125
2822		41.015625
2823		31.250000
2824		39.062500
2825		29.296875
2826		37.109375
2827		27.343750
2828		35.156250
2829		29.296875
2830		31.250000
2831		27.343750
2832		29.296875
2833		23.437500
2834		29.296875
2835		19.531250
2836		27.343750
2837		17.578125
2838		25.390625
2839		15.625000
2840		25.390625
2841		13.671875
2842		21.484375
2843		11.718750
2844		19.531250
2845		11.718750
2846		17.578125
2847		9.765625
2848		13.671875
2849		5.859375
2850		11.718750
2851		1.953125
2852		11.718750
2853		1.953125
2854		9.765625
2855		0.000000
2856		7.812500
2857		-1.953125
2858		5.859375
2859		-3.906250
2860		1.953125
2861		-5.859375
2862		0.000000
2863		-5.859375
2864		-1.953125
2865		-7.812500
2866		-3.906250
2867		-11.718750
2868		-3.906250
2869		-13.671875
2870		-5.859375
2871		-15.625000
2872		-7.812500
2873		-17.578125
2874		-9.765625
2875		-19.531250
2876		-11.718750
2877		-21.484375
2878		-13.671875
2879		-19.531250
2880		-17.578125
2881		-21.484375
2882		-17.578125
2883		-25.390625
2884		-17.578125
2885		-25.390625
2886		-17.578125
2887		-27.343750
2888		-19.531250
2889		-27.343750
2890		-21.484375
2891		-29.296875
2892		-21.484375
2893		-29.296875
2894		-23.437500
2895		-29.296875
2896		-23.437500
2897		-29.296875
2898		-27.343750
2899		-31.250000
2900		-25.390625
2901		-33.203125
2902		-25.390625
2903		-33.203125
2904		-25.390625
2905		-33.203125
2906		-25.390625
2907		-33.203125
2908		-25.390625
2909		-33.203125
2910		-25.390625
2911		-33.203125
2912		-25.390625
2913		-29.296875
2914		-27.343750
2915		-29.296875
2916		-27.343750
2917		-31.250000
2918		-25.390625
2919		-31.250000
2920		-23.437500
2921		-31.250000
2922		-23.437500
2923		-29.296875
2924		-23.437500
2925		-29.296875
2926		-21.484375
2927		-27.343750
2928		-19.531250
2929		-27.343750
2930		-21.484375
2931		-23.437500
2932		-21.484375
2933		-23.437500
2934		-17.578125
2935		-23.437500
2936		-15.625000
2937		-21.484375
2938		-13.671875
2939		-19.531250
2940		-11.718750
2941		-19.531250
2942		-11.718750
2943		-17.578125
2944		-9.765625
2945		-15.625000
2946		-7.812500
2947		-11.718750
2948		-7.812500
2949		-9.765625
2950		-5.859375
2951		-9.765625
2952		-1.953125
2953		-7.812500
2954		0.000000
2955		-5.859375
2956		1.953125
2957		-3.906250
2958		3.906250
2959		-1.953125
2960		5.859375
2961		0.000000
2962		7.812500
2963		3.906250
2964		7.812500
2965		5.859375
2966		9.765625
2967		5.859375
2968		13.671875
2969		7.812500
2970		15.625000
2971		9.765625
2972		17.578125
2973		11.718750
2974		19.531250
2975		13.671875
2976		21.484375
2977		15.625000
2978		23.437500
2979		19.531250
2980		25.390625
2981		21.484375
2982		25.390625
2983		23.437500
2984		29.296875
2985		23.437500
2986		31.250000
2987		25.390625
2988		33.203125
2989		27.343750
2990		35.156250
2991		29.296875
2992		37.109375
2993		33.203125
2994		39.062500
2995		33.203125
2996		41.015625
2997		37.109375
2998		41.015625
2999		39.062500
3000		42.968750
3001		39.062500
3002		44.921875
3003		39.062500
3004		46.875000
3005		41.015625
3006		48.828125
3007		42.968750
3008		48.828125
3009		42.968750
3010		50.781250
3011		44.921875
3012		52.734375
3013		46.875000
3014		52.734375
3015		48.828125
3016		50.781250
3017		48.828125
3018		54.687500
3019		48.828125
3020		54.687500
3021		48.828125
3022		56.640625
3023		48.828125
3024		56.640625
3025		50.781250
3026		56.640625
3027		50.781250
3028		58.593750
3029		50.781250
3030		58.593750
3031		54.687500
3032		56.640625
3033		52.734375
3034		56.640625
3035		50.781250
3036		58.593750
3037		50.781250
3038		58.593750
3039		50.781250
3040		58.593750
3041		50.781250
3042		58.593750
3043		50.781250
3044		56.640625
3045		50.781250
3046		56.640625
3047		52.734375
3048		54.687500
3049		50.781250
3050		54.687500
3051		48.828125
3052		54.687500
3053		46.875000
3054		54.687500
3055		46.875000
3056		54.687500
3057		44.921875
3058		52.734375
3059		44.921875
3060		50.781250
3061		42.968750
3062		50.781250
3063		42.968750
3064		48.828125
3065		42.968750
3066		44.921875
3067		41.015625
3068		44.921875
3069		37.109375
3070		44.921875
3071		37.109375
3072		42.968750
3073		35.156250
3074		42.968750
3075		33.203125
3076		41.015625
3077		31.250000
3078		39.062500
3079		29.296875
3080		37.109375
3081		29.296875
3082		33.203125
3083		27.343750
3084		31.250000
3085		23.437500
3086		31.250000
3087		21.484375
3088		29.296875
3089		19.531250
3090		27.343750
3091		17.578125
3092		25.390625
3093		15.625000
3094		23.437500
3095		13.671875
3096		21.484375
3097		13.671875
3098		19.531250
3099		11.718750
3100		15.625000
3101		7.812500
3102		13.671875
3103		5.859375
3104		11.718750
3105		1.953125
3106		9.765625
3107		1.953125
3108		9.765625
3109		0.000000
3110		7.812500
3111		-1.953125
3112		3.906250
3113		-3.906250
3114		1.953125
3115		-5.859375
3116		-1.953125
3117		-7.812500
3118		-3.906250
3119		-11.718750
3120		-3.906250
3121		-13.671875
3122		-5.859375
3123		-13.671875
3124		-7.812500
3125		-15.625000
3126		-7.812500
3127		-17.578125
3128		-11.718750
3129		-19.531250
3130		-11.718750
3131		-19.531250
3132		-15.625000
3133		-19.531250
3134		-17.578125
3135		-23.437500
3136		-17.578125
3137		-25.390625
3138		-17.578125
3139		-27.343750
3140		-19.531250
3141		-27.343750
3142		-19.531250
3143		-29.296875
3144		-21.484375
3145		-29.296875
3146		-21.484375
3147		-29.296875
3148		-23.437500
3149		-29.296875
3150		-25.390625
3151		-29.296875
3152		-25.390625
3153		-31.250000
3154		-25.390625
3155		-33.203125
3156		-25.390625
3157		-33.203125
3158		-25.390625
3159		-33.203125
3160		-25.390625
3161		-33.203125
3162		-25.390625
3163		-33.203125
3164		-25.390625
3165		-29.296875
3166		-27.343750
3167		-29.296875
3168		-27.343750
3169		-31.250000
3170		-25.390625
3171		-31.250000
3172		-25.390625
3173		-31.250000
3174		-23.437500
3175		-31.250000
3176		-23.437500
3177		-29.296875
3178		-23.437500
3179		-27.343750
3180		-21.484375
3181		-27.343750
3182		-21.484375
3183		-25.390625
3184		-21.484375
3185		-25.390625
3186		-19.531250
3187		-23.437500
3188		-17.578125
3189		-23.437500
3190		-15.625000
3191		-21.484375
3192		-15.625000
3193		-19.531250
3194		-11.718750
3195		-17.578125
3196		-9.765625
3197		-15.625000
3198		-9.765625
3199		-13.671875
3200		-9.765625
3201		-11.718750
3202		-7.812500
3203		-11.718750
3204		-3.906250
3205		-9.765625
3206		-1.953125
3207		-7.812500
3208		0.000000
3209		-5.859375
3210		0.000000
3211		-1.953125
3212		3.906250
3213		-1.953125
3214		3.906250
3215		0.000000
3216		5.859375
3217		3.906250
3218		7.812500
3219		5.859375
3220		11.718750
3221		5.859375
3222		13.671875
3223		9.765625
3224		13.671875
3225		11.718750
3226		17.578125
3227		13.671875
3228		19.531250
3229		15.625000
3230		21.484375
3231		19.531250
3232		23.437500
3233		21.484375
3234		25.390625
3235		23.437500
3236		27.343750
3237		23.437500
3238		31.250000
3239		25.390625
3240		31.250000
3241		29.296875
3242		33.203125
3243		29.296875
3244		35.156250
3245		31.250000
3246		37.109375
3247		33.203125
3248		39.062500
3249		37.109375
3250		39.062500
3251		37.109375
3252		41.015625
3253		37.109375
3254		42.968750
3255		41.015625
3256		44.921875
3257		41.015625
3258		46.875000
3259		42.968750
3260		46.875000
3261		44.921875
3262		48.828125
3263		46.875000
3264		48.828125
3265		46.875000
3266		50.781250
3267		48.828125
3268		50.781250
3269		46.875000
3270		52.734375
3271		50.781250
3272		52.734375
3273		50.781250
3274		54.687500
3275		50.781250
3276		54.687500
3277		50.781250
3278		54.687500
3279		52.734375
3280		54.687500
3281		52.734375
3282		56.640625
3283		52.734375
3284		54.687500
3285		52.734375
3286		56.640625
3287		52.734375
3288		56.640625
3289		52.734375
3290		56.640625
3291		52.734375
3292		56.640625
3293		52.734375
3294		56.640625
3295		52.734375
3296		54.687500
3297		52.734375
3298		56.640625
3299		52.734375
3300		54.687500
3301		50.781250
3302		54.687500
3303		48.828125
3304		54.687500
3305		48.828125
3306		52.734375
3307		48.828125
3308		52.734375
3309		46.875000
3310		50.781250
3311		46.875000
3312		50.781250
3313		44.921875
3314		48.828125
3315		44.921875
3316		48.828125
3317		42.968750
3318		46.875000
3319		41.015625
3320		46.875000
3321		41.015625
3322		44.921875
3323		39.062500
3324		42.968750
3325		37.109375
3326		41.015625
3327		35.156250
3328		39.062500
3329		35.156250
3330		39.062500
3331		31.250000
3332		37.109375
3333		29.296875
3334		35.156250
3335		29.296875
3336		33.203125
3337		27.343750
3338		31.250000
3339		25.390625
3340		29.296875
3341		23.437500
3342		27.343750
3343		21.484375
3344		25.390625
3345		19.531250
3346		23.437500
3347		17.578125
3348		21.484375
3349		13.671875
3350		19.531250
3351		13.671875
3352		15.625000
3353		9.765625
3354		13.671875
3355		7.812500
3356		11.718750
3357		5.859375
3358		9.765625
3359		3.906250
3360		7.812500
3361		1.953125
3362		5.859375
3363		0.000000
3364		3.906250
3365		-3.906250
3366		1.953125
3367		-3.906250
3368		0.000000
3369		-5.859375
3370		-1.953125
3371		-7.812500
3372		-3.906250
3373		-9.765625
3374		-5.859375
3375		-11.718750
3376		-7.812500
3377		-13.671875
3378		-9.765625
3379		-15.625000
3380		-11.718750
3381		-15.625000
3382		-13.671875
3383		-17.578125
3384		-13.671875
3385		-19.531250
3386		-15.625000
3387		-21.484375
3388		-17.578125
3389		-21.484375
3390		-17.578125
3391		-23.437500
3392		-19.531250
3393		-25.390625
3394		-21.484375
3395		-25.390625
3396		-21.484375
3397		-27.343750
3398		-23.437500
3399		-27.343750
3400		-23.437500
3401		-27.343750
3402		-25.390625
3403		-29.296875
3404		-25.390625
3405		-29.296875
3406		-27.343750
3407		-29.296875
3408		-27.343750
3409		-29.296875
3410		-27.343750
3411		-31.250000
3412		-27.343750
3413		-31.250000
3414		-27.343750
3415		-31.250000
3416		-27.343750
3417		-31.250000
3418		-27.343750
3419		-29.296875
3420		-27.343750
3421		-29.296875
3422		-27.343750
3423		-31.250000
3424		-27.343750
3425		-29.296875
3426		-25.390625
3427		-29.296875
3428		-25.390625
3429		-27.343750
3430		-25.390625
3431		-27.343750
3432		-23.437500
3433		-27.343750
3434		-23.437500
3435		-25.390625
3436		-21.484375
3437		-25.390625
3438		-19.531250
3439		-23.437500
3440		-19.531250
3441		-21.484375
3442		-17.578125
3443		-21.484375
3444		-17.578125
3445		-19.531250
3446		-15.625000
3447		-17.578125
3448		-13.671875
3449		-17.578125
3450		-11.718750
3451		-13.671875
3452		-11.718750
3453		-11.718750
3454		-9.765625
3455		-11.718750
3456		-5.859375
3457		-7.812500
3458		-5.859375
3459		-7.812500
3460		-3.906250
3461		-5.859375
3462		0.000000
3463		-3.906250
3464		0.000000
3465		-1.953125
3466		1.953125
3467		0.000000
3468		3.906250
3469		3.906250
3470		5.859375
3471		5.859375
3472		9.765625
3473		5.859375
3474		9.765625
3475		9.765625
3476		13.671875
3477		11.718750
3478		15.625000
3479		13.671875
3480		17.578125
3481		15.625000
3482		19.531250
3483		17.578125
3484		21.484375
3485		19.531250
3486		23.437500
3487		21.484375
3488		25.390625
3489		23.437500
3490		27.343750
3491		25.390625
3492		29.296875
3493		27.343750
3494		31.250000
3495		29.296875
3496		33.203125
3497		31.250000
3498		35.156250
3499		33.203125
3500		37.109375
3501		35.156250
3502		37.109375
3503		37.109375
3504		39.062500
3505		37.109375
3506		41.015625
3507		39.062500
3508		42.968750
3509		41.015625
3510		44.921875
3511		41.015625
3512		44.921875
3513		42.968750
3514		46.875000
3515		44.921875
3516		48.828125
3517		46.875000
3518		48.828125
3519		46.875000
3520		50.781250
3521		48.828125
3522		52.734375
3523		48.828125
3524		52.734375
3525		48.828125
3526		52.734375
3527		50.781250
3528		52.734375
3529		50.781250
3530		54.687500
3531		52.734375
3532		54.687500
3533		52.734375
3534		56.640625
3535		52.734375
3536		54.687500
3537		52.734375
3538		54.687500
3539		52.734375
3540		56.640625
3541		52.734375
3542		56.640625
3543		52.734375
3544		56.640625
3545		52.734375
3546		56.640625
3547		52.734375
3548		56.640625
3549		52.734375
3550		56.640625
3551		50.781250
3552		56.640625
3553		52.734375
3554		54.687500
3555		50.781250
3556		54.687500
3557		50.781250
3558		52.734375
3559		48.828125
3560		52.734375
3561		48.828125
3562		50.781250
3563		46.875000
3564		50.781250
3565		46.875000
3566		48.828125
3567		44.921875
3568		48.828125
3569		44.921875
3570		46.875000
3571		42.968750
3572		46.875000
3573		41.015625
3574		44.921875
3575		39.062500
3576		44.921875
3577		39.062500
3578		42.968750
3579		37.109375
3580		41.015625
3581		35.156250
3582		39.062500
3583		33.203125
3584		37.109375
3585		31.250000
3586		35.156250
3587		29.296875
3588		33.203125
3589		27.343750
3590		33.203125
3591		25.390625
3592		31.250000
3593		25.390625
3594		27.343750
3595		21.484375
3596		27.343750
3597		19.531250
3598		23.437500
3599		17.578125
3600		23.437500
3601		15.625000
3602		19.531250
3603		13.671875
3604		17.578125
3605		11.718750
3606		15.625000
3607		9.765625
3608		13.671875
3609		7.812500
3610		11.718750
3611		5.859375
3612		9.765625
3613		3.906250
3614		7.812500
3615		1.953125
3616		5.859375
3617		-1.953125
3618		3.906250
3619		-1.953125
3620		0.000000
3621		-3.906250
3622		-1.953125
3623		-7.812500
3624		-1.953125
3625		-7.812500
3626		-3.906250
3627		-9.765625
3628		-5.859375
3629		-11.718750
3630		-7.812500
3631		-13.671875
3632		-9.765625
3633		-15.625000
3634		-11.718750
3635		-17.578125
3636		-13.671875
3637		-19.531250
3638		-15.625000
3639		-21.484375
3640		-15.625000
3641		-21.484375
3642		-17.578125
3643		-23.437500
3644		-19.531250
3645		-23.437500
3646		-21.484375
3647		-25.390625
3648		-21.484375
3649		-27.343750
3650		-23.437500
3651		-27.343750
3652		-23.437500
3653		-27.343750
3654		-25.390625
3655		-29.296875
3656		-25.390625
3657		-29.296875
3658		-25.390625
3659		-29.296875
3660		-27.343750
3661		-31.250000
3662		-27.343750
3663		-31.250000
3664		-27.343750
3665		-31.250000
3666		-27.343750
3667		-31.250000
3668		-27.343750
3669		-31.250000
3670		-27.343750
3671		-31.250000
3672		-29.296875
3673		-31.250000
3674		-27.343750
3675		-31.250000
3676		-27.343750
3677		-31.250000
3678		-27.343750
3679		-29.296875
3680		-27.343750
3681		-29.296875
3682		-25.390625
3683		-27.343750
3684		-25.390625
3685		-27.343750
3686		-23.437500
3687		-25.390625
3688		-23.437500
3689		-25.390625
3690		-21.484375
3691		-23.437500
3692		-19.531250
3693		-23.437500
3694		-19.531250
3695		-21.484375
3696		-17.578125
3697		-19.531250
3698		-17.578125
3699		-19.531250
3700		-15.625000
3701		-17.578125
3702		-13.671875
3703		-15.625000
3704		-11.718750
3705		-13.671875
3706		-9.765625
3707		-11.718750
3708		-7.812500
3709		-9.765625
3710		-5.859375
3711		-9.765625
3712		-3.906250
3713		-5.859375
3714		-3.906250
3715		-5.859375
3716		0.000000
3717		-1.953125
3718		0.000000
3719		-1.953125
3720		1.953125
3721		1.953125
3722		3.906250
3723		3.906250
3724		7.812500
3725		5.859375
3726		9.765625
3727		7.812500
3728		11.718750
3729		9.765625
3730		13.671875
3731		11.718750
3732		15.625000
3733		13.671875
3734		17.578125
3735		15.625000
3736		19.531250
3737		17.578125
3738		21.484375
3739		19.531250
3740		23.437500
3741		21.484375
3742		25.390625
3743		23.437500
3744		27.343750
3745		25.390625
3746		29.296875
3747		27.343750
3748		31.250000
3749		29.296875
3750		33.203125
3751		31.250000
3752		35.156250
3753		31.250000
3754		37.109375
3755		35.156250
3756		39.062500
3757		37.109375
3758		41.015625
3759		37.109375
3760		41.015625
3761		39.062500
3762		42.968750
3763		41.015625
3764		44.921875
3765		42.968750
3766		46.875000
3767		42.968750
3768		46.875000
3769		44.921875
3770		48.828125
3771		46.875000
3772		48.828125
3773		46.875000
3774		50.781250
3775		48.828125
3776		52.734375
3777		48.828125
3778		52.734375
3779		50.781250
3780		52.734375
3781		50.781250
3782		54.687500
3783		50.781250
3784		54.687500
3785		50.781250
3786		54.687500
3787		52.734375
3788		54.687500
3789		52.734375
3790		54.687500
3791		52.734375
3792		56.640625
3793		52.734375
3794		56.640625
3795		52.734375
3796		56.640625
3797		52.734375
3798		56.640625
3799		52.734375
3800		56.640625
3801		52.734375
3802		54.687500
3803		52.734375
3804		56.640625
3805		52.734375
3806		54.687500
3807		50.781250
3808		54.687500
3809		50.781250
3810		54.687500
3811		50.781250
3812		52.734375
3813		48.828125
3814		52.734375
3815		48.828125
3816		50.781250
3817		46.875000
3818		50.781250
3819		46.875000
3820		50.781250
3821		44.921875
3822		46.875000
3823		42.968750
3824		46.875000
3825		42.968750
3826		46.875000
3827		41.015625
3828		44.921875
3829		39.062500
3830		42.968750
3831		37.109375
3832		42.968750
3833		35.156250
3834		39.062500
3835		33.203125
3836		39.062500
3837		33.203125
3838		37.109375
3839		31.250000
3840		35.156250
3841		29.296875
3842		33.203125
3843		27.343750
3844		31.250000
3845		25.390625
3846		29.296875
3847		23.437500
3848		27.343750
3849		21.484375
3850		25.390625
3851		19.531250
3852		23.437500
3853		17.578125
3854		21.484375
3855		15.625000
3856		19.531250
3857		11.718750
3858		15.625000
3859		9.765625
3860		15.625000
3861		9.765625
3862		11.718750
3863		5.859375
3864		11.718750
3865		3.906250
3866		7.812500
3867		1.953125
3868		5.859375
3869		0.000000
3870		3.906250
3871		-1.953125
3872		1.953125
3873		-3.906250
3874		0.000000
3875		-5.859375
3876		-1.953125
3877		-7.812500
3878		-3.906250
3879		-9.765625
3880		-5.859375
3881		-11.718750
3882		-7.812500
3883		-13.671875
3884		-9.765625
3885		-15.625000
3886		-11.718750
3887		-15.625000
3888		-11.718750
3889		-17.578125
3890		-15.625000
3891		-19.531250
3892		-15.625000
3893		-21.484375
3894		-17.578125
3895		-23.437500
3896		-19.531250
3897		-23.437500
3898		-19.531250
3899		-25.390625
3900		-21.484375
3901		-25.390625
3902		-21.484375
3903		-27.343750
3904		-23.437500
3905		-27.343750
3906		-25.390625
3907		-29.296875
3908		-25.390625
3909		-29.296875
3910		-25.390625
3911		-29.296875
3912		-27.343750
3913		-31.250000
3914		-27.343750
3915		-31.250000
3916		-27.343750
3917		-31.250000
3918		-27.343750
3919		-31.250000
3920		-27.343750
3921		-33.203125
3922		-27.343750
3923		-31.250000
3924		-29.296875
3925		-31.250000
3926		-27.343750
3927		-31.250000
3928		-27.343750
3929		-29.296875
3930		-27.343750
3931		-31.250000
3932		-27.343750
3933		-29.296875
3934		-25.390625
3935		-29.296875
3936		-25.390625
3937		-27.343750
3938		-25.390625
3939		-27.343750
3940		-23.437500
3941		-25.390625
3942		-21.484375
3943		-25.390625
3944		-21.484375
3945		-23.437500
3946		-21.484375
3947		-23.437500
3948		-19.531250
3949		-21.484375
3950		-17.578125
3951		-19.531250
3952		-15.625000
3953		-19.531250
3954		-13.671875
3955		-17.578125
3956		-13.671875
3957		-15.625000
3958		-11.718750
3959		-13.671875
3960		-9.765625
3961		-11.718750
3962		-7.812500
3963		-9.765625
3964		-5.859375
3965		-7.812500
3966		-3.906250
3967		-5.859375
3968		-1.953125
3969		-3.906250
3970		0.000000
3971		-3.906250
3972		1.953125
3973		0.000000
3974		3.906250
3975		1.953125
3976		5.859375
3977		3.906250
3978		7.812500
3979		5.859375
3980		9.765625
3981		7.812500
3982		11.718750
3983		9.765625
3984		13.671875
3985		11.718750
3986		15.625000
3987		13.671875
3988		17.578125
3989		15.625000
3990		19.531250
3991		17.578125
3992		21.484375
3993		19.531250
3994		23.437500
3995		21.484375
3996		27.343750
3997		23.437500
3998		27.343750
3999		25.390625
4000		31.250000
4001		27.343750
4002		31.250000
4003		29.296875
4004		33.203125
4005		31.250000
4006		35.156250
4007		33.203125
4008		37.109375
4009		35.156250
4010		39.062500
4011		37.109375
4012		41.015625
4013		39.062500
4014		41.015625
4015		39.062500
4016		44.921875
4017		41.015625
4018		44.921875
4019		42.968750
4020		46.875000
4021		42.968750
4022		46.875000
4023		44.921875
4024		48.828125
4025		46.875000
4026		50.781250
4027		46.875000
4028		50.781250
4029		48.828125
4030		52.734375
4031		48.828125
4032		52.734375
4033		50.781250
4034		52.734375
4035		50.781250
4036		54.687500
4037		50.781250
4038		54.687500
4039		52.734375
4040		54.687500
4041		52.734375
4042		54.687500
4043		52.734375
4044		56.640625
4045		52.734375
4046		56.640625
4047		52.734375
4048		56.640625
4049		52.734375
4050		56.640625
4051		52.734375
4052		56.640625
4053		52.734375
4054		56.640625
4055		52.734375
4056		56.640625
4057		52.734375
4058		54.687500
4059		50.781250
4060		54.687500
4061		50.781250
4062		54.687500
4063		50.781250
4064		52.734375
4065		48.828125
4066		52.734375
4067		48.828125
4068		52.734375
4069		46.875000
4070		50.781250
4071		46.875000
4072		50.781250
4073		44.921875
4074		48.828125
4075		44.921875
4076		46.875000
4077		42.968750
4078		46.875000
4079		41.015625
4080		44.921875
4081		39.062500
4082		44.921875
4083		39.062500
4084		41.015625
4085		37.109375
4086		41.015625
4087		35.156250
4088		39.062500
4089		33.203125
4090		37.109375
4091		31.250000
4092		35.156250
4093		29.296875
4094		35.156250
4095		29.296875
4096		33.203125
4097		25.390625
4098		31.250000
4099		23.437500
4100		29.296875
4101		23.437500
4102		25.390625
4103		19.531250
4104		25.390625
4105		17.578125
4106		21.484375
4107		17.578125
4108		19.531250
4109		13.671875
4110		17.578125
4111		11.718750
4112		17.578125
4113		9.765625
4114		13.671875
4115		7.812500
4116		11.718750
4117		5.859375
4118		9.765625
4119		3.906250
4120		7.812500
4121		0.000000
4122		5.859375
4123		0.000000
4124		3.906250
4125		-1.953125
4126		1.953125
4127		-5.859375
4128		0.000000
4129		-7.812500
4130		-1.953125
4131		-7.812500
4132		-3.906250
4133		-9.765625
4134		-5.859375
4135		-11.718750
4136		-7.812500
4137		-13.671875
4138		-9.765625
4139		-15.625000
4140		-11.718750
4141		-17.578125
4142		-13.671875
4143		-19.531250
4144		-15.625000
4145		-19.531250
4146		-15.625000
4147		-21.484375
4148		-17.578125
4149		-23.437500
4150		-19.531250
4151		-25.390625
4152		-21.484375
4153		-25.390625
4154		-21.484375
4155		-27.343750
4156		-23.437500
4157		-27.343750
4158		-25.390625
4159		-27.343750
4160		-25.390625
4161		-29.296875
4162		-25.390625
4163		-31.250000
4164		-27.343750
4165		-31.250000
4166		-27.343750
4167		-31.250000
4168		-27.343750
4169		-31.250000
4170		-27.343750
4171		-31.250000
4172		-27.343750
4173		-31.250000
4174		-27.343750
4175		-31.250000
4176		-29.296875
4177		-31.250000
4178		-27.343750
4179		-31.250000
4180		-29.296875
4181		-31.250000
4182		-27.343750
4183		-31.250000
4184		-27.343750
4185		-31.250000
4186		-27.343750
4187		-29.296875
4188		-25.390625
4189		-29.296875
4190		-25.390625
4191		-27.343750
4192		-25.390625
4193		-27.343750
4194		-23.437500
4195		-27.343750
4196		-23.437500
4197		-25.390625
4198		-21.484375
4199		-23.437500
4200		-21.484375
4201		-21.484375
4202		-19.531250
4203		-21.484375
4204		-17.578125
4205		-19.531250
4206		-15.625000
4207		-19.531250
4208		-15.625000
4209		-15.625000
4210		-13.671875
4211		-15.625000
4212		-11.718750
4213		-13.671875
4214		-9.765625
4215		-11.718750
4216		-7.812500
4217		-9.765625
4218		-5.859375
4219		-7.812500
4220		-3.906250
4221		-5.859375
4222		-1.953125
4223		-3.906250
4224		0.000000
4225		-1.953125
4226		1.953125
4227		0.000000
4228		3.906250
4229		1.953125
4230		5.859375
4231		3.906250
4232		7.812500
4233		5.859375
4234		9.765625
4235		7.812500
4236		11.718750
4237		9.765625
4238		13.671875
4239		11.718750
4240		17.578125
4241		15.625000
4242		17.578125
4243		17.578125
4244		19.531250
4245		17.578125
4246		23.437500
4247		21.484375
4248		23.437500
4249		21.484375
4250		27.343750
4251		25.390625
4252		29.296875
4253		27.343750
4254		31.250000
4255		29.296875
4256		33.203125
4257		29.296875
4258		33.203125
4259		33.203125
4260		35.156250
4261		33.203125
4262		37.109375
4263		35.156250
4264		39.062500
4265		37.109375
4266		41.015625
4267		39.062500
4268		41.015625
4269		39.062500
4270		42.968750
4271		41.015625
4272		44.921875
4273		42.968750
4274		46.875000
4275		44.921875
4276		46.875000
4277		44.921875
4278		48.828125
4279		44.921875
4280		50.781250
4281		46.875000
4282		50.781250
4283		48.828125
4284		50.781250
4285		48.828125
4286		52.734375
4287		50.781250
4288		52.734375
4289		50.781250
4290		52.734375
4291		50.781250
4292		54.687500
4293		52.734375
4294		54.687500
4295		50.781250
4296		54.687500
4297		52.734375
4298		54.687500
4299		52.734375
4300		54.687500
4301		52.734375
4302		54.687500
4303		52.734375
4304		54.687500
4305		52.734375
4306		56.640625
4307		50.781250
4308		56.640625
4309		52.734375
4310		54.687500
4311		50.781250
4312		54.687500
4313		50.781250
4314		54.687500
4315		50.781250
4316		52.734375
4317		50.781250
4318		52.734375
4319		48.828125
4320		52.734375
4321		48.828125
4322		50.781250
4323		46.875000
4324		50.781250
4325		44.921875
4326		48.828125
4327		44.921875
4328		48.828125
4329		42.968750
4330		46.875000
4331		42.968750
4332		44.921875
4333		41.015625
4334		44.921875
4335		39.062500
4336		42.968750
4337		37.109375
4338		41.015625
4339		37.109375
4340		39.062500
4341		35.156250
4342		39.062500
4343		33.203125
4344		37.109375
4345		31.250000
4346		35.156250
4347		29.296875
4348		33.203125
4349		27.343750
4350		31.250000
4351		25.390625
4352		29.296875
4353		23.437500
4354		27.343750
4355		21.484375
4356		25.390625
4357		19.531250
4358		23.437500
4359		17.578125
4360		21.484375
4361		15.625000
4362		19.531250
4363		13.671875
4364		17.578125
4365		11.718750
4366		15.625000
4367		9.765625
4368		13.671875
4369		7.812500
4370		11.718750
4371		5.859375
4372		9.765625
4373		1.953125
4374		5.859375
4375		1.953125
4376		5.859375
4377		0.000000
4378		1.953125
4379		-3.906250
4380		0.000000
4381		-5.859375
4382		-1.953125
4383		-7.812500
4384		-3.906250
4385		-9.765625
4386		-5.859375
4387		-11.718750
4388		-7.812500
4389		-13.671875
4390		-7.812500
4391		-15.625000
4392		-11.718750
4393		-15.625000
4394		-13.671875
4395		-17.578125
4396		-15.625000
4397		-19.531250
4398		-15.625000
4399		-21.484375
4400		-17.578125
4401		-21.484375
4402		-17.578125
4403		-23.437500
4404		-19.531250
4405		-25.390625
4406		-21.484375
4407		-25.390625
4408		-23.437500
4409		-27.343750
4410		-23.437500
4411		-27.343750
4412		-25.390625
4413		-29.296875
4414		-25.390625
4415		-29.296875
4416		-27.343750
4417		-31.250000
4418		-27.343750
4419		-31.250000
4420		-27.343750
4421		-31.250000
4422		-27.343750
4423		-31.250000
4424		-29.296875
4425		-31.250000
4426		-29.296875
4427		-31.250000
4428		-29.296875
4429		-33.203125
4430		-27.343750
4431		-31.250000
4432		-29.296875
4433		-31.250000
4434		-27.343750
4435		-31.250000
4436		-27.343750
4437		-31.250000
4438		-27.343750
4439		-31.250000
4440		-27.343750
4441		-29.296875
4442		-25.390625
4443		-29.296875
4444		-25.390625
4445		-27.343750
4446		-25.390625
4447		-27.343750
4448		-23.437500
4449		-25.390625
4450		-21.484375
4451		-25.390625
4452		-21.484375
4453		-23.437500
4454		-19.531250
4455		-21.484375
4456		-19.531250
4457		-21.484375
4458		-17.578125
4459		-21.484375
4460		-15.625000
4461		-17.578125
4462		-15.625000
4463		-15.625000
4464		-11.718750
4465		-15.625000
4466		-11.718750
4467		-13.671875
4468		-9.765625
4469		-11.718750
4470		-7.812500
4471		-9.765625
4472		-5.859375
4473		-7.812500
4474		-3.906250
4475		-5.859375
4476		-1.953125
4477		-3.906250
4478		0.000000
4479		-1.953125
4480		1.953125
4481		0.000000
4482		3.906250
4483		1.953125
4484		5.859375
4485		3.906250
4486		7.812500
4487		5.859375
4488		9.765625
4489		7.812500
4490		13.671875
4491		9.765625
4492		15.625000
4493		13.671875
4494		15.625000
4495		15.625000
4496		19.531250
4497		15.625000
4498		21.484375
4499		19.531250
4500		23.437500
4501		21.484375
4502		25.390625
4503		23.437500
4504		27.343750
4505		25.390625
4506		29.296875
4507		27.343750
4508		31.250000
4509		27.343750
4510		33.203125
4511		31.250000
4512		33.203125
4513		33.203125
4514		37.109375
4515		33.203125
4516		37.109375
4517		35.156250
4518		39.062500
4519		37.109375
4520		41.015625
4521		39.062500
4522		42.968750
4523		41.015625
4524		44.921875
4525		41.015625
4526		44.921875
4527		42.968750
4528		46.875000
4529		44.921875
4530		46.875000
4531		44.921875
4532		48.828125
4533		46.875000
4534		50.781250
4535		46.875000
4536		50.781250
4537		48.828125
4538		52.734375
4539		48.828125
4540		52.734375
4541		50.781250
4542		52.734375
4543		48.828125
4544		54.687500
4545		50.781250
4546		54.687500
4547		50.781250
4548		54.687500
4549		52.734375
4550		54.687500
4551		52.734375
4552		54.687500
4553		52.734375
4554		56.640625
4555		52.734375
4556		54.687500
4557		52.734375
4558		56.640625
4559		52.734375
4560		54.687500
4561		52.734375
4562		54.687500
4563		50.781250
4564		54.687500
4565		50.781250
4566		54.687500
4567		50.781250
4568		54.687500
4569		50.781250
4570		52.734375
4571		48.828125
4572		52.734375
4573		48.828125
4574		52.734375
4575		46.875000
4576		50.781250
4577		46.875000
4578		48.828125
4579		44.921875
4580		48.828125
4581		42.968750
4582		48.828125
4583		42.968750
4584		46.875000
4585		41.015625
4586		44.921875
4587		41.015625
4588		42.968750
4589		37.109375
4590		42.968750
4591		37.109375
4592		41.015625
4593		35.156250
4594		39.062500
4595		33.203125
4596		37.109375
4597		33.203125
4598		35.156250
4599		29.296875
4600		35.156250
4601		27.343750
4602		31.250000
4603		27.343750
4604		31.250000
4605		25.390625
4606		29.296875
4607		23.437500
4608		27.343750
4609		19.531250
4610		25.390625
4611		19.531250
4612		23.437500
4613		17.578125
4614		21.484375
4615		15.625000
4616		19.531250
4617		11.718750
4618		15.625000
4619		9.765625
4620		15.625000
4621		7.812500
4622		11.718750
4623		5.859375
4624		9.765625
4625		3.906250
4626		7.812500
4627		1.953125
4628		5.859375
4629		0.000000
4630		3.906250
4631		-1.953125
4632		1.953125
4633		-3.906250
4634		0.000000
4635		-5.859375
4636		-1.953125
4637		-7.812500
4638		-3.906250
4639		-9.765625
4640		-5.859375
4641		-11.718750
4642		-7.812500
4643		-13.671875
4644		-9.765625
4645		-15.625000
4646		-11.718750
4647		-17.578125
4648		-13.671875
4649		-17.578125
4650		-15.625000
4651		-19.531250
4652		-15.625000
4653		-21.484375
4654		-17.578125
4655		-23.437500
4656		-19.531250
4657		-23.437500
4658		-19.531250
4659		-25.390625
4660		-21.484375
4661		-25.390625
4662		-23.437500
4663		-27.343750
4664		-23.437500
4665		-29.296875
4666		-25.390625
4667		-29.296875
4668		-25.390625
4669		-29.296875
4670		-25.390625
4671		-31.250000
4672		-27.343750
4673		-31.250000
4674		-27.343750
4675		-31.250000
4676		-27.343750
4677		-33.203125
4678		-27.343750
4679		-31.250000
4680		-29.296875
4681		-33.203125
4682		-29.296875
4683		-31.250000
4684		-29.296875
4685		-31.250000
4686		-29.296875
4687		-31.250000
4688		-27.343750
4689		-31.250000
4690		-27.343750
4691		-31.250000
4692		-27.343750
4693		-29.296875
4694		-27.343750
4695		-29.296875
4696		-27.343750
4697		-29.296875
4698		-25.390625
4699		-29.296875
4700		-25.390625
4701		-27.343750
4702		-23.437500
4703		-25.390625
4704		-21.484375
4705		-23.437500
4706		-21.484375
4707		-23.437500
4708		-19.531250
4709		-21.484375
4710		-17.578125
4711		-21.484375
4712		-17.578125
4713		-19.531250
4714		-15.625000
4715		-17.578125
4716		-13.671875
4717		-15.625000
4718		-11.718750
4719		-13.671875
4720		-9.765625
4721		-11.718750
4722		-7.812500
4723		-11.718750
4724		-7.812500
4725		-9.765625
4726		-5.859375
4727		-7.812500
4728		-1.953125
4729		-5.859375
4730		-1.953125
4731		-3.906250
4732		0.000000
4733		-1.953125
4734		3.906250
4735		0.000000
4736		3.906250
4737		1.953125
4738		5.859375
4739		5.859375
4740		9.765625
4741		7.812500
4742		11.718750
4743		9.765625
4744		13.671875
4745		11.718750
4746		15.625000
4747		13.671875
4748		17.578125
4749		15.625000
4750		19.531250
4751		17.578125
4752		21.484375
4753		19.531250
4754		23.437500
4755		21.484375
4756		25.390625
4757		23.437500
4758		27.343750
4759		25.390625
4760		29.296875
4761		27.343750
4762		31.250000
4763		29.296875
4764		33.203125
4765		31.250000
4766		35.156250
4767		33.203125
4768		37.109375
4769		35.156250
4770		37.109375
4771		35.156250
4772		39.062500
4773		39.062500
4774		41.015625
4775		39.062500
4776		42.968750
4777		41.015625
4778		44.921875
4779		42.968750
4780		44.921875
4781		42.968750
4782		46.875000
4783		42.968750
4784		48.828125
4785		44.921875
4786		48.828125
4787		46.875000
4788		50.781250
4789		48.828125
4790		50.781250
4791		48.828125
4792		52.734375
4793		48.828125
4794		52.734375
4795		48.828125
4796		52.734375
4797		50.781250
4798		52.734375
4799		50.781250
4800		54.687500
4801		52.734375
4802		54.687500
4803		52.734375
4804		54.687500
4805		52.734375
4806		54.687500
4807		52.734375
4808		54.687500
4809		52.734375
4810		56.640625
4811		52.734375
4812		56.640625
4813		52.734375
4814		54.687500
4815		50.781250
4816		54.687500
4817		50.781250
4818		54.687500
4819		50.781250
4820		54.687500
4821		50.781250
4822		54.687500
4823		48.828125
4824		52.734375
4825		48.828125
4826		52.734375
4827		48.828125
4828		50.781250
4829		46.875000
4830		50.781250
4831		46.875000
4832		48.828125
4833		44.921875
4834		48.828125
4835		42.968750
4836		46.875000
4837		42.968750
4838		44.921875
4839		41.015625
4840		44.921875
4841		39.062500
4842		42.968750
4843		37.109375
4844		42.968750
4845		37.109375
4846		41.015625
4847		35.156250
4848		39.062500
4849		31.250000
4850		37.109375
4851		31.250000
4852		35.156250
4853		29.296875
4854		33.203125
4855		27.343750
4856		31.250000
4857		25.390625
4858		31.250000
4859		25.390625
4860		27.343750
4861		21.484375
4862		25.390625
4863		19.531250
4864		23.437500
4865		17.578125
4866		21.484375
4867		13.671875
4868		21.484375
4869		13.671875
4870		17.578125
4871		11.718750
4872		15.625000
4873		9.765625
4874		13.671875
4875		7.812500
4876		11.718750
4877		3.906250
4878		9.765625
4879		1.953125
4880		7.812500
4881		1.953125
4882		5.859375
4883		-1.953125
4884		3.906250
4885		-1.953125
4886		1.953125
4887		-5.859375
4888		0.000000
4889		-5.859375
4890		-1.953125
4891		-7.812500
4892		-3.906250
4893		-11.718750
4894		-7.812500
4895		-11.718750
4896		-7.812500
4897		-13.671875
4898		-11.718750
4899		-15.625000
4900		-11.718750
4901		-17.578125
4902		-13.671875
4903		-19.531250
4904		-15.625000
4905		-21.484375
4906		-17.578125
4907		-21.484375
4908		-19.531250
4909		-23.437500
4910		-19.531250
4911		-25.390625
4912		-19.531250
4913		-25.390625
4914		-21.484375
4915		-27.343750
4916		-23.437500
4917		-29.296875
4918		-25.390625
4919		-29.296875
4920		-25.390625
4921		-29.296875
4922		-27.343750
4923		-31.250000
4924		-27.343750
4925		-31.250000
4926		-27.343750
4927		-31.250000
4928		-27.343750
4929		-33.203125
4930		-27.343750
4931		-31.250000
4932		-29.296875
4933		-31.250000
4934		-29.296875
4935		-33.203125
4936		-29.296875
4937		-31.250000
4938		-29.296875
4939		-31.250000
4940		-29.296875
4941		-31.250000
4942		-29.296875
4943		-31.250000
4944		-27.343750
4945		-31.250000
4946		-27.343750
4947		-29.296875
4948		-27.343750
4949		-29.296875
4950		-27.343750
4951		-29.296875
4952		-25.390625
4953		-27.343750
4954		-23.437500
4955		-27.343750
4956		-23.437500
4957		-25.390625
4958		-21.484375
4959		-25.390625
4960		-21.484375
4961		-23.437500
4962		-19.531250
4963		-21.484375
4964		-17.578125
4965		-19.531250
4966		-17.578125
4967		-19.531250
4968		-15.625000
4969		-17.578125
4970		-13.671875
4971		-15.625000
4972		-11.718750
4973		-13.671875
4974		-9.765625
4975		-11.718750
4976		-7.812500
4977		-9.765625
4978		-5.859375
4979		-9.765625
4980		-3.906250
4981		-5.859375
4982		-1.953125
4983		-3.906250
4984		0.000000
4985		-3.906250
4986		1.953125
4987		0.000000
4988		3.906250
4989		1.953125
4990		5.859375
4991		3.906250
4992		7.812500
4993		5.859375
4994		9.765625
4995		7.812500
4996		11.718750
4997		7.812500
4998		13.671875
4999		11.718750
5000		15.625000
5001		13.671875
5002		17.578125
5003		15.625000
5004		19.531250
5005		17.578125
5006		21.484375
5007		19.531250
5008		23.437500
5009		21.484375
5010		25.390625
5011		23.437500
5012		27.343750
5013		25.390625
5014		29.296875
5015		27.343750
5016		31.250000
5017		29.296875
5018		33.203125
5019		31.250000
5020		35.156250
5021		33.203125
5022		37.109375
5023		35.156250
5024		39.062500
5025		37.109375
5026		41.015625
5027		39.062500
5028		42.968750
5029		39.062500
5030		42.968750
5031		41.015625
5032		44.921875
5033		42.968750
5034		44.921875
5035		42.968750
5036		48.828125
5037		44.921875
5038		48.828125
5039		46.875000
5040		48.828125
5041		46.875000
5042		50.781250
5043		48.828125
5044		50.781250
5045		48.828125
5046		52.734375
5047		48.828125
5048		52.734375
5049		50.781250
5050		52.734375
5051		50.781250
5052		54.687500
5053		50.781250
5054		54.687500
5055		50.781250
5056		54.687500
5057		52.734375
5058		54.687500
5059		52.734375
5060		54.687500
5061		52.734375
5062		54.687500
5063		50.781250
5064		56.640625
5065		52.734375
5066		54.687500
5067		52.734375
5068		54.687500
5069		50.781250
5070		54.687500
5071		50.781250
5072		54.687500
5073		50.781250
5074		54.687500
5075		50.781250
5076		52.734375
5077		48.828125
5078		52.734375
5079		48.828125
5080		52.734375
5081		46.875000
5082		50.781250
5083		46.875000
5084		50.781250
5085		44.921875
5086		48.828125
5087		44.921875
5088		46.875000
5089		42.968750
5090		46.875000
5091		41.015625
5092		44.921875
5093		41.015625
5094		44.921875
5095		39.062500
5096		42.968750
5097		37.109375
5098		41.015625
5099		37.109375
5100		39.062500
5101		33.203125
5102		37.109375
5103		31.250000
5104		37.109375
5105		31.250000
5106		35.156250
5107		29.296875
5108		33.203125
5109		27.343750
5110		31.250000
5111		25.390625
5112		29.296875
5113		23.437500
5114		27.343750
5115		21.484375
5116		25.390625
5117		19.531250
5118		23.437500
5119		17.578125
5120		21.484375
5121		15.625000
5122		19.531250
5123		11.718750
5124		17.578125
5125		11.718750
5126		15.625000
5127		9.765625
5128		13.671875
5129		5.859375
5130		11.718750
5131		5.859375
5132		7.812500
5133		1.953125
5134		5.859375
5135		0.000000
5136		3.906250
5137		-1.953125
5138		3.906250
5139		-3.906250
5140		0.000000
5141		-5.859375
5142		-1.953125
5143		-7.812500
5144		-3.906250
5145		-9.765625
5146		-5.859375
5147		-11.718750
5148		-7.812500
5149		-13.671875
5150		-9.765625
5151		-13.671875
5152		-11.718750
5153		-17.578125
5154		-11.718750
5155		-17.578125
5156		-13.671875
5157		-19.531250
5158		-15.625000
5159		-21.484375
5160		-17.578125
5161		-23.437500
5162		-19.531250
5163		-23.437500
5164		-19.531250
5165		-25.390625
5166		-21.484375
5167		-25.390625
5168		-23.437500
5169		-27.343750
5170		-23.437500
5171		-27.343750
5172		-25.390625
5173		-29.296875
5174		-25.390625
5175		-29.296875
5176		-27.343750
5177		-29.296875
5178		-27.343750
5179		-31.250000
5180		-29.296875
5181		-31.250000
5182		-29.296875
5183		-31.250000
5184		-29.296875
5185		-33.203125
5186		-27.343750
5187		-33.203125
5188		-29.296875
5189		-33.203125
5190		-29.296875
5191		-31.250000
5192		-29.296875
5193		-31.250000
5194		-29.296875
5195		-31.250000
5196		-29.296875
5197		-31.250000
5198		-27.343750
5199		-29.296875
5200		-27.343750
5201		-29.296875
5202		-27.343750
5203		-29.296875
5204		-25.390625
5205		-29.296875
5206		-25.390625
5207		-27.343750
5208		-25.390625
5209		-27.343750
5210		-23.437500
5211		-25.390625
5212		-21.484375
5213		-23.437500
5214		-21.484375
5215		-23.437500
5216		-19.531250
5217		-21.484375
5218		-17.578125
5219		-19.531250
5220		-15.625000
5221		-17.578125
5222		-13.671875
5223		-17.578125
5224		-13.671875
5225		-15.625000
5226		-11.718750
5227		-13.671875
5228		-9.765625
5229		-11.718750
5230		-7.812500
5231		-9.765625
5232		-5.859375
5233		-7.812500
5234		-3.906250
5235		-5.859375
5236		-1.953125
5237		-3.906250
5238		0.000000
5239		-1.953125
5240		1.953125
5241		0.000000
5242		3.906250
5243		1.953125
5244		5.859375
5245		3.906250
5246		7.812500
5247		5.859375
5248		9.765625
5249		7.812500
5250		11.718750
5251		9.765625
5252		13.671875
5253		11.718750
5254		15.625000
5255		13.671875
5256		17.578125
5257		15.625000
5258		19.531250
5259		17.578125
5260		23.437500
5261		19.531250
5262		25.390625
5263		21.484375
5264		27.343750
5265		25.390625
5266		27.343750
5267		27.343750
5268		29.296875
5269		29.296875
5270		33.203125
5271		29.296875
5272		33.203125
5273		31.250000
5274		35.156250
5275		33.203125
5276		37.109375
5277		35.156250
5278		39.062500
5279		37.109375
5280		41.015625
5281		39.062500
5282		42.968750
5283		41.015625
5284		42.968750
5285		41.015625
5286		44.921875
5287		42.968750
5288		46.875000
5289		42.968750
5290		46.875000
5291		44.921875
5292		48.828125
5293		46.875000
5294		50.781250
5295		46.875000
5296		50.781250
5297		48.828125
5298		50.781250
5299		48.828125
5300		52.734375
5301		50.781250
5302		52.734375
5303		50.781250
5304		54.687500
5305		50.781250
5306		54.687500
5307		50.781250
5308		54.687500
5309		50.781250
5310		54.687500
5311		52.734375
5312		54.687500
5313		52.734375
5314		54.687500
5315		52.734375
5316		54.687500
5317		52.734375
5318		54.687500
5319		52.734375
5320		54.687500
5321		50.781250
5322		54.687500
5323		50.781250
5324		54.687500
5325		50.781250
5326		54.687500
5327		50.781250
5328		52.734375
5329		48.828125
5330		52.734375
5331		48.828125
5332		52.734375
5333		46.875000
5334		52.734375
5335		46.875000
5336		50.781250
5337		46.875000
5338		48.828125
5339		44.921875
5340		48.828125
5341		44.921875
5342		46.875000
5343		42.968750
5344		46.875000
5345		41.015625
5346		44.921875
5347		39.062500
5348		42.968750
5349		37.109375
5350		42.968750
5351		37.109375
5352		41.015625
5353		35.156250
5354		39.062500
5355		33.203125
5356		39.062500
5357		31.250000
5358		35.156250
5359		31.250000
5360		33.203125
5361		27.343750
5362		33.203125
5363		25.390625
5364		29.296875
5365		23.437500
5366		27.343750
5367		23.437500
5368		25.390625
5369		21.484375
5370		25.390625
5371		19.531250
5372		23.437500
5373		15.625000
5374		21.484375
5375		15.625000
5376		17.578125
5377		11.718750
5378		17.578125
5379		9.765625
5380		15.625000
5381		7.812500
5382		11.718750
5383		5.859375
5384		9.765625
5385		3.906250
5386		7.812500
5387		0.000000
5388		5.859375
5389		0.000000
5390		3.906250
5391		-1.953125
5392		1.953125
5393		-3.906250
5394		0.000000
5395		-7.812500
5396		-1.953125
5397		-7.812500
5398		-3.906250
5399		-9.765625
5400		-5.859375
5401		-11.718750
5402		-7.812500
5403		-13.671875
5404		-9.765625
5405		-15.625000
5406		-11.718750
5407		-17.578125
5408		-13.671875
5409		-19.531250
5410		-15.625000
5411		-19.531250
5412		-17.578125
5413		-21.484375
5414		-17.578125
5415		-23.437500
5416		-19.531250
5417		-25.390625
5418		-19.531250
5419		-25.390625
5420		-23.437500
5421		-27.343750
5422		-23.437500
5423		-27.343750
5424		-23.437500
5425		-29.296875
5426		-25.390625
5427		-29.296875
5428		-25.390625
5429		-31.250000
5430		-27.343750
5431		-31.250000
5432		-27.343750
5433		-31.250000
5434		-27.343750
5435		-31.250000
5436		-29.296875
5437		-31.250000
5438		-29.296875
5439		-33.203125
5440		-29.296875
5441		-31.250000
5442		-29.296875
5443		-33.203125
5444		-27.343750
5445		-31.250000
5446		-29.296875
5447		-31.250000
5448		-29.296875
5449		-31.250000
5450		-29.296875
5451		-31.250000
5452		-27.343750
5453		-29.296875
5454		-27.343750
5455		-31.250000
5456		-27.343750
5457		-29.296875
5458		-25.390625
5459		-27.343750
5460		-25.390625
5461		-27.343750
5462		-25.390625
5463		-27.343750
5464		-23.437500
5465		-25.390625
5466		-21.484375
5467		-23.437500
5468		-21.484375
5469		-21.484375
5470		-19.531250
5471		-21.484375
5472		-17.578125
5473		-19.531250
5474		-15.625000
5475		-17.578125
5476		-13.671875
5477		-17.578125
5478		-13.671875
5479		-13.671875
5480		-11.718750
5481		-13.671875
5482		-9.765625
5483		-11.718750
5484		-7.812500
5485		-9.765625
5486		-5.859375
5487		-7.812500
5488		-3.906250
5489		-5.859375
5490		-1.953125
5491		-3.906250
5492		0.000000
5493		-1.953125
5494		1.953125
5495		0.000000
5496		3.906250
5497		1.953125
5498		5.859375
5499		3.906250
5500		7.812500
5501		5.859375
5502		9.765625
5503		9.765625
5504		11.718750
5505		9.765625
5506		15.625000
5507		13.671875
5508		15.625000
5509		15.625000
5510		19.531250
5511		17.578125
5512		21.484375
5513		17.578125
5514		23.437500
5515		21.484375
5516		25.390625
5517		23.437500
5518		27.343750
5519		25.390625
5520		29.296875
5521		27.343750
5522		31.250000
5523		27.343750
5524		33.203125
5525		31.250000
5526		35.156250
5527		33.203125
5528		37.109375
5529		35.156250
5530		37.109375
5531		35.156250
5532		39.062500
5533		37.109375
5534		41.015625
5535		39.062500
5536		42.968750
5537		41.015625
5538		42.968750
5539		41.015625
5540		44.921875
5541		42.968750
5542		46.875000
5543		44.921875
5544		48.828125
5545		44.921875
5546		48.828125
5547		46.875000
5548		48.828125
5549		46.875000
5550		50.781250
5551		46.875000
5552		50.781250
5553		48.828125
5554		52.734375
5555		48.828125
5556		54.687500
5557		50.781250
5558		52.734375
5559		50.781250
5560		54.687500
5561		50.781250
5562		54.687500
5563		50.781250
5564		54.687500
5565		50.781250
5566		54.687500
5567		50.781250
5568		54.687500
5569		52.734375
5570		54.687500
5571		52.734375
5572		54.687500
5573		50.781250
5574		54.687500
5575		50.781250
5576		54.687500
5577		50.781250
5578		54.687500
5579		50.781250
5580		52.734375
5581		50.781250
5582		52.734375
5583		48.828125
5584		52.734375
5585		48.828125
5586		52.734375
5587		48.828125
5588		50.781250
5589		46.875000
5590		50.781250
5591		44.921875
5592		48.828125
5593		44.921875
5594		48.828125
5595		42.968750
5596		46.875000
5597		42.968750
5598		46.875000
5599		41.015625
5600		44.921875
5601		39.062500
5602		42.968750
5603		37.109375
5604		41.015625
5605		37.109375
5606		39.062500
5607		35.156250
5608		39.062500
5609		31.250000
5610		37.109375
5611		31.250000
5612		35.156250
5613		29.296875
5614		33.203125
5615		27.343750
5616		31.250000
5617		25.390625
5618		29.296875
5619		23.437500
5620		29.296875
5621		21.484375
5622		25.390625
5623		19.531250
5624		23.437500
5625		17.578125
5626		21.484375
5627		15.625000
5628		19.531250
5629		11.718750
5630		17.578125
5631		11.718750
5632		15.625000
5633		9.765625
5634		13.671875
5635		7.812500
5636		11.718750
5637		5.859375
5638		9.765625
5639		1.953125
5640		5.859375
5641		0.000000
5642		5.859375
5643		-1.953125
5644		3.906250
5645		-3.906250
5646		1.953125
5647		-5.859375
5648		-1.953125
5649		-7.812500
5650		-1.953125
5651		-9.765625
5652		-5.859375
5653		-11.718750
5654		-7.812500
5655		-13.671875
5656		-9.765625
5657		-15.625000
5658		-9.765625
5659		-15.625000
5660		-13.671875
5661		-17.578125
5662		-13.671875
5663		-19.531250
5664		-15.625000
5665		-21.484375
5666		-17.578125
5667		-23.437500
5668		-19.531250
5669		-23.437500
5670		-19.531250
5671		-25.390625
5672		-21.484375
5673		-27.343750
5674		-23.437500
5675		-27.343750
5676		-23.437500
5677		-27.343750
5678		-25.390625
5679		-29.296875
5680		-25.390625
5681		-31.250000
5682		-27.343750
5683		-31.250000
5684		-27.343750
5685		-31.250000
5686		-27.343750
5687		-31.250000
5688		-29.296875
5689		-31.250000
5690		-29.296875
5691		-33.203125
5692		-29.296875
5693		-33.203125
5694		-29.296875
5695		-33.203125
5696		-29.296875
5697		-33.203125
5698		-29.296875
5699		-33.203125
5700		-29.296875
5701		-33.203125
5702		-29.296875
5703		-33.203125
5704		-27.343750
5705		-31.250000
5706		-29.296875
5707		-31.250000
5708		-27.343750
5709		-29.296875
5710		-27.343750
5711		-29.296875
5712		-25.390625
5713		-29.296875
5714		-25.390625
5715		-27.343750
5716		-23.437500
5717		-27.343750
5718		-23.437500
5719		-25.390625
5720		-21.484375
5721		-23.437500
5722		-21.484375
5723		-21.484375
5724		-17.578125
5725		-21.484375
5726		-17.578125
5727		-19.531250
5728		-15.625000
5729		-17.578125
5730		-13.671875
5731		-15.625000
5732		-11.718750
5733		-15.625000
5734		-9.765625
5735		-13.671875
5736		-7.812500
5737		-11.718750
5738		-7.812500
5739		-9.765625
5740		-5.859375
5741		-7.812500
5742		-3.906250
5743		-5.859375
5744		-1.953125
5745		-3.906250
5746		1.953125
5747		-1.953125
5748		1.953125
5749		0.000000
5750		3.906250
5751		1.953125
5752		7.812500
5753		3.906250
5754		9.765625
5755		7.812500
5756		9.765625
5757		9.765625
5758		13.671875
5759		9.765625
5760		15.625000
5761		13.671875
5762		17.578125
5763		15.625000
5764		19.531250
5765		17.578125
5766		21.484375
5767		19.531250
5768		23.437500
5769		21.484375
5770		25.390625
5771		23.437500
5772		27.343750
5773		25.390625
5774		29.296875
5775		27.343750
5776		31.250000
5777		29.296875
5778		33.203125
5779		31.250000
5780		35.156250
5781		33.203125
5782		37.109375
5783		35.156250
5784		39.062500
5785		35.156250
5786		41.015625
5787		37.109375
5788		41.015625
5789		39.062500
5790		42.968750
5791		39.062500
5792		44.921875
5793		41.015625
5794		44.921875
5795		42.968750
5796		46.875000
5797		42.968750
5798		48.828125
5799		44.921875
5800		48.828125
5801		46.875000
5802		50.781250
5803		46.875000
5804		50.781250
5805		48.828125
5806		50.781250
5807		48.828125
5808		52.734375
5809		48.828125
5810		52.734375
5811		50.781250
5812		54.687500
5813		50.781250
5814		54.687500
5815		50.781250
5816		54.687500
5817		50.781250
5818		54.687500
5819		50.781250
5820		54.687500
5821		52.734375
5822		54.687500
5823		52.734375
5824		54.687500
5825		50.781250
5826		54.687500
5827		50.781250
5828		54.687500
5829		50.781250
5830		54.687500
5831		50.781250
5832		52.734375
5833		48.828125
5834		52.734375
5835		48.828125
5836		52.734375
5837		48.828125
5838		52.734375
5839		48.828125
5840		50.781250
5841		46.875000
5842		50.781250
5843		44.921875
5844		48.828125
5845		44.921875
5846		48.828125
5847		42.968750
5848		46.875000
5849		42.968750
5850		46.875000
5851		41.015625
5852		44.921875
5853		39.062500
5854		42.968750
5855		39.062500
5856		42.968750
5857		37.109375
5858		41.015625
5859		35.156250
5860		39.062500
5861		33.203125
5862		37.109375
5863		31.250000
5864		37.109375
5865		29.296875
5866		35.156250
5867		29.296875
5868		33.203125
5869		27.343750
5870		31.250000
5871		25.390625
5872		29.296875
5873		21.484375
5874		27.343750
5875		19.531250
5876		25.390625
5877		19.531250
5878		23.437500
5879		17.578125
5880		21.484375
5881		13.671875
5882		19.531250
5883		11.718750
5884		15.625000
5885		9.765625
5886		15.625000
5887		7.812500
5888		11.718750
5889		5.859375
5890		9.765625
5891		3.906250
5892		7.812500
5893		1.953125
5894		7.812500
5895		0.000000
5896		3.906250
5897		-3.906250
5898		1.953125
5899		-3.906250
5900		0.000000
5901		-5.859375
5902		-1.953125
5903		-9.765625
5904		-3.906250
5905		-9.765625
5906		-5.859375
5907		-11.718750
5908		-7.812500
5909		-13.671875
5910		-9.765625
5911		-15.625000
5912		-9.765625
5913		-17.578125
5914		-13.671875
5915		-19.531250
5916		-13.671875
5917		-21.484375
5918		-17.578125
5919		-21.484375
5920		-17.578125
5921		-23.437500
5922		-19.531250
5923		-23.437500
5924		-21.484375
5925		-25.390625
5926		-23.437500
5927		-27.343750
5928		-23.437500
5929		-27.343750
5930		-23.437500
5931		-29.296875
5932		-25.390625
5933		-29.296875
5934		-25.390625
5935		-31.250000
5936		-27.343750
5937		-31.250000
5938		-27.343750
5939		-31.250000
5940		-29.296875
5941		-31.250000
5942		-29.296875
5943		-33.203125
5944		-29.296875
5945		-33.203125
5946		-29.296875
5947		-33.203125
5948		-29.296875
5949		-33.203125
5950		-29.296875
5951		-33.203125
5952		-29.296875
5953		-33.203125
5954		-29.296875
5955		-33.203125
5956		-29.296875
5957		-33.203125
5958		-29.296875
5959		-31.250000
5960		-27.343750
5961		-31.250000
5962		-27.343750
5963		-31.250000
5964		-25.390625
5965		-29.296875
5966		-25.390625
5967		-29.296875
5968		-25.390625
5969		-29.296875
5970		-23.437500
5971		-27.343750
5972		-21.484375
5973		-25.390625
5974		-21.484375
5975		-23.437500
5976		-19.531250
5977		-23.437500
5978		-17.578125
5979		-21.484375
5980		-15.625000
5981		-21.484375
5982		-15.625000
5983		-19.531250
5984		-13.671875
5985		-17.578125
5986		-11.718750
5987		-15.625000
5988		-9.765625
5989		-13.671875
5990		-9.765625
5991		-11.718750
5992		-7.812500
5993		-9.765625
5994		-3.906250
5995		-7.812500
5996		-1.953125
5997		-5.859375
5998		0.000000
5999		-3.906250
6000		1.953125
6001		-1.953125
6002		3.906250
6003		0.000000
6004		5.859375
6005		1.953125
6006		7.812500
6007		5.859375
6008		9.765625
6009		7.812500
6010		11.718750
6011		9.765625
6012		13.671875
6013		11.718750
6014		15.625000
6015		13.671875
6016		17.578125
6017		15.625000
6018		19.531250
6019		17.578125
6020		21.484375
6021		19.531250
6022		23.437500
6023		21.484375
6024		25.390625
6025		23.437500
6026		27.343750
6027		25.390625
6028		29.296875
6029		27.343750
6030		31.250000
6031		29.296875
6032		33.203125
6033		31.250000
6034		35.156250
6035		33.203125
6036		37.109375
6037		35.156250
6038		37.109375
6039		35.156250
6040		39.062500
6041		39.062500
6042		41.015625
6043		39.062500
6044		42.968750
6045		41.015625
6046		42.968750
6047		42.968750
6048		44.921875
6049		42.968750
6050		46.875000
6051		44.921875
6052		46.875000
6053		44.921875
6054		48.828125
6055		46.875000
6056		48.828125
6057		46.875000
6058		50.781250
6059		48.828125
6060		50.781250
6061		48.828125
6062		50.781250
6063		50.781250
6064		52.734375
6065		50.781250
6066		52.734375
6067		50.781250
6068		52.734375
6069		50.781250
6070		52.734375
6071		50.781250
6072		52.734375
6073		50.781250
6074		54.687500
6075		52.734375
6076		54.687500
6077		50.781250
6078		54.687500
6079		50.781250
6080		52.734375
6081		50.781250
6082		52.734375
6083		50.781250
6084		52.734375
6085		50.781250
6086		54.687500
6087		50.781250
6088		52.734375
6089		48.828125
6090		52.734375
6091		48.828125
6092		50.781250
6093		46.875000
6094		50.781250
6095		46.875000
6096		48.828125
6097		44.921875
6098		48.828125
6099		44.921875
6100		46.875000
6101		42.968750
6102		46.875000
6103		42.968750
6104		44.921875
6105		41.015625
6106		42.968750
6107		39.062500
6108		42.968750
6109		37.109375
6110		41.015625
6111		35.156250
6112		42.968750
6113		31.250000
6114		41.015625
6115		31.250000
6116		39.062500
6117		31.250000
6118		35.156250
6119		29.296875
6120		33.203125
6121		27.343750
6122		31.250000
6123		25.390625
6124		29.296875
6125		23.437500
6126		27.343750
6127		17.578125
6128		27.343750
6129		15.625000
6130		25.390625
6131		15.625000
6132		25.390625
6133		15.625000
6134		21.484375
6135		13.671875
6136		17.578125
6137		11.718750
6138		15.625000
6139		9.765625
6140		13.671875
6141		7.812500
6142		11.718750
6143		5.859375
6144		9.765625
6145		1.953125
6146		9.765625
6147		-1.953125
6148		7.812500
6149		-3.906250
6150		5.859375
6151		-1.953125
6152		0.000000
6153		-3.906250
6154		-1.953125
6155		-5.859375
6156		-3.906250
6157		-9.765625
6158		-5.859375
6159		-9.765625
6160		-7.812500
6161		-15.625000
6162		-5.859375
6163		-17.578125
6164		-9.765625
6165		-19.531250
6166		-9.765625
6167		-17.578125
6168		-15.625000
6169		-19.531250
6170		-15.625000
6171		-21.484375
6172		-17.578125
6173		-23.437500
6174		-19.531250
6175		-23.437500
6176		-21.484375
6177		-27.343750
6178		-19.531250
6179		-29.296875
6180		-19.531250
6181		-31.250000
6182		-21.484375
6183		-31.250000
6184		-21.484375
6185		-29.296875
6186		-27.343750
6187		-29.296875
6188		-27.343750
6189		-31.250000
6190		-27.343750
6191		-31.250000
6192		-29.296875
6193		-33.203125
6194		-29.296875
6195		-37.109375
6196		-25.390625
6197		-37.109375
6198		-27.343750
6199		-37.109375
6200		-27.343750
6201		-33.203125
6202		-31.250000
6203		-33.203125
6204		-29.296875
6205		-33.203125
6206		-29.296875
6207		-33.203125
6208		-29.296875
6209		-33.203125
6210		-29.296875
6211		-35.156250
6212		-25.390625
6213		-35.156250
6214		-25.390625
6215		-33.203125
6216		-23.437500
6217		-33.203125
6218		-23.437500
6219		-29.296875
6220		-25.390625
6221		-27.343750
6222		-25.390625
6223		-27.343750
6224		-23.437500
6225		-25.390625
6226		-23.437500
6227		-25.390625
6228		-21.484375
6229		-27.343750
6230		-17.578125
6231		-23.437500
6232		-15.625000
6233		-23.437500
6234		-13.671875
6235		-17.578125
6236		-15.625000
6237		-17.578125
6238		-13.671875
6239		-15.625000
6240		-11.718750
6241		-13.671875
6242		-9.765625
6243		-11.718750
6244		-7.812500
6245		-13.671875
6246		-1.953125
6247		-9.765625
6248		-1.953125
6249		-9.765625
6250		0.000000
6251		-3.906250
6252		0.000000
6253		-1.953125
6254		1.953125
6255		0.000000
6256		3.906250
6257		1.953125
6258		5.859375
6259		3.906250
6260		7.812500
6261		5.859375
6262		11.718750
6263		5.859375
6264		15.625000
6265		7.812500
6266		17.578125
6267		9.765625
6268		19.531250
6269		15.625000
6270		17.578125
6271		17.578125
6272		19.531250
6273		19.531250
6274		21.484375
6275		21.484375
6276		25.390625
6277		23.437500
6278		25.390625
6279		21.484375
6280		31.250000
6281		23.437500
6282		33.203125
6283		25.390625
6284		35.156250
6285		31.250000
6286		33.203125
6287		31.250000
6288		35.156250
6289		33.203125
6290		37.109375
6291		35.156250
6292		39.062500
6293		37.109375
6294		41.015625
6295		39.062500
6296		41.015625
6297		39.062500
6298		44.921875
6299		39.062500
6300		46.875000
6301		42.968750
6302		44.921875
6303		44.921875
6304		46.875000
6305		44.921875
6306		48.828125
6307		46.875000
6308		48.828125
6309		46.875000
6310		50.781250
6311		48.828125
6312		50.781250
6313		48.828125
6314		50.781250
6315		46.875000
6316		54.687500
6317		48.828125
6318		54.687500
6319		50.781250
6320		52.734375
6321		50.781250
6322		54.687500
6323		50.781250
6324		54.687500
6325		52.734375
6326		54.687500
6327		52.734375
6328		54.687500
6329		52.734375
6330		54.687500
6331		50.781250
6332		54.687500
6333		50.781250
6334		56.640625
6335		50.781250
6336		54.687500
6337		50.781250
6338		52.734375
6339		50.781250
6340		52.734375
6341		50.781250
6342		52.734375
6343		48.828125
6344		50.781250
6345		48.828125
6346		50.781250
6347		46.875000
6348		50.781250
6349		46.875000
6350		48.828125
6351		44.921875
6352		48.828125
6353		44.921875
6354		46.875000
6355		42.968750
6356		46.875000
6357		42.968750
6358		44.921875
6359		41.015625
6360		42.968750
6361		39.062500
6362		42.968750
6363		37.109375
6364		41.015625
6365		37.109375
6366		39.062500
6367		35.156250
6368		37.109375
6369		33.203125
6370		37.109375
6371		31.250000
6372		35.156250
6373		29.296875
6374		33.203125
6375		27.343750
6376		31.250000
6377		25.390625
6378		29.296875
6379		23.437500
6380		27.343750
6381		21.484375
6382		25.390625
6383		19.531250
6384		23.437500
6385		17.578125
6386		21.484375
6387		15.625000
6388		19.531250
6389		13.671875
6390		17.578125
6391		11.718750
6392		15.625000
6393		9.765625
6394		13.671875
6395		5.859375
6396		9.765625
6397		3.906250
6398		9.765625
6399		1.953125
6400		5.859375
6401		0.000000
6402		3.906250
6403		-1.953125
6404		1.953125
6405		-3.906250
6406		0.000000
6407		-5.859375
6408		-1.953125
6409		-7.812500
6410		-3.906250
6411		-9.765625
6412		-5.859375
6413		-11.718750
6414		-7.812500
6415		-13.671875
6416		-9.765625
6417		-15.625000
6418		-11.718750
6419		-17.578125
6420		-13.671875
6421		-17.578125
6422		-13.671875
6423		-19.531250
6424		-17.578125
6425		-21.484375
6426		-17.578125
6427		-23.437500
6428		-17.578125
6429		-25.390625
6430		-21.484375
6431		-25.390625
6432		-21.484375
6433		-25.390625
6434		-23.437500
6435		-27.343750
6436		-25.390625
6437		-29.296875
6438		-25.390625
6439		-29.296875
6440		-25.390625
6441		-29.296875
6442		-27.343750
6443		-31.250000
6444		-27.343750
6445		-31.250000
6446		-29.296875
6447		-33.203125
6448		-27.343750
6449		-33.203125
6450		-29.296875
6451		-31.250000
6452		-29.296875
6453		-33.203125
6454		-29.296875
6455		-33.203125
6456		-29.296875
6457		-33.203125
6458		-29.296875
6459		-31.250000
6460		-29.296875
6461		-33.203125
6462		-29.296875
6463		-33.203125
6464		-27.343750
6465		-31.250000
6466		-27.343750
6467		-31.250000
6468		-27.343750
6469		-29.296875
6470		-27.343750
6471		-29.296875
6472		-25.390625
6473		-29.296875
6474		-25.390625
6475		-27.343750
6476		-25.390625
6477		-27.343750
6478		-23.437500
6479		-25.390625
6480		-21.484375
6481		-23.437500
6482		-19.531250
6483		-23.437500
6484		-19.531250
6485		-21.484375
6486		-17.578125
6487		-19.531250
6488		-15.625000
6489		-17.578125
6490		-13.671875
6491		-15.625000
6492		-13.671875
6493		-13.671875
6494		-11.718750
6495		-13.671875
6496		-9.765625
6497		-11.718750
6498		-7.812500
6499		-9.765625
6500		-5.859375
6501		-7.812500
6502		-3.906250
6503		-5.859375
6504		-1.953125
6505		-3.906250
6506		0.000000
6507		-1.953125
6508		1.953125
6509		0.000000
6510		3.906250
6511		1.953125
6512		7.812500
6513		3.906250
6514		9.765625
6515		5.859375
6516		11.718750
6517		7.812500
6518		13.671875
6519		11.718750
6520		15.625000
6521		13.671875
6522		17.578125
6523		13.671875
6524		19.531250
6525		17.578125
6526		21.484375
6527		19.531250
6528		23.437500
6529		21.484375
6530		25.390625
6531		21.484375
6532		27.343750
6533		25.390625
6534		29.296875
6535		27.343750
6536		31.250000
6537		29.296875
6538		33.203125
6539		31.250000
6540		35.156250
6541		33.203125
6542		37.109375
6543		35.156250
6544		37.109375
6545		37.109375
6546		39.062500
6547		37.109375
6548		41.015625
6549		39.062500
6550		42.968750
6551		41.015625
6552		42.968750
6553		41.015625
6554		46.875000
6555		42.968750
6556		46.875000
6557		42.968750
6558		46.875000
6559		44.921875
6560		48.828125
6561		46.875000
6562		48.828125
6563		46.875000
6564		50.781250
6565		46.875000
6566		50.781250
6567		48.828125
6568		52.734375
6569		50.781250
6570		52.734375
6571		50.781250
6572		52.734375
6573		50.781250
6574		54.687500
6575		50.781250
6576		54.687500
6577		52.734375
6578		54.687500
6579		52.734375
6580		54.687500
6581		52.734375
6582		54.687500
6583		52.734375
6584		54.687500
6585		52.734375
6586		54.687500
6587		50.781250
6588		54.687500
6589		50.781250
6590		54.687500
6591		50.781250
6592		52.734375
6593		50.781250
6594		52.734375
6595		48.828125
6596		52.734375
6597		48.828125
6598		52.734375
6599		48.828125
6600		52.734375
6601		46.875000
6602		50.781250
6603		46.875000
6604		48.828125
6605		44.921875
6606		48.828125
6607		44.921875
6608		46.875000
6609		42.968750
6610		46.875000
6611		41.015625
6612		44.921875
6613		41.015625
6614		42.968750
6615		39.062500
6616		42.968750
6617		37.109375
6618		41.015625
6619		35.156250
6620		39.062500
6621		35.156250
6622		37.109375
6623		33.203125
6624		35.156250
6625		31.250000
6626		35.156250
6627		29.296875
6628		31.250000
6629		27.343750
6630		31.250000
6631		25.390625
6632		29.296875
6633		23.437500
6634		27.343750
6635		21.484375
6636		25.390625
6637		19.531250
6638		23.437500
6639		17.578125
6640		21.484375
6641		15.625000
6642		19.531250
6643		13.671875
6644		17.578125
6645		11.718750
6646		13.671875
6647		7.812500
6648		11.718750
6649		5.859375
6650		9.765625
6651		3.906250
6652		7.812500
6653		1.953125
6654		5.859375
6655		0.000000
6656		3.906250
6657		-1.953125
6658		1.953125
6659		-3.906250
6660		0.000000
6661		-5.859375
6662		-1.953125
6663		-7.812500
6664		-3.906250
6665		-9.765625
6666		-5.859375
6667		-11.718750
6668		-7.812500
6669		-13.671875
6670		-9.765625
6671		-15.625000
6672		-11.718750
6673		-17.578125
6674		-13.671875
6675		-17.578125
6676		-15.625000
6677		-19.531250
6678		-17.578125
6679		-21.484375
6680		-17.578125
6681		-23.437500
6682		-19.531250
6683		-23.437500
6684		-21.484375
6685		-25.390625
6686		-23.437500
6687		-27.343750
6688		-23.437500
6689		-27.343750
6690		-23.437500
6691		-27.343750
6692		-25.390625
6693		-29.296875
6694		-27.343750
6695		-29.296875
6696		-27.343750
6697		-31.250000
6698		-27.343750
6699		-31.250000
6700		-27.343750
6701		-31.250000
6702		-29.296875
6703		-31.250000
6704		-29.296875
6705		-31.250000
6706		-29.296875
6707		-31.250000
6708		-29.296875
6709		-33.203125
6710		-29.296875
6711		-31.250000
6712		-29.296875
6713		-31.250000
6714		-29.296875
6715		-33.203125
6716		-29.296875
6717		-31.250000
6718		-27.343750
6719		-31.250000
6720		-29.296875
6721		-31.250000
6722		-27.343750
6723		-31.250000
6724		-27.343750
6725		-29.296875
6726		-25.390625
6727		-27.343750
6728		-25.390625
6729		-27.343750
6730		-23.437500
6731		-25.390625
6732		-23.437500
6733		-25.390625
6734		-19.531250
6735		-25.390625
6736		-19.531250
6737		-21.484375
6738		-17.578125
6739		-19.531250
6740		-17.578125
6741		-19.531250
6742		-15.625000
6743		-17.578125
6744		-13.671875
6745		-15.625000
6746		-11.718750
6747		-13.671875
6748		-9.765625
6749		-13.671875
6750		-7.812500
6751		-11.718750
6752		-5.859375
6753		-7.812500
6754		-3.906250
6755		-5.859375
6756		-1.953125
6757		-3.906250
6758		0.000000
6759		-1.953125
6760		1.953125
6761		0.000000
6762		3.906250
6763		1.953125
6764		5.859375
6765		3.906250
6766		7.812500
6767		3.906250
6768		11.718750
6769		5.859375
6770		11.718750
6771		9.765625
6772		13.671875
6773		11.718750
6774		15.625000
6775		13.671875
6776		17.578125
6777		15.625000
6778		19.531250
6779		17.578125
6780		21.484375
6781		19.531250
6782		23.437500
6783		19.531250
6784		27.343750
6785		23.437500
6786		29.296875
6787		25.390625
6788		29.296875
6789		27.343750
6790		31.250000
6791		29.296875
6792		33.203125
6793		31.250000
6794		35.156250
6795		33.203125
6796		37.109375
6797		35.156250
6798		39.062500
6799		35.156250
6800		41.015625
6801		37.109375
6802		42.968750
6803		39.062500
6804		42.968750
6805		41.015625
6806		44.921875
6807		42.968750
6808		44.921875
6809		44.921875
6810		46.875000
6811		44.921875
6812		48.828125
6813		46.875000
6814		48.828125
6815		46.875000
6816		48.828125
6817		46.875000
6818		52.734375
6819		46.875000
6820		52.734375
6821		48.828125
6822		52.734375
6823		48.828125
6824		52.734375
6825		50.781250
6826		52.734375
6827		50.781250
6828		52.734375
6829		50.781250
6830		54.687500
6831		52.734375
6832		54.687500
6833		50.781250
6834		56.640625
6835		50.781250
6836		56.640625
6837		52.734375
6838		54.687500
6839		52.734375
6840		54.687500
6841		50.781250
6842		54.687500
6843		50.781250
6844		54.687500
6845		50.781250
6846		52.734375
6847		50.781250
6848		52.734375
6849		48.828125
6850		52.734375
6851		46.875000
6852		52.734375
6853		46.875000
6854		52.734375
6855		46.875000
6856		50.781250
6857		46.875000
6858		48.828125
6859		44.921875
6860		48.828125
6861		42.968750
6862		46.875000
6863		42.968750
6864		44.921875
6865		41.015625
6866		44.921875
6867		39.062500
6868		44.921875
6869		37.109375
6870		42.968750
6871		37.109375
6872		41.015625
6873		35.156250
6874		39.062500
6875		33.203125
6876		37.109375
6877		31.250000
6878		35.156250
6879		31.250000
6880		33.203125
6881		29.296875
6882		31.250000
6883		23.437500
6884		31.250000
6885		21.484375
6886		29.296875
6887		23.437500
6888		27.343750
6889		21.484375
6890		23.437500
6891		17.578125
6892		21.484375
6893		15.625000
6894		19.531250
6895		13.671875
6896		17.578125
6897		11.718750
6898		15.625000
6899		9.765625
6900		13.671875
6901		5.859375
6902		13.671875
6903		5.859375
6904		11.718750
6905		3.906250
6906		7.812500
6907		1.953125
6908		5.859375
6909		0.000000
6910		3.906250
6911		-1.953125
6912		1.953125
6913		-3.906250
6914		0.000000
6915		-5.859375
6916		-3.906250
6917		-7.812500
6918		-3.906250
6919		-9.765625
6920		-5.859375
6921		-11.718750
6922		-9.765625
6923		-13.671875
6924		-9.765625
6925		-15.625000
6926		-11.718750
6927		-17.578125
6928		-13.671875
6929		-19.531250
6930		-15.625000
6931		-19.531250
6932		-17.578125
6933		-23.437500
6934		-19.531250
6935		-23.437500
6936		-19.531250
6937		-25.390625
6938		-21.484375
6939		-25.390625
6940		-23.437500
6941		-27.343750
6942		-23.437500
6943		-27.343750
6944		-25.390625
6945		-29.296875
6946		-25.390625
6947		-29.296875
6948		-27.343750
6949		-29.296875
6950		-27.343750
6951		-33.203125
6952		-27.343750
6953		-31.250000
6954		-29.296875
6955		-33.203125
6956		-29.296875
6957		-31.250000
6958		-29.296875
6959		-31.250000
6960		-29.296875
6961		-31.250000
6962		-29.296875
6963		-31.250000
6964		-29.296875
6965		-31.250000
6966		-29.296875
6967		-33.203125
6968		-29.296875
6969		-33.203125
6970		-29.296875
6971		-31.250000
6972		-29.296875
6973		-31.250000
6974		-27.343750
6975		-29.296875
6976		-27.343750
6977		-29.296875
6978		-27.343750
6979		-29.296875
6980		-25.390625
6981		-27.343750
6982		-25.390625
6983		-25.390625
6984		-23.437500
6985		-25.390625
6986		-23.437500
6987		-23.437500
6988		-21.484375
6989		-23.437500
6990		-19.531250
6991		-21.484375
6992		-17.578125
6993		-19.531250
6994		-17.578125
6995		-17.578125
6996		-15.625000
6997		-17.578125
6998		-13.671875
6999		-15.625000
7000		-11.718750
7001		-15.625000
7002		-9.765625
7003		-11.718750
7004		-7.812500
7005		-9.765625
7006		-5.859375
7007		-7.812500
7008		-3.906250
7009		-5.859375
7010		-1.953125
7011		-3.906250
7012		0.000000
7013		-1.953125
7014		1.953125
7015		0.000000
7016		3.906250
7017		1.953125
7018		5.859375
7019		3.906250
7020		7.812500
7021		5.859375
7022		9.765625
7023		7.812500
7024		11.718750
7025		9.765625
7026		13.671875
7027		13.671875
7028		15.625000
7029		15.625000
7030		17.578125
7031		17.578125
7032		19.531250
7033		19.531250
7034		23.437500
7035		21.484375
7036		23.437500
7037		23.437500
7038		27.343750
7039		25.390625
7040		29.296875
7041		27.343750
7042		29.296875
7043		29.296875
7044		31.250000
7045		29.296875
7046		33.203125
7047		33.203125
7048		35.156250
7049		33.203125
7050		37.109375
7051		35.156250
7052		39.062500
7053		37.109375
7054		41.015625
7055		39.062500
7056		42.968750
7057		41.015625
7058		42.968750
7059		41.015625
7060		44.921875
7061		42.968750
7062		44.921875
7063		44.921875
7064		46.875000
7065		44.921875
7066		48.828125
7067		46.875000
7068		48.828125
7069		46.875000
7070		50.781250
7071		48.828125
7072		50.781250
7073		48.828125
7074		50.781250
7075		50.781250
7076		52.734375
7077		48.828125
7078		52.734375
7079		50.781250
7080		52.734375
7081		52.734375
7082		52.734375
7083		52.734375
7084		54.687500
7085		52.734375
7086		54.687500
7087		52.734375
7088		54.687500
7089		52.734375
7090		54.687500
7091		52.734375
7092		54.687500
7093		52.734375
7094		54.687500
7095		50.781250
7096		54.687500
7097		50.781250
7098		54.687500
7099		50.781250
7100		52.734375
7101		50.781250
7102		52.734375
7103		48.828125
7104		52.734375
7105		48.828125
7106		50.781250
7107		48.828125
7108		50.781250
7109		46.875000
7110		48.828125
7111		46.875000
7112		48.828125
7113		44.921875
7114		46.875000
7115		42.968750
7116		46.875000
7117		42.968750
7118		44.921875
7119		41.015625
7120		44.921875
7121		39.062500
7122		42.968750
7123		39.062500
7124		41.015625
7125		37.109375
7126		39.062500
7127		35.156250
7128		37.109375
7129		33.203125
7130		37.109375
7131		31.250000
7132		35.156250
7133		29.296875
7134		33.203125
7135		27.343750
7136		31.250000
7137		25.390625
7138		29.296875
7139		23.437500
7140		27.343750
7141		21.484375
7142		25.390625
7143		19.531250
7144		23.437500
7145		17.578125
7146		21.484375
7147		15.625000
7148		19.531250
7149		13.671875
7150		17.578125
7151		11.718750
7152		15.625000
7153		9.765625
7154		13.671875
7155		7.812500
7156		11.718750
7157		5.859375
7158		9.765625
7159		3.906250
7160		5.859375
7161		1.953125
7162		3.906250
7163		0.000000
7164		1.953125
7165		-1.953125
7166		0.000000
7167		-5.859375
7168		-1.953125
7169		-5.859375
7170		-3.906250
7171		-7.812500
7172		-5.859375
7173		-9.765625
7174		-7.812500
7175		-13.671875
7176		-9.765625
7177		-13.671875
7178		-11.718750
7179		-15.625000
7180		-13.671875
7181		-17.578125
7182		-13.671875
7183		-19.531250
7184		-15.625000
7185		-21.484375
7186		-17.578125
7187		-21.484375
7188		-19.531250
7189		-23.437500
7190		-21.484375
7191		-25.390625
7192		-21.484375
7193		-25.390625
7194		-23.437500
7195		-27.343750
7196		-23.437500
7197		-27.343750
7198		-25.390625
7199		-29.296875
7200		-25.390625
7201		-29.296875
7202		-27.343750
7203		-29.296875
7204		-27.343750
7205		-31.250000
7206		-29.296875
7207		-31.250000
7208		-29.296875
7209		-31.250000
7210		-29.296875
7211		-31.250000
7212		-29.296875
7213		-31.250000
7214		-29.296875
7215		-31.250000
7216		-29.296875
7217		-31.250000
7218		-29.296875
7219		-31.250000
7220		-29.296875
7221		-31.250000
7222		-29.296875
7223		-31.250000
7224		-29.296875
7225		-31.250000
7226		-27.343750
7227		-29.296875
7228		-27.343750
7229		-29.296875
7230		-27.343750
7231		-29.296875
7232		-25.390625
7233		-27.343750
7234		-25.390625
7235		-27.343750
7236		-25.390625
7237		-25.390625
7238		-23.437500
7239		-25.390625
7240		-21.484375
7241		-23.437500
7242		-21.484375
7243		-23.437500
7244		-19.531250
7245		-21.484375
7246		-17.578125
7247		-19.531250
7248		-15.625000
7249		-17.578125
7250		-13.671875
7251		-15.625000
7252		-11.718750
7253		-13.671875
7254		-11.718750
7255		-11.718750
7256		-9.765625
7257		-11.718750
7258		-7.812500
7259		-9.765625
7260		-5.859375
7261		-7.812500
7262		-3.906250
7263		-5.859375
7264		-1.953125
7265		-3.906250
7266		0.000000
7267		0.000000
7268		1.953125
7269		0.000000
7270		3.906250
7271		3.906250
7272		5.859375
7273		3.906250
7274		9.765625
7275		7.812500
7276		11.718750
7277		9.765625
7278		13.671875
7279		11.718750
7280		15.625000
7281		13.671875
7282		17.578125
7283		15.625000
7284		19.531250
7285		17.578125
7286		21.484375
7287		19.531250
7288		23.437500
7289		21.484375
7290		25.390625
7291		23.437500
7292		27.343750
7293		25.390625
7294		29.296875
7295		27.343750
7296		31.250000
7297		29.296875
7298		33.203125
7299		31.250000
7300		35.156250
7301		33.203125
7302		35.156250
7303		35.156250
7304		37.109375
7305		37.109375
7306		41.015625
7307		37.109375
7308		41.015625
7309		39.062500
7310		42.968750
7311		41.015625
7312		42.968750
7313		42.968750
7314		44.921875
7315		42.968750
7316		46.875000
7317		44.921875
7318		46.875000
7319		44.921875
7320		48.828125
7321		46.875000
7322		50.781250
7323		48.828125
7324		50.781250
7325		48.828125
7326		50.781250
7327		48.828125
7328		52.734375
7329		50.781250
7330		52.734375
7331		50.781250
7332		52.734375
7333		50.781250
7334		52.734375
7335		52.734375
7336		54.687500
7337		52.734375
7338		54.687500
7339		52.734375
7340		54.687500
7341		52.734375
7342		54.687500
7343		52.734375
7344		54.687500
7345		52.734375
7346		54.687500
7347		52.734375
7348		54.687500
7349		52.734375
7350		54.687500
7351		50.781250
7352		54.687500
7353		50.781250
7354		52.734375
7355		50.781250
7356		52.734375
7357		48.828125
7358		52.734375
7359		48.828125
7360		50.781250
7361		48.828125
7362		50.781250
7363		46.875000
7364		48.828125
7365		46.875000
7366		48.828125
7367		44.921875
7368		46.875000
7369		42.968750
7370		46.875000
7371		42.968750
7372		46.875000
7373		41.015625
7374		42.968750
7375		39.062500
7376		42.968750
7377		39.062500
7378		41.015625
7379		37.109375
7380		39.062500
7381		35.156250
7382		39.062500
7383		33.203125
7384		37.109375
7385		31.250000
7386		35.156250
7387		29.296875
7388		33.203125
7389		27.343750
7390		31.250000
7391		25.390625
7392		29.296875
7393		23.437500
7394		27.343750
7395		21.484375
7396		25.390625
7397		19.531250
7398		23.437500
7399		17.578125
7400		21.484375
7401		15.625000
7402		19.531250
7403		13.671875
7404		17.578125
7405		11.718750
7406		15.625000
7407		9.765625
7408		13.671875
7409		7.812500
7410		11.718750
7411		5.859375
7412		7.812500
7413		3.906250
7414		5.859375
7415		1.953125
7416		3.906250
7417		-1.953125
7418		1.953125
7419		-3.906250
7420		0.000000
7421		-5.859375
7422		-1.953125
7423		-7.812500
7424		-3.906250
7425		-9.765625
7426		-5.859375
7427		-11.718750
7428		-7.812500
7429		-13.671875
7430		-9.765625
7431		-13.671875
7432		-11.718750
7433		-15.625000
7434		-13.671875
7435		-17.578125
7436		-13.671875
7437		-19.531250
7438		-15.625000
7439		-21.484375
7440		-17.578125
7441		-21.484375
7442		-19.531250
7443		-23.437500
7444		-21.484375
7445		-25.390625
7446		-21.484375
7447		-25.390625
7448		-23.437500
7449		-27.343750
7450		-25.390625
7451		-27.343750
7452		-25.390625
7453		-29.296875
7454		-25.390625
7455		-29.296875
7456		-27.343750
7457		-29.296875
7458		-27.343750
7459		-31.250000
7460		-27.343750
7461		-31.250000
7462		-29.296875
7463		-31.250000
7464		-29.296875
7465		-31.250000
7466		-29.296875
7467		-33.203125
7468		-29.296875
7469		-31.250000
7470		-29.296875
7471		-31.250000
7472		-29.296875
7473		-31.250000
7474		-29.296875
7475		-31.250000
7476		-29.296875
7477		-31.250000
7478		-29.296875
7479		-31.250000
7480		-29.296875
7481		-29.296875
7482		-27.343750
7483		-29.296875
7484		-27.343750
7485		-29.296875
7486		-25.390625
7487		-27.343750
7488		-25.390625
7489		-27.343750
7490		-23.437500
7491		-25.390625
7492		-23.437500
7493		-25.390625
7494		-21.484375
7495		-23.437500
7496		-19.531250
7497		-21.484375
7498		-19.531250
7499		-21.484375
7500		-17.578125
7501		-19.531250
7502		-15.625000
7503		-17.578125
7504		-13.671875
7505		-15.625000
7506		-11.718750
7507		-13.671875
7508		-9.765625
7509		-11.718750
7510		-7.812500
7511		-9.765625
7512		-5.859375
7513		-7.812500
7514		-5.859375
7515		-5.859375
7516		-3.906250
7517		-3.906250
7518		-1.953125
7519		-1.953125
7520		1.953125
7521		0.000000
7522		1.953125
7523		1.953125
7524		5.859375
7525		3.906250
7526		7.812500
7527		5.859375
7528		9.765625
7529		7.812500
7530		11.718750
7531		9.765625
7532		13.671875
7533		11.718750
7534		15.625000
7535		13.671875
7536		17.578125
7537		15.625000
7538		19.531250
7539		17.578125
7540		21.484375
7541		19.531250
7542		23.437500
7543		21.484375
7544		25.390625
7545		23.437500
7546		27.343750
7547		25.390625
7548		29.296875
7549		27.343750
7550		31.250000
7551		29.296875
7552		33.203125
7553		31.250000
7554		35.156250
7555		33.203125
7556		37.109375
7557		35.156250
7558		39.062500
7559		37.109375
7560		39.062500
7561		39.062500
7562		41.015625
7563		39.062500
7564		42.968750
7565		41.015625
7566		44.921875
7567		42.968750
7568		44.921875
7569		44.921875
7570		46.875000
7571		44.921875
7572		48.828125
7573		46.875000
7574		48.828125
7575		46.875000
7576		48.828125
7577		48.828125
7578		50.781250
7579		48.828125
7580		50.781250
7581		50.781250
7582		52.734375
7583		50.781250
7584		52.734375
7585		50.781250
7586		52.734375
7587		50.781250
7588		54.687500
7589		52.734375
7590		54.687500
7591		52.734375
7592		54.687500
7593		52.734375
7594		54.687500
7595		52.734375
7596		54.687500
7597		52.734375
7598		54.687500
7599		52.734375
7600		54.687500
7601		52.734375
7602		54.687500
7603		50.781250
7604		54.687500
7605		50.781250
7606		54.687500
7607		50.781250
7608		52.734375
7609		50.781250
7610		52.734375
7611		48.828125
7612		52.734375
7613		48.828125
7614		50.781250
7615		46.875000
7616		50.781250
7617		46.875000
7618		48.828125
7619		44.921875
7620		48.828125
7621		44.921875
7622		46.875000
7623		42.968750
7624		44.921875
7625		41.015625
7626		44.921875
7627		41.015625
7628		42.968750
7629		39.062500
7630		42.968750
7631		37.109375
7632		41.015625
7633		35.156250
7634		39.062500
7635		33.203125
7636		37.109375
7637		31.250000
7638		35.156250
7639		31.250000
7640		33.203125
7641		29.296875
7642		31.250000
7643		27.343750
7644		29.296875
7645		25.390625
7646		27.343750
7647		23.437500
7648		27.343750
7649		21.484375
7650		23.437500
7651		19.531250
7652		21.484375
7653		17.578125
7654		19.531250
7655		13.671875
7656		17.578125
7657		11.718750
7658		15.625000
7659		9.765625
7660		13.671875
7661		7.812500
7662		11.718750
7663		5.859375
7664		9.765625
7665		3.906250
7666		7.812500
7667		1.953125
7668		5.859375
7669		0.000000
7670		3.906250
7671		-1.953125
7672		1.953125
7673		-3.906250
7674		0.000000
7675		-5.859375
7676		-1.953125
7677		-7.812500
7678		-3.906250
7679		-9.765625
7680		-5.859375
7681		-11.718750
7682		-7.812500
7683		-13.671875
7684		-9.765625
7685		-15.625000
7686		-11.718750
7687		-17.578125
7688		-13.671875
7689		-19.531250
7690		-15.625000
7691		-19.531250
7692		-17.578125
7693		-21.484375
7694		-17.578125
7695		-23.437500
7696		-19.531250
7697		-23.437500
7698		-21.484375
7699		-25.390625
7700		-23.437500
7701		-27.343750
7702		-23.437500
7703		-27.343750
7704		-25.390625
7705		-29.296875
7706		-25.390625
7707		-29.296875
7708		-27.343750
7709		-29.296875
7710		-27.343750
7711		-31.250000
7712		-27.343750
7713		-31.250000
7714		-29.296875
7715		-31.250000
7716		-29.296875
7717		-31.250000
7718		-29.296875
7719		-31.250000
7720		-29.296875
7721		-31.250000
7722		-29.296875
7723		-31.250000
7724		-29.296875
7725		-31.250000
7726		-29.296875
7727		-31.250000
7728		-29.296875
7729		-31.250000
7730		-29.296875
7731		-31.250000
7732		-29.296875
7733		-31.250000
7734		-27.343750
7735		-29.296875
7736		-27.343750
7737		-29.296875
7738		-27.343750
7739		-27.343750
7740		-25.390625
7741		-27.343750
7742		-25.390625
7743		-25.390625
7744		-23.437500
7745		-25.390625
7746		-21.484375
7747		-23.437500
7748		-21.484375
7749		-23.437500
7750		-19.531250
7751		-21.484375
7752		-17.578125
7753		-19.531250
7754		-17.578125
7755		-17.578125
7756		-15.625000
7757		-17.578125
7758		-13.671875
7759		-15.625000
7760		-11.718750
7761		-13.671875
7762		-9.765625
7763		-11.718750
7764		-7.812500
7765		-9.765625
7766		-5.859375
7767		-9.765625
7768		-3.906250
7769		-5.859375
7770		-1.953125
7771		-3.906250
7772		0.000000
7773		-1.953125
7774		1.953125
7775		0.000000
7776		3.906250
7777		1.953125
7778		5.859375
7779		1.953125
7780		7.812500
7781		5.859375
7782		9.765625
7783		7.812500
7784		13.671875
7785		9.765625
7786		15.625000
7787		9.765625
7788		17.578125
7789		15.625000
7790		17.578125
7791		17.578125
7792		21.484375
7793		17.578125
7794		21.484375
7795		19.531250
7796		25.390625
7797		23.437500
7798		27.343750
7799		25.390625
7800		31.250000
7801		27.343750
7802		29.296875
7803		27.343750
7804		35.156250
7805		31.250000
7806		33.203125
7807		31.250000
7808		35.156250
7809		33.203125
7810		39.062500
7811		35.156250
7812		39.062500
7813		35.156250
7814		41.015625
7815		37.109375
7816		42.968750
7817		37.109375
7818		44.921875
7819		41.015625
7820		44.921875
7821		41.015625
7822		46.875000
7823		44.921875
7824		46.875000
7825		44.921875
7826		48.828125
7827		44.921875
7828		50.781250
7829		44.921875
7830		50.781250
7831		48.828125
7832		50.781250
7833		46.875000
7834		52.734375
7835		50.781250
7836		52.734375
7837		48.828125
7838		54.687500
7839		50.781250
7840		52.734375
7841		50.781250
7842		54.687500
7843		50.781250
7844		54.687500
7845		50.781250
7846		56.640625
7847		50.781250
7848		54.687500
7849		52.734375
7850		54.687500
7851		48.828125
7852		56.640625
7853		48.828125
7854		56.640625
7855		52.734375
7856		54.687500
7857		50.781250
7858		54.687500
7859		50.781250
7860		54.687500
7861		48.828125
7862		54.687500
7863		48.828125
7864		54.687500
7865		48.828125
7866		52.734375
7867		44.921875
7868		52.734375
7869		46.875000
7870		52.734375
7871		44.921875
7872		52.734375
7873		44.921875
7874		48.828125
7875		42.968750
7876		46.875000
7877		37.109375
7878		48.828125
7879		41.015625
7880		46.875000
7881		39.062500
7882		42.968750
7883		37.109375
7884		41.015625
7885		35.156250
7886		42.968750
7887		31.250000
7888		41.015625
7889		33.203125
7890		37.109375
7891		31.250000
7892		35.156250
7893		29.296875
7894		33.203125
7895		25.390625
7896		35.156250
7897		25.390625
7898		31.250000
7899		23.437500
7900		27.343750
7901		17.578125
7902		29.296875
7903		19.531250
7904		27.343750
7905		15.625000
7906		25.390625
7907		15.625000
7908		19.531250
7909		13.671875
7910		17.578125
7911		7.812500
7912		17.578125
7913		7.812500
7914		15.625000
7915		7.812500
7916		11.718750
7917		1.953125
7918		11.718750
7919		0.000000
7920		11.718750
7921		0.000000
7922		7.812500
7923		0.000000
7924		3.906250
7925		-3.906250
7926		1.953125
7927		-5.859375
7928		0.000000
7929		-9.765625
7930		0.000000
7931		-7.812500
7932		-5.859375
7933		-9.765625
7934		-7.812500
7935		-15.625000
7936		-5.859375
7937		-19.531250
7938		-9.765625
7939		-15.625000
7940		-11.718750
7941		-17.578125
7942		-13.671875
7943		-19.531250
7944		-15.625000
7945		-23.437500
7946		-13.671875
7947		-23.437500
7948		-17.578125
7949		-23.437500
7950		-19.531250
7951		-27.343750
7952		-19.531250
7953		-29.296875
7954		-19.531250
7955		-29.296875
7956		-21.484375
7957		-27.343750
7958		-25.390625
7959		-29.296875
7960		-25.390625
7961		-31.250000
7962		-25.390625
7963		-33.203125
7964		-25.390625
7965		-31.250000
7966		-27.343750
7967		-31.250000
7968		-27.343750
7969		-35.156250
7970		-25.390625
7971		-35.156250
7972		-27.343750
7973		-31.250000
7974		-29.296875
7975		-31.250000
7976		-29.296875
7977		-33.203125
7978		-29.296875
7979		-35.156250
7980		-25.390625
7981		-35.156250
7982		-27.343750
7983		-31.250000
7984		-29.296875
7985		-35.156250
7986		-23.437500
7987		-33.203125
7988		-25.390625
7989		-31.250000
7990		-25.390625
7991		-29.296875
7992		-25.390625
7993		-27.343750
7994		-25.390625
7995		-29.296875
7996		-21.484375
7997		-27.343750
7998		-21.484375
7999		-25.390625
8000		-21.484375
8001		-25.390625
8002		-17.578125
8003		-25.390625
8004		-17.578125
8005		-23.437500
8006		-15.625000
8007		-19.531250
8008		-15.625000
8009		-17.578125
8010		-13.671875
8011		-17.578125
8012		-11.718750
8013		-17.578125
8014		-9.765625
8015		-13.671875
8016		-9.765625
8017		-11.718750
8018		-5.859375
8019		-11.718750
8020		-1.953125
8021		-7.812500
8022		-1.953125
8023		-5.859375
8024		-1.953125
8025		-3.906250
8026		0.000000
8027		-1.953125
8028		3.906250
8029		-1.953125
8030		7.812500
8031		1.953125
8032		5.859375
8033		5.859375
8034		7.812500
8035		5.859375
8036		11.718750
8037		9.765625
8038		11.718750
8039		9.765625
8040		15.625000
8041		13.671875
8042		17.578125
8043		15.625000
8044		19.531250
8045		17.578125
8046		21.484375
8047		15.625000
8048		25.390625
8049		21.484375
8050		25.390625
8051		23.437500
8052		27.343750
8053		23.437500
8054		29.296875
8055		27.343750
8056		31.250000
8057		29.296875
8058		33.203125
8059		31.250000
8060		35.156250
8061		33.203125
8062		35.156250
8063		35.156250
8064		37.109375
8065		35.156250
8066		41.015625
8067		37.109375
8068		41.015625
8069		37.109375
8070		42.968750
8071		41.015625
8072		42.968750
8073		42.968750
8074		44.921875
8075		42.968750
8076		46.875000
8077		44.921875
8078		46.875000
8079		44.921875
8080		48.828125
8081		46.875000
8082		48.828125
8083		48.828125
8084		50.781250
8085		48.828125
8086		50.781250
8087		48.828125
8088		52.734375
8089		50.781250
8090		52.734375
8091		50.781250
8092		52.734375
8093		50.781250
8094		52.734375
8095		50.781250
8096		54.687500
8097		52.734375
8098		54.687500
8099		52.734375
8100		54.687500
8101		50.781250
8102		54.687500
8103		52.734375
8104		54.687500
8105		52.734375
8106		54.687500
8107		52.734375
8108		54.687500
8109		50.781250
8110		54.687500
8111		50.781250
8112		54.687500
8113		50.781250
8114		54.687500
8115		48.828125
8116		54.687500
8117		48.828125
8118		52.734375
8119		48.828125
8120		52.734375
8121		46.875000
8122		52.734375
8123		46.875000
8124		50.781250
8125		44.921875
8126		48.828125
8127		44.921875
8128		46.875000
8129		42.968750
8130		46.875000
8131		41.015625
8132		46.875000
8133		39.062500
8134		44.921875
8135		39.062500
8136		42.968750
8137		37.109375
8138		42.968750
8139		35.156250
8140		41.015625
8141		35.156250
8142		37.109375
8143		33.203125
8144		35.156250
8145		29.296875
8146		35.156250
8147		29.296875
8148		35.156250
8149		25.390625
8150		31.250000
8151		23.437500
8152		31.250000
8153		21.484375
8154		29.296875
8155		21.484375
8156		27.343750
8157		19.531250
8158		25.390625
8159		17.578125
8160		21.484375
8161		13.671875
8162		19.531250
8163		11.718750
8164		17.578125
8165		11.718750
8166		15.625000
8167		7.812500
8168		13.671875
8169		5.859375
8170		11.718750
8171		3.906250
8172		9.765625
8173		1.953125
8174		7.812500
8175		0.000000
8176		3.906250
8177		-1.953125
8178		1.953125
8179		-3.906250
8180		1.953125
8181		-5.859375
8182		-1.953125
8183		-7.812500
8184		-3.906250
8185		-9.765625
8186		-3.906250
8187		-11.718750
8188		-7.812500
8189		-13.671875
8190		-7.812500
8191		-15.625000
8192		-9.765625
8193		-15.625000
8194		-13.671875
8195		-17.578125
8196		-13.671875
8197		-19.531250
8198		-15.625000
8199		-21.484375
8200		-17.578125
8201		-23.437500
8202		-17.578125
8203		-23.437500
8204		-19.531250
8205		-25.390625
8206		-21.484375
8207		-27.343750
8208		-21.484375
8209		-27.343750
8210		-25.390625
8211		-29.296875
8212		-25.390625
8213		-29.296875
8214		-25.390625
8215		-29.296875
8216		-27.343750
8217		-33.203125
8218		-25.390625
8219		-31.250000
8220		-27.343750
8221		-31.250000
8222		-27.343750
8223		-31.250000
8224		-27.343750
8225		-31.250000
8226		-29.296875
8227		-31.250000
8228		-29.296875
8229		-33.203125
8230		-29.296875
8231		-33.203125
8232		-29.296875
8233		-33.203125
8234		-29.296875
8235		-33.203125
8236		-27.343750
8237		-31.250000
8238		-29.296875
8239		-31.250000
8240		-27.343750
8241		-29.296875
8242		-27.343750
8243		-29.296875
8244		-27.343750
8245		-29.296875
8246		-25.390625
8247		-29.296875
8248		-25.390625
8249		-27.343750
8250		-23.437500
8251		-27.343750
8252		-21.484375
8253		-25.390625
8254		-21.484375
8255		-23.437500
8256		-19.531250
8257		-21.484375
8258		-19.531250
8259		-19.531250
8260		-17.578125
8261		-19.531250
8262		-15.625000
8263		-17.578125
8264		-13.671875
8265		-15.625000
8266		-11.718750
8267		-13.671875
8268		-9.765625
8269		-13.671875
8270		-7.812500
8271		-9.765625
8272		-7.812500
8273		-9.765625
8274		-3.906250
8275		-7.812500
8276		-1.953125
8277		-3.906250
8278		-1.953125
8279		-1.953125
8280		1.953125
8281		0.000000
8282		3.906250
8283		0.000000
8284		5.859375
8285		1.953125
8286		7.812500
8287		5.859375
8288		9.765625
8289		7.812500
8290		11.718750
8291		9.765625
8292		13.671875
8293		11.718750
8294		15.625000
8295		13.671875
8296		17.578125
8297		13.671875
8298		19.531250
8299		17.578125
8300		21.484375
8301		19.531250
8302		25.390625
8303		21.484375
8304		25.390625
8305		23.437500
8306		27.343750
8307		25.390625
8308		31.250000
8309		27.343750
8310		31.250000
8311		29.296875
8312		33.203125
8313		31.250000
8314		35.156250
8315		33.203125
8316		37.109375
8317		35.156250
8318		39.062500
8319		35.156250
8320		41.015625
8321		39.062500
8322		42.968750
8323		39.062500
8324		42.968750
8325		39.062500
8326		44.921875
8327		42.968750
8328		44.921875
8329		42.968750
8330		46.875000
8331		44.921875
8332		48.828125
8333		46.875000
8334		48.828125
8335		46.875000
8336		50.781250
8337		46.875000
8338		50.781250
8339		48.828125
8340		52.734375
8341		48.828125
8342		52.734375
8343		50.781250
8344		52.734375
8345		50.781250
8346		52.734375
8347		50.781250
8348		54.687500
8349		50.781250
8350		54.687500
8351		50.781250
8352		54.687500
8353		52.734375
8354		56.640625
8355		52.734375
8356		54.687500
8357		52.734375
8358		54.687500
8359		50.781250
8360		56.640625
8361		52.734375
8362		54.687500
8363		50.781250
8364		54.687500
8365		50.781250
8366		54.687500
8367		50.781250
8368		52.734375
8369		50.781250
8370		52.734375
8371		48.828125
8372		52.734375
8373		48.828125
8374		50.781250
8375		46.875000
8376		50.781250
8377		46.875000
8378		48.828125
8379		44.921875
8380		48.828125
8381		44.921875
8382		48.828125
8383		42.968750
8384		46.875000
8385		41.015625
8386		44.921875
8387		41.015625
8388		42.968750
8389		39.062500
8390		42.968750
8391		35.156250
8392		41.015625
8393		35.156250
8394		39.062500
8395		35.156250
8396		37.109375
8397		33.203125
8398		37.109375
8399		31.250000
8400		35.156250
8401		29.296875
8402		33.203125
8403		27.343750
8404		31.250000
8405		25.390625
8406		29.296875
8407		23.437500
8408		27.343750
8409		21.484375
8410		25.390625
8411		19.531250
8412		23.437500
8413		17.578125
8414		21.484375
8415		13.671875
8416		19.531250
8417		13.671875
8418		15.625000
8419		11.718750
8420		15.625000
8421		7.812500
8422		13.671875
8423		5.859375
8424		9.765625
8425		3.906250
8426		7.812500
8427		1.953125
8428		5.859375
8429		0.000000
8430		3.906250
8431		-1.953125
8432		1.953125
8433		-3.906250
8434		0.000000
8435		-5.859375
8436		-1.953125
8437		-7.812500
8438		-3.906250
8439		-9.765625
8440		-5.859375
8441		-11.718750
8442		-7.812500
8443		-13.671875
8444		-9.765625
8445		-15.625000
8446		-11.718750
8447		-17.578125
8448		-13.671875
8449		-17.578125
8450		-15.625000
8451		-19.531250
8452		-15.625000
8453		-21.484375
8454		-17.578125
8455		-23.437500
8456		-19.531250
8457		-25.390625
8458		-21.484375
8459		-25.390625
8460		-21.484375
8461		-25.390625
8462		-23.437500
8463		-27.343750
8464		-25.390625
8465		-29.296875
8466		-25.390625
8467		-29.296875
8468		-25.390625
8469		-29.296875
8470		-27.343750
8471		-31.250000
8472		-27.343750
8473		-31.250000
8474		-27.343750
8475		-31.250000
8476		-29.296875
8477		-33.203125
8478		-29.296875
8479		-31.250000
8480		-29.296875
8481		-33.203125
8482		-29.296875
8483		-33.203125
8484		-29.296875
8485		-33.203125
8486		-29.296875
8487		-33.203125
8488		-29.296875
8489		-31.250000
8490		-27.343750
8491		-31.250000
8492		-27.343750
8493		-31.250000
8494		-27.343750
8495		-29.296875
8496		-27.343750
8497		-29.296875
8498		-25.390625
8499		-29.296875
8500		-25.390625
8501		-27.343750
8502		-23.437500
8503		-27.343750
8504		-23.437500
8505		-25.390625
8506		-21.484375
8507		-25.390625
8508		-21.484375
8509		-23.437500
8510		-19.531250
8511		-21.484375
8512		-17.578125
8513		-19.531250
8514		-15.625000
8515		-19.531250
8516		-15.625000
8517		-17.578125
8518		-13.671875
8519		-15.625000
8520		-11.718750
8521		-13.671875
8522		-9.765625
8523		-11.718750
8524		-7.812500
8525		-9.765625
8526		-5.859375
8527		-7.812500
8528		-3.906250
8529		-5.859375
8530		-1.953125
8531		-3.906250
8532		0.000000
8533		-1.953125
8534		1.953125
8535		0.000000
8536		3.906250
8537		1.953125
8538		5.859375
8539		3.906250
8540		7.812500
8541		5.859375
8542		9.765625
8543		7.812500
8544		13.671875
8545		9.765625
8546		13.671875
8547		11.718750
8548		15.625000
8549		13.671875
8550		17.578125
8551		15.625000
8552		19.531250
8553		19.531250
8554		23.437500
8555		21.484375
8556		25.390625
8557		23.437500
8558		27.343750
8559		23.437500
8560		29.296875
8561		25.390625
8562		29.296875
8563		29.296875
8564		31.250000
8565		29.296875
8566		33.203125
8567		33.203125
8568		35.156250
8569		33.203125
8570		37.109375
8571		35.156250
8572		39.062500
8573		37.109375
8574		41.015625
8575		39.062500
8576		42.968750
8577		39.062500
8578		42.968750
8579		41.015625
8580		44.921875
8581		42.968750
8582		46.875000
8583		42.968750
8584		46.875000
8585		44.921875
8586		48.828125
8587		46.875000
8588		48.828125
8589		46.875000
8590		50.781250
8591		48.828125
8592		50.781250
8593		48.828125
8594		52.734375
8595		50.781250
8596		52.734375
8597		50.781250
8598		52.734375
8599		48.828125
8600		54.687500
8601		50.781250
8602		54.687500
8603		50.781250
8604		54.687500
8605		50.781250
8606		54.687500
8607		50.781250
8608		54.687500
8609		52.734375
8610		56.640625
8611		50.781250
8612		54.687500
8613		52.734375
8614		54.687500
8615		50.781250
8616		54.687500
8617		50.781250
8618		54.687500
8619		50.781250
8620		54.687500
8621		50.781250
8622		52.734375
8623		48.828125
8624		52.734375
8625		48.828125
8626		52.734375
8627		46.875000
8628		50.781250
8629		46.875000
8630		50.781250
8631		46.875000
8632		48.828125
8633		44.921875
8634		48.828125
8635		42.968750
8636		46.875000
8637		42.968750
8638		46.875000
8639		41.015625
8640		44.921875
8641		39.062500
8642		42.968750
8643		39.062500
8644		42.968750
8645		37.109375
8646		41.015625
8647		35.156250
8648		39.062500
8649		33.203125
8650		37.109375
8651		31.250000
8652		35.156250
8653		29.296875
8654		33.203125
8655		27.343750
8656		33.203125
8657		25.390625
8658		29.296875
8659		23.437500
8660		27.343750
8661		21.484375
8662		25.390625
8663		19.531250
8664		23.437500
8665		17.578125
8666		21.484375
8667		15.625000
8668		19.531250
8669		13.671875
8670		17.578125
8671		11.718750
8672		15.625000
8673		9.765625
8674		13.671875
8675		7.812500
8676		11.718750
8677		3.906250
8678		9.765625
8679		3.906250
8680		7.812500
8681		1.953125
8682		5.859375
8683		0.000000
8684		3.906250
8685		-1.953125
8686		1.953125
8687		-3.906250
8688		0.000000
8689		-7.812500
8690		-1.953125
8691		-9.765625
8692		-3.906250
8693		-9.765625
8694		-5.859375
8695		-11.718750
8696		-7.812500
8697		-13.671875
8698		-9.765625
8699		-15.625000
8700		-11.718750
8701		-17.578125
8702		-13.671875
8703		-19.531250
8704		-15.625000
8705		-19.531250
8706		-17.578125
8707		-21.484375
8708		-17.578125
8709		-23.437500
8710		-19.531250
8711		-25.390625
8712		-21.484375
8713		-25.390625
8714		-23.437500
8715		-27.343750
8716		-23.437500
8717		-27.343750
8718		-23.437500
8719		-29.296875
8720		-25.390625
8721		-29.296875
8722		-27.343750
8723		-31.250000
8724		-27.343750
8725		-31.250000
8726		-27.343750
8727		-31.250000
8728		-27.343750
8729		-31.250000
8730		-29.296875
8731		-31.250000
8732		-29.296875
8733		-33.203125
8734		-29.296875
8735		-33.203125
8736		-29.296875
8737		-33.203125
8738		-29.296875
8739		-33.203125
8740		-29.296875
8741		-31.250000
8742		-29.296875
8743		-31.250000
8744		-27.343750
8745		-31.250000
8746		-27.343750
8747		-29.296875
8748		-27.343750
8749		-29.296875
8750		-25.390625
8751		-29.296875
8752		-25.390625
8753		-29.296875
8754		-25.390625
8755		-27.343750
8756		-25.390625
8757		-25.390625
8758		-23.437500
8759		-25.390625
8760		-21.484375
8761		-23.437500
8762		-19.531250
8763		-21.484375
8764		-19.531250
8765		-21.484375
8766		-17.578125
8767		-19.531250
8768		-15.625000
8769		-17.578125
8770		-13.671875
8771		-15.625000
8772		-11.718750
8773		-13.671875
8774		-11.718750
8775		-13.671875
8776		-9.765625
8777		-11.718750
8778		-7.812500
8779		-9.765625
8780		-5.859375
8781		-7.812500
8782		-3.906250
8783		-5.859375
8784		0.000000
8785		-3.906250
8786		0.000000
8787		-1.953125
8788		1.953125
8789		0.000000
8790		5.859375
8791		1.953125
8792		7.812500
8793		3.906250
8794		7.812500
8795		5.859375
8796		11.718750
8797		9.765625
8798		13.671875
8799		11.718750
8800		15.625000
8801		11.718750
8802		17.578125
8803		15.625000
8804		19.531250
8805		17.578125
8806		21.484375
8807		19.531250
8808		23.437500
8809		21.484375
8810		25.390625
8811		23.437500
8812		27.343750
8813		23.437500
8814		29.296875
8815		27.343750
8816		31.250000
8817		29.296875
8818		33.203125
8819		31.250000
8820		35.156250
8821		33.203125
8822		37.109375
8823		35.156250
8824		39.062500
8825		37.109375
8826		39.062500
8827		37.109375
8828		41.015625
8829		39.062500
8830		42.968750
8831		41.015625
8832		42.968750
8833		42.968750
8834		46.875000
8835		42.968750
8836		46.875000
8837		42.968750
8838		46.875000
8839		44.921875
8840		48.828125
8841		46.875000
8842		50.781250
8843		48.828125
8844		50.781250
8845		48.828125
8846		52.734375
8847		48.828125
8848		52.734375
8849		50.781250
8850		52.734375
8851		50.781250
8852		54.687500
8853		50.781250
8854		54.687500
8855		50.781250
8856		54.687500
8857		52.734375
8858		54.687500
8859		52.734375
8860		54.687500
8861		52.734375
8862		54.687500
8863		52.734375
8864		54.687500
8865		52.734375
8866		54.687500
8867		50.781250
8868		54.687500
8869		50.781250
8870		54.687500
8871		50.781250
8872		54.687500
8873		50.781250
8874		52.734375
8875		48.828125
8876		52.734375
8877		48.828125
8878		52.734375
8879		46.875000
8880		52.734375
8881		46.875000
8882		50.781250
8883		46.875000
8884		48.828125
8885		44.921875
8886		48.828125
8887		44.921875
8888		48.828125
8889		42.968750
8890		46.875000
8891		42.968750
8892		44.921875
8893		41.015625
8894		44.921875
8895		39.062500
8896		42.968750
8897		39.062500
8898		42.968750
8899		37.109375
8900		39.062500
8901		35.156250
8902		39.062500
8903		33.203125
8904		37.109375
8905		31.250000
8906		35.156250
8907		29.296875
8908		33.203125
8909		27.343750
8910		31.250000
8911		25.390625
8912		29.296875
8913		23.437500
8914		27.343750
8915		21.484375
8916		25.390625
8917		19.531250
8918		23.437500
8919		17.578125
8920		21.484375
8921		15.625000
8922		19.531250
8923		13.671875
8924		17.578125
8925		11.718750
8926		15.625000
8927		9.765625
8928		13.671875
8929		5.859375
8930		11.718750
8931		5.859375
8932		9.765625
8933		3.906250
8934		5.859375
8935		0.000000
8936		3.906250
8937		-1.953125
8938		3.906250
8939		-3.906250
8940		1.953125
8941		-5.859375
8942		0.000000
8943		-7.812500
8944		-3.906250
8945		-9.765625
8946		-5.859375
8947		-11.718750
8948		-7.812500
8949		-11.718750
8950		-9.765625
8951		-15.625000
8952		-9.765625
8953		-15.625000
8954		-11.718750
8955		-17.578125
8956		-13.671875
8957		-19.531250
8958		-15.625000
8959		-21.484375
8960		-17.578125
8961		-21.484375
8962		-19.531250
8963		-25.390625
8964		-19.531250
8965		-25.390625
8966		-21.484375
8967		-25.390625
8968		-23.437500
8969		-27.343750
8970		-23.437500
8971		-27.343750
8972		-25.390625
8973		-29.296875
8974		-25.390625
8975		-29.296875
8976		-27.343750
8977		-31.250000
8978		-27.343750
8979		-31.250000
8980		-27.343750
8981		-33.203125
8982		-27.343750
8983		-31.250000
8984		-29.296875
8985		-33.203125
8986		-29.296875
8987		-33.203125
8988		-29.296875
8989		-31.250000
8990		-29.296875
8991		-33.203125
8992		-29.296875
8993		-31.250000
8994		-29.296875
8995		-31.250000
8996		-27.343750
8997		-31.250000
8998		-27.343750
8999		-31.250000
9000		-27.343750
9001		-29.296875
9002		-27.343750
9003		-31.250000
9004		-25.390625
9005		-29.296875
9006		-25.390625
9007		-27.343750
9008		-25.390625
9009		-27.343750
9010		-23.437500
9011		-25.390625
9012		-21.484375
9013		-25.390625
9014		-21.484375
9015		-23.437500
9016		-19.531250
9017		-21.484375
9018		-17.578125
9019		-21.484375
9020		-17.578125
9021		-19.531250
9022		-15.625000
9023		-17.578125
9024		-13.671875
9025		-15.625000
9026		-11.718750
9027		-13.671875
9028		-9.765625
9029		-11.718750
9030		-7.812500
9031		-11.718750
9032		-5.859375
9033		-7.812500
9034		-5.859375
9035		-5.859375
9036		-1.953125
9037		-3.906250
9038		0.000000
9039		-1.953125
9040		1.953125
9041		-1.953125
9042		3.906250
9043		1.953125
9044		5.859375
9045		3.906250
9046		7.812500
9047		5.859375
9048		9.765625
9049		7.812500
9050		11.718750
9051		9.765625
9052		13.671875
9053		11.718750
9054		15.625000
9055		13.671875
9056		17.578125
9057		15.625000
9058		19.531250
9059		17.578125
9060		21.484375
9061		19.531250
9062		23.437500
9063		21.484375
9064		25.390625
9065		23.437500
9066		27.343750
9067		25.390625
9068		29.296875
9069		27.343750
9070		33.203125
9071		29.296875
9072		33.203125
9073		31.250000
9074		35.156250
9075		33.203125
9076		37.109375
9077		35.156250
9078		39.062500
9079		37.109375
9080		41.015625
9081		37.109375
9082		42.968750
9083		39.062500
9084		42.968750
9085		41.015625
9086		44.921875
9087		41.015625
9088		44.921875
9089		42.968750
9090		46.875000
9091		44.921875
9092		48.828125
9093		44.921875
9094		48.828125
9095		46.875000
9096		50.781250
9097		48.828125
9098		50.781250
9099		48.828125
9100		52.734375
9101		50.781250
9102		52.734375
9103		50.781250
9104		52.734375
9105		50.781250
9106		54.687500
9107		50.781250
9108		54.687500
9109		52.734375
9110		54.687500
9111		52.734375
9112		54.687500
9113		52.734375
9114		54.687500
9115		52.734375
9116		56.640625
9117		52.734375
9118		54.687500
9119		50.781250
9120		54.687500
9121		52.734375
9122		54.687500
9123		52.734375
9124		54.687500
9125		50.781250
9126		54.687500
9127		50.781250
9128		54.687500
9129		50.781250
9130		54.687500
9131		48.828125
9132		52.734375
9133		48.828125
9134		50.781250
9135		48.828125
9136		50.781250
9137		46.875000
9138		50.781250
9139		44.921875
9140		48.828125
9141		44.921875
9142		48.828125
9143		42.968750
9144		46.875000
9145		42.968750
9146		46.875000
9147		41.015625
9148		44.921875
9149		39.062500
9150		42.968750
9151		39.062500
9152		41.015625
9153		35.156250
9154		39.062500
9155		35.156250
9156		39.062500
9157		33.203125
9158		37.109375
9159		31.250000
9160		35.156250
9161		29.296875
9162		33.203125
9163		27.343750
9164		31.250000
9165		25.390625
9166		29.296875
9167		23.437500
9168		27.343750
9169		21.484375
9170		25.390625
9171		19.531250
9172		23.437500
9173		17.578125
9174		21.484375
9175		15.625000
9176		19.531250
9177		13.671875
9178		17.578125
9179		11.718750
9180		15.625000
9181		9.765625
9182		13.671875
9183		7.812500
9184		11.718750
9185		5.859375
9186		7.812500
9187		3.906250
9188		5.859375
9189		0.000000
9190		3.906250
9191		-1.953125
9192		1.953125
9193		-3.906250
9194		1.953125
9195		-5.859375
9196		0.000000
9197		-7.812500
9198		-3.906250
9199		-9.765625
9200		-5.859375
9201		-11.718750
9202		-7.812500
9203		-13.671875
9204		-9.765625
9205		-15.625000
9206		-11.718750
9207		-15.625000
9208		-11.718750
9209		-17.578125
9210		-13.671875
9211		-19.531250
9212		-15.625000
9213		-21.484375
9214		-15.625000
9215		-21.484375
9216		-17.578125
9217		-23.437500
9218		-19.531250
9219		-23.437500
9220		-21.484375
9221		-25.390625
9222		-21.484375
9223		-27.343750
9224		-23.437500
9225		-27.343750
9226		-25.390625
9227		-29.296875
9228		-25.390625
9229		-29.296875
9230		-25.390625
9231		-29.296875
9232		-27.343750
9233		-31.250000
9234		-27.343750
9235		-31.250000
9236		-27.343750
9237		-31.250000
9238		-27.343750
9239		-31.250000
9240		-29.296875
9241		-31.250000
9242		-27.343750
9243		-31.250000
9244		-29.296875
9245		-31.250000
9246		-29.296875
9247		-31.250000
9248		-27.343750
9249		-31.250000
9250		-27.343750
9251		-31.250000
9252		-27.343750
9253		-29.296875
9254		-27.343750
9255		-29.296875
9256		-25.390625
9257		-29.296875
9258		-25.390625
9259		-27.343750
9260		-25.390625
9261		-27.343750
9262		-23.437500
9263		-25.390625
9264		-23.437500
9265		-25.390625
9266		-21.484375
9267		-23.437500
9268		-21.484375
9269		-21.484375
9270		-19.531250
9271		-21.484375
9272		-17.578125
9273		-19.531250
9274		-15.625000
9275		-17.578125
9276		-13.671875
9277		-17.578125
9278		-13.671875
9279		-13.671875
9280		-11.718750
9281		-13.671875
9282		-9.765625
9283		-11.718750
9284		-7.812500
9285		-9.765625
9286		-5.859375
9287		-7.812500
9288		-1.953125
9289		-5.859375
9290		-1.953125
9291		-3.906250
9292		0.000000
9293		-1.953125
9294		3.906250
9295		0.000000
9296		3.906250
9297		1.953125
9298		5.859375
9299		3.906250
9300		9.765625
9301		7.812500
9302		9.765625
9303		9.765625
9304		11.718750
9305		11.718750
9306		15.625000
9307		13.671875
9308		17.578125
9309		15.625000
9310		19.531250
9311		17.578125
9312		21.484375
9313		19.531250
9314		23.437500
9315		21.484375
9316		25.390625
9317		23.437500
9318		27.343750
9319		25.390625
9320		29.296875
9321		27.343750
9322		31.250000
9323		29.296875
9324		33.203125
9325		31.250000
9326		35.156250
9327		31.250000
9328		37.109375
9329		35.156250
9330		37.109375
9331		37.109375
9332		39.062500
9333		37.109375
9334		42.968750
9335		39.062500
9336		42.968750
9337		41.015625
9338		44.921875
9339		41.015625
9340		44.921875
9341		42.968750
9342		46.875000
9343		44.921875
9344		48.828125
9345		44.921875
9346		48.828125
9347		46.875000
9348		50.781250
9349		46.875000
9350		52.734375
9351		48.828125
9352		52.734375
9353		50.781250
9354		52.734375
9355		50.781250
9356		54.687500
9357		50.781250
9358		54.687500
9359		50.781250
9360		54.687500
9361		50.781250
9362		54.687500
9363		52.734375
9364		54.687500
9365		52.734375
9366		54.687500
9367		52.734375
9368		56.640625
9369		52.734375
9370		54.687500
9371		52.734375
9372		56.640625
9373		52.734375
9374		56.640625
9375		52.734375
9376		54.687500
9377		52.734375
9378		54.687500
9379		50.781250
9380		54.687500
9381		50.781250
9382		54.687500
9383		48.828125
9384		54.687500
9385		50.781250
9386		52.734375
9387		48.828125
9388		50.781250
9389		46.875000
9390		50.781250
9391		46.875000
9392		50.781250
9393		44.921875
9394		48.828125
9395		44.921875
9396		48.828125
9397		42.968750
9398		46.875000
9399		42.968750
9400		44.921875
9401		41.015625
9402		44.921875
9403		39.062500
9404		42.968750
9405		37.109375
9406		41.015625
9407		37.109375
9408		41.015625
9409		35.156250
9410		39.062500
9411		33.203125
9412		37.109375
9413		31.250000
9414		35.156250
9415		29.296875
9416		33.203125
9417		27.343750
9418		31.250000
9419		25.390625
9420		29.296875
9421		23.437500
9422		27.343750
9423		21.484375
9424		25.390625
9425		17.578125
9426		23.437500
9427		17.578125
9428		21.484375
9429		15.625000
9430		19.531250
9431		13.671875
9432		17.578125
9433		9.765625
9434		15.625000
9435		9.765625
9436		13.671875
9437		7.812500
9438		9.765625
9439		3.906250
9440		7.812500
9441		1.953125
9442		7.812500
9443		0.000000
9444		3.906250
9445		-1.953125
9446		1.953125
9447		-3.906250
9448		0.000000
9449		-5.859375
9450		-1.953125
9451		-7.812500
9452		-3.906250
9453		-9.765625
9454		-5.859375
9455		-11.718750
9456		-7.812500
9457		-11.718750
9458		-9.765625
9459		-13.671875
9460		-11.718750
9461		-15.625000
9462		-11.718750
9463		-17.578125
9464		-13.671875
9465		-19.531250
9466		-15.625000
9467		-21.484375
9468		-17.578125
9469		-21.484375
9470		-19.531250
9471		-23.437500
9472		-21.484375
9473		-25.390625
9474		-21.484375
9475		-25.390625
9476		-21.484375
9477		-27.343750
9478		-23.437500
9479		-27.343750
9480		-25.390625
9481		-29.296875
9482		-25.390625
9483		-29.296875
9484		-25.390625
9485		-29.296875
9486		-25.390625
9487		-29.296875
9488		-27.343750
9489		-31.250000
9490		-27.343750
9491		-31.250000
9492		-27.343750
9493		-31.250000
9494		-27.343750
9495		-31.250000
9496		-27.343750
9497		-31.250000
9498		-27.343750
9499		-31.250000
9500		-29.296875
9501		-31.250000
9502		-27.343750
9503		-31.250000
9504		-27.343750
9505		-29.296875
9506		-27.343750
9507		-29.296875
9508		-25.390625
9509		-29.296875
9510		-25.390625
9511		-29.296875
9512		-25.390625
9513		-27.343750
9514		-23.437500
9515		-27.343750
9516		-23.437500
9517		-25.390625
9518		-21.484375
9519		-25.390625
9520		-21.484375
9521		-23.437500
9522		-19.531250
9523		-21.484375
9524		-17.578125
9525		-19.531250
9526		-17.578125
9527		-19.531250
9528		-15.625000
9529		-17.578125
9530		-11.718750
9531		-15.625000
9532		-11.718750
9533		-13.671875
9534		-9.765625
9535		-11.718750
9536		-7.812500
9537		-9.765625
9538		-7.812500
9539		-7.812500
9540		-3.906250
9541		-7.812500
9542		-1.953125
9543		-5.859375
9544		0.000000
9545		-1.953125
9546		1.953125
9547		0.000000
9548		3.906250
9549		1.953125
9550		5.859375
9551		3.906250
9552		7.812500
9553		5.859375
9554		9.765625
9555		7.812500
9556		11.718750
9557		9.765625
9558		13.671875
9559		11.718750
9560		15.625000
9561		13.671875
9562		17.578125
9563		15.625000
9564		19.531250
9565		17.578125
9566		21.484375
9567		19.531250
9568		23.437500
9569		21.484375
9570		25.390625
9571		23.437500
9572		27.343750
9573		25.390625
9574		31.250000
9575		27.343750
9576		31.250000
9577		29.296875
9578		33.203125
9579		31.250000
9580		35.156250
9581		33.203125
9582		37.109375
9583		35.156250
9584		39.062500
9585		37.109375
9586		41.015625
9587		37.109375
9588		41.015625
9589		41.015625
9590		42.968750
9591		41.015625
9592		44.921875
9593		42.968750
9594		44.921875
9595		42.968750
9596		46.875000
9597		44.921875
9598		48.828125
9599		46.875000
9600		50.781250
9601		46.875000
9602		50.781250
9603		46.875000
9604		52.734375
9605		48.828125
9606		52.734375
9607		50.781250
9608		52.734375
9609		50.781250
9610		52.734375
9611		50.781250
9612		54.687500
9613		50.781250
9614		54.687500
9615		52.734375
9616		54.687500
9617		52.734375
9618		56.640625
9619		52.734375
9620		56.640625
9621		52.734375
9622		54.687500
9623		52.734375
9624		54.687500
9625		52.734375
9626		56.640625
9627		52.734375
9628		56.640625
9629		52.734375
9630		54.687500
9631		52.734375
9632		54.687500
9633		50.781250
9634		54.687500
9635		50.781250
9636		54.687500
9637		50.781250
9638		52.734375
9639		50.781250
9640		52.734375
9641		48.828125
9642		52.734375
9643		48.828125
9644		50.781250
9645		46.875000
9646		50.781250
9647		44.921875
9648		48.828125
9649		44.921875
9650		46.875000
9651		42.968750
9652		46.875000
9653		41.015625
9654		44.921875
9655		41.015625
9656		42.968750
9657		39.062500
9658		42.968750
9659		37.109375
9660		41.015625
9661		35.156250
9662		39.062500
9663		35.156250
9664		39.062500
9665		31.250000
9666		37.109375
9667		31.250000
9668		35.156250
9669		27.343750
9670		33.203125
9671		27.343750
9672		31.250000
9673		25.390625
9674		29.296875
9675		23.437500
9676		27.343750
9677		21.484375
9678		25.390625
9679		17.578125
9680		23.437500
9681		17.578125
9682		21.484375
9683		15.625000
9684		19.531250
9685		11.718750
9686		15.625000
9687		11.718750
9688		15.625000
9689		7.812500
9690		11.718750
9691		5.859375
9692		9.765625
9693		3.906250
9694		7.812500
9695		1.953125
9696		5.859375
9697		0.000000
9698		3.906250
9699		-1.953125
9700		1.953125
9701		-3.906250
9702		0.000000
9703		-5.859375
9704		-1.953125
9705		-7.812500
9706		-3.906250
9707		-9.765625
9708		-5.859375
9709		-11.718750
9710		-7.812500
9711		-13.671875
9712		-9.765625
9713		-15.625000
9714		-11.718750
9715		-15.625000
9716		-13.671875
9717		-17.578125
9718		-15.625000
9719		-19.531250
9720		-15.625000
9721		-21.484375
9722		-17.578125
9723		-23.437500
9724		-19.531250
9725		-23.437500
9726		-19.531250
9727		-25.390625
9728		-21.484375
9729		-25.390625
9730		-21.484375
9731		-27.343750
9732		-23.437500
9733		-27.343750
9734		-25.390625
9735		-29.296875
9736		-25.390625
9737		-29.296875
9738		-25.390625
9739		-29.296875
9740		-27.343750
9741		-31.250000
9742		-27.343750
9743		-31.250000
9744		-27.343750
9745		-31.250000
9746		-27.343750
9747		-31.250000
9748		-27.343750
9749		-31.250000
9750		-29.296875
9751		-31.250000
9752		-29.296875
9753		-31.250000
9754		-27.343750
9755		-31.250000
9756		-29.296875
9757		-31.250000
9758		-27.343750
9759		-31.250000
9760		-25.390625
9761		-29.296875
9762		-25.390625
9763		-29.296875
9764		-25.390625
9765		-27.343750
9766		-25.390625
9767		-27.343750
9768		-23.437500
9769		-27.343750
9770		-23.437500
9771		-25.390625
9772		-21.484375
9773		-23.437500
9774		-19.531250
9775		-23.437500
9776		-17.578125
9777		-21.484375
9778		-17.578125
9779		-19.531250
9780		-15.625000
9781		-17.578125
9782		-15.625000
9783		-17.578125
9784		-13.671875
9785		-15.625000
9786		-11.718750
9787		-13.671875
9788		-7.812500
9789		-11.718750
9790		-7.812500
9791		-9.765625
9792		-5.859375
9793		-7.812500
9794		-3.906250
9795		-5.859375
9796		-1.953125
9797		-3.906250
9798		0.000000
9799		-1.953125
9800		1.953125
9801		0.000000
9802		3.906250
9803		1.953125
9804		5.859375
9805		3.906250
9806		7.812500
9807		5.859375
9808		9.765625
9809		7.812500
9810		11.718750
9811		9.765625
9812		15.625000
9813		13.671875
9814		15.625000
9815		13.671875
9816		19.531250
9817		15.625000
9818		19.531250
9819		17.578125
9820		23.437500
9821		21.484375
9822		25.390625
9823		23.437500
9824		27.343750
9825		25.390625
9826		29.296875
9827		27.343750
9828		31.250000
9829		29.296875
9830		33.203125
9831		31.250000
9832		35.156250
9833		33.203125
9834		35.156250
9835		33.203125
9836		37.109375
9837		35.156250
9838		39.062500
9839		37.109375
9840		41.015625
9841		39.062500
9842		42.968750
9843		39.062500
9844		44.921875
9845		41.015625
9846		44.921875
9847		42.968750
9848		46.875000
9849		44.921875
9850		48.828125
9851		44.921875
9852		48.828125
9853		46.875000
9854		50.781250
9855		46.875000
9856		50.781250
9857		48.828125
9858		50.781250
9859		48.828125
9860		52.734375
9861		50.781250
9862		54.687500
9863		50.781250
9864		54.687500
9865		52.734375
9866		54.687500
9867		50.781250
9868		54.687500
9869		52.734375
9870		56.640625
9871		52.734375
9872		56.640625
9873		52.734375
9874		56.640625
9875		52.734375
9876		56.640625
9877		52.734375
9878		56.640625
9879		52.734375
9880		56.640625
9881		52.734375
9882		56.640625
9883		52.734375
9884		54.687500
9885		52.734375
9886		54.687500
9887		50.781250
9888		54.687500
9889		50.781250
9890		54.687500
9891		50.781250
9892		52.734375
9893		48.828125
9894		52.734375
9895		48.828125
9896		52.734375
9897		48.828125
9898		50.781250
9899		46.875000
9900		48.828125
9901		44.921875
9902		48.828125
9903		42.968750
9904		46.875000
9905		42.968750
9906		46.875000
9907		41.015625
9908		44.921875
9909		39.062500
9910		42.968750
9911		39.062500
9912		42.968750
9913		37.109375
9914		41.015625
9915		35.156250
9916		39.062500
9917		33.203125
9918		37.109375
9919		31.250000
9920		37.109375
9921		29.296875
9922		35.156250
9923		29.296875
9924		31.250000
9925		27.343750
9926		29.296875
9927		23.437500
9928		29.296875
9929		23.437500
9930		27.343750
9931		19.531250
9932		25.390625
9933		17.578125
9934		21.484375
9935		15.625000
9936		19.531250
9937		13.671875
9938		17.578125
9939		11.718750
9940		17.578125
9941		9.765625
9942		13.671875
9943		7.812500
9944		11.718750
9945		5.859375
9946		9.765625
9947		3.906250
9948		7.812500
9949		1.953125
9950		5.859375
9951		0.000000
9952		3.906250
9953		-1.953125
9954		1.953125
9955		-3.906250
9956		0.000000
9957		-5.859375
9958		-1.953125
9959		-7.812500
9960		-3.906250
9961		-9.765625
9962		-5.859375
9963		-11.718750
9964		-7.812500
9965		-13.671875
9966		-9.765625
9967		-15.625000
9968		-11.718750
9969		-17.578125
9970		-13.671875
9971		-19.531250
9972		-15.625000
9973		-19.531250
9974		-15.625000
9975		-21.484375
9976		-17.578125
9977		-23.437500
9978		-19.531250
9979		-23.437500
9980		-21.484375
9981		-25.390625
9982		-21.484375
9983		-25.390625
9984		-23.437500
9985		-27.343750
9986		-23.437500
9987		-29.296875
9988		-25.390625
9989		-29.296875
9990		-25.390625
9991		-29.296875
9992		-27.343750
9993		-29.296875
9994		-27.343750
9995		-31.250000
9996		-27.343750
9997		-31.250000
9998		-27.343750
9999		-31.250000
10000		-27.343750
