Channel              :		CH1
Frequency            :		1.061kHz
Period               :		0.942ms
PK-PK                :		95.70mV
Probe attenuation    :		1X
Voltage per ADC value:		0.122070mV
Time interval        :		2.00000us

index		CH1_Voltage(mV)
1		31.250000
2		31.250000
3		39.062500
4		31.250000
5		37.109375
6		29.296875
7		37.109375
8		27.343750
9		35.156250
10		27.343750
11		33.203125
12		27.343750
13		31.250000
14		27.343750
15		29.296875
16		23.437500
17		29.296875
18		23.437500
19		29.296875
20		21.484375
21		27.343750
22		19.531250
23		27.343750
24		19.531250
25		25.390625
26		17.578125
27		25.390625
28		17.578125
29		23.437500
30		17.578125
31		21.484375
32		15.625000
33		21.484375
34		13.671875
35		21.484375
36		13.671875
37		19.531250
38		11.718750
39		17.578125
40		9.765625
41		17.578125
42		9.765625
43		15.625000
44		7.812500
45		13.671875
46		7.812500
47		11.718750
48		7.812500
49		11.718750
50		3.906250
51		11.718750
52		1.953125
53		9.765625
54		1.953125
55		9.765625
56		0.000000
57		7.812500
58		0.000000
59		5.859375
60		-1.953125
61		5.859375
62		-1.953125
63		1.953125
64		-1.953125
65		1.953125
66		-3.906250
67		1.953125
68		-5.859375
69		0.000000
70		-7.812500
71		0.000000
72		-7.812500
73		-1.953125
74		-9.765625
75		-1.953125
76		-9.765625
77		-3.906250
78		-11.718750
79		-5.859375
80		-11.718750
81		-7.812500
82		-11.718750
83		-9.765625
84		-15.625000
85		-7.812500
86		-15.625000
87		-9.765625
88		-17.578125
89		-9.765625
90		-17.578125
91		-11.718750
92		-19.531250
93		-11.718750
94		-19.531250
95		-13.671875
96		-19.531250
97		-15.625000
98		-19.531250
99		-17.578125
100		-23.437500
101		-15.625000
102		-23.437500
103		-17.578125
104		-25.390625
105		-17.578125
106		-25.390625
107		-17.578125
108		-25.390625
109		-19.531250
110		-27.343750
111		-19.531250
112		-27.343750
113		-21.484375
114		-25.390625
115		-23.437500
116		-29.296875
117		-23.437500
118		-29.296875
119		-23.437500
120		-29.296875
121		-23.437500
122		-31.250000
123		-23.437500
124		-31.250000
125		-23.437500
126		-31.250000
127		-25.390625
128		-31.250000
129		-25.390625
130		-31.250000
131		-27.343750
132		-31.250000
133		-29.296875
134		-33.203125
135		-27.343750
136		-33.203125
137		-27.343750
138		-35.156250
139		-27.343750
140		-35.156250
141		-29.296875
142		-35.156250
143		-27.343750
144		-35.156250
145		-29.296875
146		-33.203125
147		-29.296875
148		-33.203125
149		-31.250000
150		-35.156250
151		-29.296875
152		-35.156250
153		-29.296875
154		-37.109375
155		-29.296875
156		-35.156250
157		-29.296875
158		-37.109375
159		-29.296875
160		-35.156250
161		-29.296875
162		-37.109375
163		-29.296875
164		-33.203125
165		-31.250000
166		-33.203125
167		-31.250000
168		-35.156250
169		-29.296875
170		-35.156250
171		-29.296875
172		-35.156250
173		-29.296875
174		-35.156250
175		-29.296875
176		-35.156250
177		-27.343750
178		-35.156250
179		-27.343750
180		-33.203125
181		-29.296875
182		-31.250000
183		-29.296875
184		-33.203125
185		-25.390625
186		-33.203125
187		-25.390625
188		-33.203125
189		-25.390625
190		-33.203125
191		-25.390625
192		-31.250000
193		-23.437500
194		-31.250000
195		-23.437500
196		-29.296875
197		-23.437500
198		-27.343750
199		-25.390625
200		-27.343750
201		-21.484375
202		-29.296875
203		-21.484375
204		-27.343750
205		-21.484375
206		-27.343750
207		-21.484375
208		-25.390625
209		-19.531250
210		-25.390625
211		-19.531250
212		-25.390625
213		-17.578125
214		-21.484375
215		-19.531250
216		-21.484375
217		-17.578125
218		-21.484375
219		-15.625000
220		-21.484375
221		-13.671875
222		-21.484375
223		-13.671875
224		-19.531250
225		-11.718750
226		-17.578125
227		-11.718750
228		-17.578125
229		-11.718750
230		-15.625000
231		-9.765625
232		-13.671875
233		-11.718750
234		-13.671875
235		-7.812500
236		-13.671875
237		-7.812500
238		-11.718750
239		-5.859375
240		-11.718750
241		-5.859375
242		-9.765625
243		-3.906250
244		-9.765625
245		-1.953125
246		-7.812500
247		-1.953125
248		-5.859375
249		-1.953125
250		-3.906250
251		-1.953125
252		-5.859375
253		1.953125
254		-3.906250
255		1.953125
256		-3.906250
257		3.906250
258		-1.953125
259		5.859375
260		0.000000
261		5.859375
262		0.000000
263		7.812500
264		1.953125
265		7.812500
266		5.859375
267		7.812500
268		3.906250
269		11.718750
270		3.906250
271		11.718750
272		5.859375
273		13.671875
274		7.812500
275		13.671875
276		7.812500
277		15.625000
278		9.765625
279		15.625000
280		9.765625
281		17.578125
282		13.671875
283		17.578125
284		13.671875
285		19.531250
286		13.671875
287		21.484375
288		15.625000
289		21.484375
290		15.625000
291		23.437500
292		17.578125
293		25.390625
294		17.578125
295		25.390625
296		19.531250
297		25.390625
298		23.437500
299		25.390625
300		23.437500
301		27.343750
302		23.437500
303		29.296875
304		23.437500
305		31.250000
306		25.390625
307		31.250000
308		25.390625
309		33.203125
310		27.343750
311		33.203125
312		29.296875
313		35.156250
314		29.296875
315		35.156250
316		31.250000
317		35.156250
318		31.250000
319		37.109375
320		31.250000
321		39.062500
322		31.250000
323		39.062500
324		33.203125
325		41.015625
326		35.156250
327		41.015625
328		35.156250
329		42.968750
330		35.156250
331		42.968750
332		39.062500
333		41.015625
334		39.062500
335		42.968750
336		39.062500
337		46.875000
338		39.062500
339		44.921875
340		39.062500
341		46.875000
342		41.015625
343		48.828125
344		41.015625
345		48.828125
346		41.015625
347		48.828125
348		42.968750
349		48.828125
350		44.921875
351		48.828125
352		44.921875
353		50.781250
354		44.921875
355		50.781250
356		44.921875
357		50.781250
358		44.921875
359		52.734375
360		46.875000
361		52.734375
362		46.875000
363		52.734375
364		46.875000
365		52.734375
366		48.828125
367		52.734375
368		48.828125
369		54.687500
370		48.828125
371		54.687500
372		48.828125
373		54.687500
374		48.828125
375		54.687500
376		48.828125
377		56.640625
378		48.828125
379		56.640625
380		50.781250
381		56.640625
382		50.781250
383		56.640625
384		52.734375
385		54.687500
386		50.781250
387		56.640625
388		50.781250
389		56.640625
390		50.781250
391		56.640625
392		50.781250
393		56.640625
394		50.781250
395		56.640625
396		50.781250
397		56.640625
398		50.781250
399		56.640625
400		52.734375
401		54.687500
402		50.781250
403		56.640625
404		50.781250
405		56.640625
406		50.781250
407		56.640625
408		50.781250
409		56.640625
410		50.781250
411		56.640625
412		50.781250
413		56.640625
414		48.828125
415		56.640625
416		50.781250
417		54.687500
418		50.781250
419		52.734375
420		48.828125
421		54.687500
422		46.875000
423		54.687500
424		48.828125
425		54.687500
426		46.875000
427		54.687500
428		46.875000
429		52.734375
430		46.875000
431		52.734375
432		46.875000
433		52.734375
434		46.875000
435		50.781250
436		44.921875
437		50.781250
438		44.921875
439		50.781250
440		42.968750
441		50.781250
442		42.968750
443		50.781250
444		42.968750
445		50.781250
446		42.968750
447		48.828125
448		41.015625
449		48.828125
450		42.968750
451		44.921875
452		41.015625
453		44.921875
454		39.062500
455		46.875000
456		39.062500
457		44.921875
458		37.109375
459		44.921875
460		37.109375
461		42.968750
462		35.156250
463		42.968750
464		35.156250
465		41.015625
466		37.109375
467		39.062500
468		35.156250
469		37.109375
470		33.203125
471		39.062500
472		31.250000
473		37.109375
474		29.296875
475		37.109375
476		29.296875
477		37.109375
478		29.296875
479		35.156250
480		27.343750
481		33.203125
482		27.343750
483		33.203125
484		27.343750
485		29.296875
486		23.437500
487		31.250000
488		23.437500
489		29.296875
490		21.484375
491		29.296875
492		21.484375
493		27.343750
494		19.531250
495		27.343750
496		17.578125
497		25.390625
498		17.578125
499		25.390625
500		17.578125
501		21.484375
502		17.578125
503		19.531250
504		13.671875
505		21.484375
506		13.671875
507		19.531250
508		11.718750
509		19.531250
510		9.765625
511		17.578125
512		9.765625
513		15.625000
514		7.812500
515		15.625000
516		7.812500
517		13.671875
518		7.812500
519		9.765625
520		3.906250
521		9.765625
522		3.906250
523		9.765625
524		1.953125
525		9.765625
526		1.953125
527		7.812500
528		0.000000
529		5.859375
530		-1.953125
531		5.859375
532		-1.953125
533		3.906250
534		-1.953125
535		1.953125
536		-1.953125
537		0.000000
538		-5.859375
539		0.000000
540		-7.812500
541		0.000000
542		-7.812500
543		-1.953125
544		-9.765625
545		-1.953125
546		-9.765625
547		-3.906250
548		-11.718750
549		-3.906250
550		-9.765625
551		-7.812500
552		-11.718750
553		-7.812500
554		-13.671875
555		-7.812500
556		-15.625000
557		-7.812500
558		-17.578125
559		-9.765625
560		-17.578125
561		-9.765625
562		-17.578125
563		-11.718750
564		-19.531250
565		-11.718750
566		-19.531250
567		-13.671875
568		-19.531250
569		-17.578125
570		-21.484375
571		-15.625000
572		-23.437500
573		-15.625000
574		-23.437500
575		-17.578125
576		-25.390625
577		-17.578125
578		-25.390625
579		-19.531250
580		-27.343750
581		-19.531250
582		-27.343750
583		-19.531250
584		-25.390625
585		-23.437500
586		-27.343750
587		-23.437500
588		-29.296875
589		-21.484375
590		-29.296875
591		-23.437500
592		-31.250000
593		-23.437500
594		-31.250000
595		-25.390625
596		-31.250000
597		-25.390625
598		-31.250000
599		-25.390625
600		-31.250000
601		-25.390625
602		-31.250000
603		-29.296875
604		-33.203125
605		-27.343750
606		-33.203125
607		-27.343750
608		-33.203125
609		-27.343750
610		-35.156250
611		-27.343750
612		-35.156250
613		-27.343750
614		-35.156250
615		-27.343750
616		-35.156250
617		-29.296875
618		-33.203125
619		-31.250000
620		-33.203125
621		-31.250000
622		-35.156250
623		-29.296875
624		-35.156250
625		-29.296875
626		-37.109375
627		-29.296875
628		-35.156250
629		-29.296875
630		-35.156250
631		-29.296875
632		-37.109375
633		-29.296875
634		-33.203125
635		-31.250000
636		-33.203125
637		-31.250000
638		-35.156250
639		-29.296875
640		-35.156250
641		-29.296875
642		-35.156250
643		-29.296875
644		-35.156250
645		-29.296875
646		-35.156250
647		-29.296875
648		-35.156250
649		-29.296875
650		-35.156250
651		-27.343750
652		-31.250000
653		-29.296875
654		-31.250000
655		-27.343750
656		-33.203125
657		-27.343750
658		-33.203125
659		-25.390625
660		-31.250000
661		-25.390625
662		-31.250000
663		-25.390625
664		-31.250000
665		-25.390625
666		-31.250000
667		-23.437500
668		-27.343750
669		-25.390625
670		-27.343750
671		-25.390625
672		-29.296875
673		-21.484375
674		-27.343750
675		-21.484375
676		-27.343750
677		-21.484375
678		-27.343750
679		-19.531250
680		-27.343750
681		-19.531250
682		-25.390625
683		-19.531250
684		-23.437500
685		-19.531250
686		-21.484375
687		-19.531250
688		-21.484375
689		-15.625000
690		-21.484375
691		-15.625000
692		-21.484375
693		-13.671875
694		-19.531250
695		-13.671875
696		-19.531250
697		-11.718750
698		-17.578125
699		-11.718750
700		-17.578125
701		-11.718750
702		-13.671875
703		-11.718750
704		-13.671875
705		-9.765625
706		-13.671875
707		-7.812500
708		-13.671875
709		-5.859375
710		-11.718750
711		-5.859375
712		-11.718750
713		-3.906250
714		-9.765625
715		-3.906250
716		-9.765625
717		-1.953125
718		-5.859375
719		-3.906250
720		-3.906250
721		-1.953125
722		-5.859375
723		0.000000
724		-3.906250
725		1.953125
726		-3.906250
727		3.906250
728		-1.953125
729		3.906250
730		-1.953125
731		5.859375
732		0.000000
733		5.859375
734		0.000000
735		7.812500
736		3.906250
737		5.859375
738		5.859375
739		9.765625
740		3.906250
741		11.718750
742		5.859375
743		11.718750
744		5.859375
745		13.671875
746		7.812500
747		15.625000
748		7.812500
749		15.625000
750		9.765625
751		15.625000
752		13.671875
753		15.625000
754		13.671875
755		17.578125
756		13.671875
757		19.531250
758		13.671875
759		21.484375
760		15.625000
761		21.484375
762		15.625000
763		23.437500
764		17.578125
765		25.390625
766		19.531250
767		25.390625
768		19.531250
769		25.390625
770		23.437500
771		25.390625
772		21.484375
773		29.296875
774		23.437500
775		31.250000
776		23.437500
777		31.250000
778		25.390625
779		31.250000
780		27.343750
781		33.203125
782		27.343750
783		33.203125
784		29.296875
785		35.156250
786		31.250000
787		33.203125
788		33.203125
789		35.156250
790		31.250000
791		39.062500
792		31.250000
793		39.062500
794		33.203125
795		41.015625
796		35.156250
797		41.015625
798		35.156250
799		41.015625
800		35.156250
801		42.968750
802		37.109375
803		41.015625
804		39.062500
805		42.968750
806		39.062500
807		44.921875
808		39.062500
809		46.875000
810		39.062500
811		46.875000
812		41.015625
813		46.875000
814		41.015625
815		46.875000
816		41.015625
817		48.828125
818		42.968750
819		48.828125
820		44.921875
821		48.828125
822		44.921875
823		48.828125
824		44.921875
825		50.781250
826		44.921875
827		50.781250
828		44.921875
829		52.734375
830		44.921875
831		52.734375
832		46.875000
833		52.734375
834		46.875000
835		52.734375
836		50.781250
837		52.734375
838		50.781250
839		52.734375
840		48.828125
841		54.687500
842		48.828125
843		54.687500
844		48.828125
845		54.687500
846		48.828125
847		56.640625
848		48.828125
849		56.640625
850		50.781250
851		56.640625
852		50.781250
853		56.640625
854		52.734375
855		54.687500
856		50.781250
857		56.640625
858		50.781250
859		56.640625
860		50.781250
861		56.640625
862		50.781250
863		56.640625
864		50.781250
865		56.640625
866		50.781250
867		56.640625
868		50.781250
869		56.640625
870		52.734375
871		54.687500
872		52.734375
873		54.687500
874		50.781250
875		56.640625
876		50.781250
877		56.640625
878		50.781250
879		56.640625
880		50.781250
881		56.640625
882		50.781250
883		56.640625
884		50.781250
885		56.640625
886		50.781250
887		54.687500
888		50.781250
889		54.687500
890		48.828125
891		54.687500
892		48.828125
893		54.687500
894		48.828125
895		54.687500
896		48.828125
897		54.687500
898		46.875000
899		54.687500
900		46.875000
901		52.734375
902		46.875000
903		52.734375
904		48.828125
905		50.781250
906		46.875000
907		50.781250
908		44.921875
909		50.781250
910		44.921875
911		50.781250
912		44.921875
913		50.781250
914		42.968750
915		48.828125
916		41.015625
917		48.828125
918		41.015625
919		48.828125
920		42.968750
921		46.875000
922		42.968750
923		44.921875
924		39.062500
925		44.921875
926		39.062500
927		44.921875
928		39.062500
929		44.921875
930		37.109375
931		44.921875
932		37.109375
933		42.968750
934		35.156250
935		42.968750
936		35.156250
937		42.968750
938		35.156250
939		39.062500
940		33.203125
941		39.062500
942		33.203125
943		39.062500
944		31.250000
945		37.109375
946		29.296875
947		37.109375
948		29.296875
949		35.156250
950		27.343750
951		35.156250
952		27.343750
953		33.203125
954		27.343750
955		31.250000
956		27.343750
957		29.296875
958		23.437500
959		29.296875
960		23.437500
961		29.296875
962		21.484375
963		27.343750
964		21.484375
965		27.343750
966		19.531250
967		27.343750
968		17.578125
969		25.390625
970		19.531250
971		23.437500
972		17.578125
973		21.484375
974		13.671875
975		21.484375
976		13.671875
977		19.531250
978		11.718750
979		19.531250
980		11.718750
981		17.578125
982		9.765625
983		17.578125
984		7.812500
985		15.625000
986		7.812500
987		13.671875
988		7.812500
989		11.718750
990		5.859375
991		9.765625
992		3.906250
993		11.718750
994		1.953125
995		9.765625
996		1.953125
997		9.765625
998		0.000000
999		7.812500
1000		0.000000
1001		5.859375
1002		-1.953125
1003		3.906250
1004		0.000000
1005		1.953125
1006		-1.953125
1007		0.000000
1008		-3.906250
1009		0.000000
1010		-7.812500
1011		0.000000
1012		-7.812500
1013		0.000000
1014		-7.812500
1015		-1.953125
1016		-9.765625
1017		-1.953125
1018		-9.765625
1019		-3.906250
1020		-11.718750
1021		-5.859375
1022		-9.765625
1023		-7.812500
1024		-11.718750
1025		-7.812500
1026		-15.625000
1027		-7.812500
1028		-15.625000
1029		-9.765625
1030		-17.578125
1031		-11.718750
1032		-17.578125
1033		-11.718750
1034		-19.531250
1035		-11.718750
1036		-19.531250
1037		-13.671875
1038		-19.531250
1039		-15.625000
1040		-19.531250
1041		-17.578125
1042		-23.437500
1043		-15.625000
1044		-23.437500
1045		-15.625000
1046		-25.390625
1047		-17.578125
1048		-25.390625
1049		-17.578125
1050		-25.390625
1051		-19.531250
1052		-27.343750
1053		-19.531250
1054		-25.390625
1055		-21.484375
1056		-25.390625
1057		-23.437500
1058		-29.296875
1059		-23.437500
1060		-29.296875
1061		-23.437500
1062		-29.296875
1063		-23.437500
1064		-31.250000
1065		-23.437500
1066		-31.250000
1067		-23.437500
1068		-31.250000
1069		-25.390625
1070		-31.250000
1071		-25.390625
1072		-31.250000
1073		-27.343750
1074		-31.250000
1075		-27.343750
1076		-33.203125
1077		-27.343750
1078		-33.203125
1079		-27.343750
1080		-35.156250
1081		-27.343750
1082		-35.156250
1083		-27.343750
1084		-35.156250
1085		-29.296875
1086		-35.156250
1087		-27.343750
1088		-33.203125
1089		-31.250000
1090		-33.203125
1091		-31.250000
1092		-35.156250
1093		-29.296875
1094		-35.156250
1095		-29.296875
1096		-35.156250
1097		-29.296875
1098		-35.156250
1099		-29.296875
1100		-35.156250
1101		-29.296875
1102		-37.109375
1103		-29.296875
1104		-35.156250
1105		-29.296875
1106		-33.203125
1107		-31.250000
1108		-35.156250
1109		-29.296875
1110		-35.156250
1111		-29.296875
1112		-35.156250
1113		-29.296875
1114		-35.156250
1115		-29.296875
1116		-35.156250
1117		-29.296875
1118		-35.156250
1119		-29.296875
1120		-33.203125
1121		-27.343750
1122		-31.250000
1123		-29.296875
1124		-31.250000
1125		-29.296875
1126		-33.203125
1127		-27.343750
1128		-33.203125
1129		-25.390625
1130		-33.203125
1131		-25.390625
1132		-31.250000
1133		-25.390625
1134		-31.250000
1135		-25.390625
1136		-31.250000
1137		-25.390625
1138		-29.296875
1139		-23.437500
1140		-27.343750
1141		-25.390625
1142		-27.343750
1143		-23.437500
1144		-29.296875
1145		-21.484375
1146		-27.343750
1147		-21.484375
1148		-27.343750
1149		-19.531250
1150		-25.390625
1151		-19.531250
1152		-25.390625
1153		-19.531250
1154		-25.390625
1155		-19.531250
1156		-21.484375
1157		-19.531250
1158		-21.484375
1159		-17.578125
1160		-21.484375
1161		-15.625000
1162		-21.484375
1163		-15.625000
1164		-21.484375
1165		-13.671875
1166		-19.531250
1167		-13.671875
1168		-19.531250
1169		-11.718750
1170		-17.578125
1171		-11.718750
1172		-15.625000
1173		-11.718750
1174		-13.671875
1175		-11.718750
1176		-13.671875
1177		-7.812500
1178		-13.671875
1179		-7.812500
1180		-13.671875
1181		-5.859375
1182		-11.718750
1183		-3.906250
1184		-11.718750
1185		-3.906250
1186		-9.765625
1187		-3.906250
1188		-9.765625
1189		-1.953125
1190		-5.859375
1191		-1.953125
1192		-3.906250
1193		0.000000
1194		-5.859375
1195		1.953125
1196		-3.906250
1197		1.953125
1198		-1.953125
1199		3.906250
1200		-1.953125
1201		3.906250
1202		-1.953125
1203		5.859375
1204		0.000000
1205		7.812500
1206		3.906250
1207		5.859375
1208		3.906250
1209		7.812500
1210		3.906250
1211		9.765625
1212		3.906250
1213		11.718750
1214		5.859375
1215		13.671875
1216		7.812500
1217		13.671875
1218		7.812500
1219		15.625000
1220		9.765625
1221		15.625000
1222		11.718750
1223		15.625000
1224		13.671875
1225		15.625000
1226		13.671875
1227		19.531250
1228		13.671875
1229		21.484375
1230		15.625000
1231		21.484375
1232		15.625000
1233		23.437500
1234		17.578125
1235		23.437500
1236		17.578125
1237		25.390625
1238		19.531250
1239		25.390625
1240		23.437500
1241		25.390625
1242		23.437500
1243		27.343750
1244		23.437500
1245		29.296875
1246		23.437500
1247		31.250000
1248		25.390625
1249		31.250000
1250		25.390625
1251		33.203125
1252		27.343750
1253		33.203125
1254		27.343750
1255		35.156250
1256		31.250000
1257		33.203125
1258		31.250000
1259		35.156250
1260		31.250000
1261		37.109375
1262		31.250000
1263		39.062500
1264		33.203125
1265		39.062500
1266		33.203125
1267		41.015625
1268		33.203125
1269		41.015625
1270		35.156250
1271		42.968750
1272		37.109375
1273		42.968750
1274		39.062500
1275		41.015625
1276		39.062500
1277		42.968750
1278		37.109375
1279		44.921875
1280		39.062500
1281		46.875000
1282		41.015625
1283		46.875000
1284		41.015625
1285		46.875000
1286		42.968750
1287		48.828125
1288		41.015625
1289		48.828125
1290		44.921875
1291		46.875000
1292		44.921875
1293		48.828125
1294		44.921875
1295		50.781250
1296		44.921875
1297		50.781250
1298		44.921875
1299		52.734375
1300		44.921875
1301		52.734375
1302		46.875000
1303		52.734375
1304		46.875000
1305		52.734375
1306		46.875000
1307		52.734375
1308		50.781250
1309		52.734375
1310		48.828125
1311		54.687500
1312		48.828125
1313		54.687500
1314		48.828125
1315		56.640625
1316		48.828125
1317		54.687500
1318		50.781250
1319		56.640625
1320		50.781250
1321		56.640625
1322		50.781250
1323		56.640625
1324		52.734375
1325		54.687500
1326		52.734375
1327		56.640625
1328		50.781250
1329		56.640625
1330		50.781250
1331		56.640625
1332		50.781250
1333		58.593750
1334		50.781250
1335		56.640625
1336		50.781250
1337		56.640625
1338		50.781250
1339		56.640625
1340		52.734375
1341		56.640625
1342		52.734375
1343		54.687500
1344		50.781250
1345		56.640625
1346		50.781250
1347		56.640625
1348		50.781250
1349		56.640625
1350		50.781250
1351		56.640625
1352		50.781250
1353		56.640625
1354		50.781250
1355		56.640625
1356		50.781250
1357		56.640625
1358		52.734375
1359		54.687500
1360		48.828125
1361		54.687500
1362		48.828125
1363		54.687500
1364		48.828125
1365		54.687500
1366		48.828125
1367		54.687500
1368		46.875000
1369		54.687500
1370		48.828125
1371		52.734375
1372		46.875000
1373		52.734375
1374		48.828125
1375		50.781250
1376		48.828125
1377		50.781250
1378		44.921875
1379		52.734375
1380		44.921875
1381		50.781250
1382		44.921875
1383		50.781250
1384		42.968750
1385		50.781250
1386		44.921875
1387		48.828125
1388		42.968750
1389		48.828125
1390		41.015625
1391		48.828125
1392		42.968750
1393		44.921875
1394		41.015625
1395		46.875000
1396		41.015625
1397		46.875000
1398		41.015625
1399		44.921875
1400		41.015625
1401		42.968750
1402		37.109375
1403		42.968750
1404		37.109375
1405		41.015625
1406		37.109375
1407		41.015625
1408		37.109375
1409		39.062500
1410		33.203125
1411		39.062500
1412		33.203125
1413		39.062500
1414		33.203125
1415		39.062500
1416		33.203125
1417		35.156250
1418		31.250000
1419		35.156250
1420		31.250000
1421		33.203125
1422		29.296875
1423		33.203125
1424		29.296875
1425		31.250000
1426		27.343750
1427		29.296875
1428		23.437500
1429		29.296875
1430		25.390625
1431		29.296875
1432		23.437500
1433		27.343750
1434		23.437500
1435		25.390625
1436		21.484375
1437		25.390625
1438		19.531250
1439		23.437500
1440		19.531250
1441		23.437500
1442		17.578125
1443		21.484375
1444		15.625000
1445		19.531250
1446		15.625000
1447		21.484375
1448		15.625000
1449		17.578125
1450		13.671875
1451		17.578125
1452		13.671875
1453		15.625000
1454		11.718750
1455		15.625000
1456		9.765625
1457		13.671875
1458		9.765625
1459		11.718750
1460		7.812500
1461		11.718750
1462		5.859375
1463		11.718750
1464		5.859375
1465		9.765625
1466		3.906250
1467		7.812500
1468		3.906250
1469		5.859375
1470		1.953125
1471		5.859375
1472		1.953125
1473		3.906250
1474		0.000000
1475		3.906250
1476		0.000000
1477		1.953125
1478		-3.906250
1479		1.953125
1480		-3.906250
1481		0.000000
1482		-3.906250
1483		0.000000
1484		-5.859375
1485		-1.953125
1486		-7.812500
1487		-3.906250
1488		-7.812500
1489		-3.906250
1490		-9.765625
1491		-5.859375
1492		-9.765625
1493		-7.812500
1494		-11.718750
1495		-7.812500
1496		-11.718750
1497		-7.812500
1498		-13.671875
1499		-9.765625
1500		-13.671875
1501		-11.718750
1502		-15.625000
1503		-11.718750
1504		-15.625000
1505		-13.671875
1506		-17.578125
1507		-13.671875
1508		-17.578125
1509		-13.671875
1510		-19.531250
1511		-15.625000
1512		-19.531250
1513		-15.625000
1514		-21.484375
1515		-17.578125
1516		-21.484375
1517		-17.578125
1518		-23.437500
1519		-19.531250
1520		-23.437500
1521		-19.531250
1522		-23.437500
1523		-21.484375
1524		-25.390625
1525		-21.484375
1526		-25.390625
1527		-23.437500
1528		-27.343750
1529		-23.437500
1530		-27.343750
1531		-23.437500
1532		-27.343750
1533		-23.437500
1534		-27.343750
1535		-25.390625
1536		-29.296875
1537		-25.390625
1538		-29.296875
1539		-25.390625
1540		-29.296875
1541		-27.343750
1542		-29.296875
1543		-27.343750
1544		-29.296875
1545		-27.343750
1546		-31.250000
1547		-27.343750
1548		-31.250000
1549		-27.343750
1550		-31.250000
1551		-29.296875
1552		-31.250000
1553		-29.296875
1554		-33.203125
1555		-29.296875
1556		-33.203125
1557		-29.296875
1558		-33.203125
1559		-29.296875
1560		-33.203125
1561		-31.250000
1562		-35.156250
1563		-29.296875
1564		-33.203125
1565		-31.250000
1566		-33.203125
1567		-29.296875
1568		-33.203125
1569		-31.250000
1570		-33.203125
1571		-31.250000
1572		-33.203125
1573		-31.250000
1574		-35.156250
1575		-31.250000
1576		-33.203125
1577		-31.250000
1578		-33.203125
1579		-31.250000
1580		-33.203125
1581		-31.250000
1582		-33.203125
1583		-31.250000
1584		-33.203125
1585		-29.296875
1586		-33.203125
1587		-29.296875
1588		-33.203125
1589		-29.296875
1590		-33.203125
1591		-29.296875
1592		-33.203125
1593		-29.296875
1594		-31.250000
1595		-29.296875
1596		-31.250000
1597		-27.343750
1598		-31.250000
1599		-27.343750
1600		-31.250000
1601		-27.343750
1602		-29.296875
1603		-27.343750
1604		-29.296875
1605		-27.343750
1606		-29.296875
1607		-25.390625
1608		-29.296875
1609		-25.390625
1610		-27.343750
1611		-25.390625
1612		-27.343750
1613		-23.437500
1614		-27.343750
1615		-23.437500
1616		-25.390625
1617		-23.437500
1618		-25.390625
1619		-21.484375
1620		-25.390625
1621		-21.484375
1622		-25.390625
1623		-21.484375
1624		-23.437500
1625		-19.531250
1626		-21.484375
1627		-19.531250
1628		-21.484375
1629		-19.531250
1630		-21.484375
1631		-17.578125
1632		-19.531250
1633		-17.578125
1634		-19.531250
1635		-17.578125
1636		-17.578125
1637		-15.625000
1638		-17.578125
1639		-15.625000
1640		-15.625000
1641		-13.671875
1642		-15.625000
1643		-13.671875
1644		-15.625000
1645		-11.718750
1646		-13.671875
1647		-9.765625
1648		-13.671875
1649		-9.765625
1650		-11.718750
1651		-7.812500
1652		-11.718750
1653		-7.812500
1654		-9.765625
1655		-5.859375
1656		-7.812500
1657		-5.859375
1658		-7.812500
1659		-3.906250
1660		-7.812500
1661		-3.906250
1662		-5.859375
1663		-1.953125
1664		-3.906250
1665		0.000000
1666		-3.906250
1667		0.000000
1668		-1.953125
1669		0.000000
1670		0.000000
1671		1.953125
1672		0.000000
1673		3.906250
1674		1.953125
1675		3.906250
1676		1.953125
1677		5.859375
1678		3.906250
1679		5.859375
1680		3.906250
1681		7.812500
1682		5.859375
1683		9.765625
1684		7.812500
1685		9.765625
1686		7.812500
1687		11.718750
1688		9.765625
1689		11.718750
1690		9.765625
1691		13.671875
1692		11.718750
1693		15.625000
1694		13.671875
1695		15.625000
1696		13.671875
1697		17.578125
1698		15.625000
1699		17.578125
1700		15.625000
1701		19.531250
1702		17.578125
1703		19.531250
1704		17.578125
1705		21.484375
1706		19.531250
1707		23.437500
1708		21.484375
1709		23.437500
1710		21.484375
1711		23.437500
1712		23.437500
1713		25.390625
1714		23.437500
1715		27.343750
1716		23.437500
1717		27.343750
1718		25.390625
1719		29.296875
1720		27.343750
1721		29.296875
1722		27.343750
1723		31.250000
1724		29.296875
1725		31.250000
1726		29.296875
1727		33.203125
1728		31.250000
1729		33.203125
1730		31.250000
1731		35.156250
1732		33.203125
1733		35.156250
1734		33.203125
1735		37.109375
1736		35.156250
1737		37.109375
1738		35.156250
1739		39.062500
1740		37.109375
1741		39.062500
1742		37.109375
1743		41.015625
1744		39.062500
1745		41.015625
1746		39.062500
1747		41.015625
1748		39.062500
1749		42.968750
1750		41.015625
1751		42.968750
1752		41.015625
1753		44.921875
1754		41.015625
1755		44.921875
1756		42.968750
1757		44.921875
1758		42.968750
1759		46.875000
1760		42.968750
1761		46.875000
1762		44.921875
1763		46.875000
1764		44.921875
1765		48.828125
1766		44.921875
1767		48.828125
1768		46.875000
1769		50.781250
1770		46.875000
1771		50.781250
1772		46.875000
1773		50.781250
1774		48.828125
1775		50.781250
1776		46.875000
1777		52.734375
1778		48.828125
1779		52.734375
1780		50.781250
1781		52.734375
1782		50.781250
1783		52.734375
1784		50.781250
1785		52.734375
1786		50.781250
1787		52.734375
1788		50.781250
1789		54.687500
1790		50.781250
1791		54.687500
1792		50.781250
1793		54.687500
1794		52.734375
1795		54.687500
1796		52.734375
1797		54.687500
1798		50.781250
1799		54.687500
1800		52.734375
1801		56.640625
1802		52.734375
1803		54.687500
1804		52.734375
1805		56.640625
1806		52.734375
1807		56.640625
1808		52.734375
1809		56.640625
1810		52.734375
1811		56.640625
1812		52.734375
1813		54.687500
1814		52.734375
1815		56.640625
1816		52.734375
1817		56.640625
1818		52.734375
1819		54.687500
1820		52.734375
1821		56.640625
1822		52.734375
1823		54.687500
1824		52.734375
1825		54.687500
1826		50.781250
1827		54.687500
1828		52.734375
1829		54.687500
1830		50.781250
1831		54.687500
1832		50.781250
1833		54.687500
1834		50.781250
1835		54.687500
1836		50.781250
1837		54.687500
1838		50.781250
1839		52.734375
1840		50.781250
1841		52.734375
1842		48.828125
1843		52.734375
1844		48.828125
1845		52.734375
1846		48.828125
1847		50.781250
1848		48.828125
1849		50.781250
1850		46.875000
1851		50.781250
1852		46.875000
1853		50.781250
1854		44.921875
1855		48.828125
1856		44.921875
1857		48.828125
1858		44.921875
1859		46.875000
1860		42.968750
1861		46.875000
1862		42.968750
1863		46.875000
1864		42.968750
1865		46.875000
1866		41.015625
1867		44.921875
1868		41.015625
1869		44.921875
1870		41.015625
1871		44.921875
1872		39.062500
1873		42.968750
1874		39.062500
1875		41.015625
1876		37.109375
1877		41.015625
1878		37.109375
1879		41.015625
1880		37.109375
1881		39.062500
1882		35.156250
1883		39.062500
1884		33.203125
1885		37.109375
1886		33.203125
1887		37.109375
1888		33.203125
1889		35.156250
1890		31.250000
1891		35.156250
1892		29.296875
1893		33.203125
1894		29.296875
1895		33.203125
1896		29.296875
1897		31.250000
1898		25.390625
1899		31.250000
1900		25.390625
1901		29.296875
1902		25.390625
1903		29.296875
1904		23.437500
1905		27.343750
1906		21.484375
1907		25.390625
1908		21.484375
1909		25.390625
1910		19.531250
1911		23.437500
1912		19.531250
1913		21.484375
1914		17.578125
1915		21.484375
1916		15.625000
1917		21.484375
1918		15.625000
1919		19.531250
1920		13.671875
1921		17.578125
1922		13.671875
1923		17.578125
1924		11.718750
1925		15.625000
1926		9.765625
1927		13.671875
1928		9.765625
1929		13.671875
1930		9.765625
1931		11.718750
1932		7.812500
1933		9.765625
1934		5.859375
1935		9.765625
1936		3.906250
1937		7.812500
1938		3.906250
1939		7.812500
1940		1.953125
1941		5.859375
1942		1.953125
1943		5.859375
1944		0.000000
1945		3.906250
1946		0.000000
1947		1.953125
1948		-1.953125
1949		1.953125
1950		-3.906250
1951		0.000000
1952		-3.906250
1953		0.000000
1954		-5.859375
1955		-1.953125
1956		-5.859375
1957		-3.906250
1958		-7.812500
1959		-3.906250
1960		-9.765625
1961		-5.859375
1962		-9.765625
1963		-5.859375
1964		-9.765625
1965		-7.812500
1966		-11.718750
1967		-7.812500
1968		-13.671875
1969		-9.765625
1970		-13.671875
1971		-9.765625
1972		-15.625000
1973		-11.718750
1974		-15.625000
1975		-13.671875
1976		-17.578125
1977		-13.671875
1978		-17.578125
1979		-13.671875
1980		-19.531250
1981		-15.625000
1982		-19.531250
1983		-15.625000
1984		-21.484375
1985		-17.578125
1986		-21.484375
1987		-19.531250
1988		-21.484375
1989		-19.531250
1990		-23.437500
1991		-19.531250
1992		-23.437500
1993		-21.484375
1994		-25.390625
1995		-21.484375
1996		-25.390625
1997		-21.484375
1998		-25.390625
1999		-23.437500
2000		-27.343750
2001		-23.437500
2002		-27.343750
2003		-23.437500
2004		-27.343750
2005		-25.390625
2006		-27.343750
2007		-25.390625
2008		-29.296875
2009		-25.390625
2010		-29.296875
2011		-27.343750
2012		-29.296875
2013		-27.343750
2014		-31.250000
2015		-27.343750
2016		-31.250000
2017		-27.343750
2018		-31.250000
2019		-29.296875
2020		-31.250000
2021		-29.296875
2022		-31.250000
2023		-29.296875
2024		-33.203125
2025		-29.296875
2026		-33.203125
2027		-29.296875
2028		-33.203125
2029		-29.296875
2030		-33.203125
2031		-31.250000
2032		-33.203125
2033		-31.250000
2034		-35.156250
2035		-29.296875
2036		-35.156250
2037		-31.250000
2038		-35.156250
2039		-31.250000
2040		-33.203125
2041		-31.250000
2042		-33.203125
2043		-31.250000
2044		-35.156250
2045		-31.250000
2046		-35.156250
2047		-31.250000
2048		-33.203125
2049		-31.250000
2050		-35.156250
2051		-31.250000
2052		-35.156250
2053		-31.250000
2054		-33.203125
2055		-31.250000
2056		-33.203125
2057		-31.250000
2058		-33.203125
2059		-29.296875
2060		-33.203125
2061		-29.296875
2062		-33.203125
2063		-29.296875
2064		-33.203125
2065		-29.296875
2066		-31.250000
2067		-29.296875
2068		-33.203125
2069		-29.296875
2070		-31.250000
2071		-27.343750
2072		-31.250000
2073		-29.296875
2074		-31.250000
2075		-27.343750
2076		-29.296875
2077		-27.343750
2078		-29.296875
2079		-25.390625
2080		-29.296875
2081		-25.390625
2082		-27.343750
2083		-25.390625
2084		-29.296875
2085		-25.390625
2086		-27.343750
2087		-23.437500
2088		-27.343750
2089		-23.437500
2090		-25.390625
2091		-21.484375
2092		-25.390625
2093		-21.484375
2094		-25.390625
2095		-19.531250
2096		-23.437500
2097		-21.484375
2098		-21.484375
2099		-19.531250
2100		-21.484375
2101		-17.578125
2102		-21.484375
2103		-17.578125
2104		-19.531250
2105		-17.578125
2106		-19.531250
2107		-15.625000
2108		-17.578125
2109		-15.625000
2110		-17.578125
2111		-13.671875
2112		-17.578125
2113		-13.671875
2114		-15.625000
2115		-13.671875
2116		-13.671875
2117		-11.718750
2118		-13.671875
2119		-9.765625
2120		-11.718750
2121		-9.765625
2122		-11.718750
2123		-7.812500
2124		-9.765625
2125		-7.812500
2126		-9.765625
2127		-5.859375
2128		-7.812500
2129		-5.859375
2130		-7.812500
2131		-3.906250
2132		-5.859375
2133		-3.906250
2134		-5.859375
2135		-1.953125
2136		-3.906250
2137		0.000000
2138		-1.953125
2139		0.000000
2140		-1.953125
2141		1.953125
2142		-1.953125
2143		1.953125
2144		0.000000
2145		3.906250
2146		1.953125
2147		5.859375
2148		1.953125
2149		5.859375
2150		3.906250
2151		7.812500
2152		5.859375
2153		7.812500
2154		5.859375
2155		7.812500
2156		7.812500
2157		11.718750
2158		7.812500
2159		11.718750
2160		7.812500
2161		13.671875
2162		9.765625
2163		13.671875
2164		11.718750
2165		13.671875
2166		13.671875
2167		15.625000
2168		11.718750
2169		17.578125
2170		15.625000
2171		17.578125
2172		15.625000
2173		19.531250
2174		17.578125
2175		19.531250
2176		19.531250
2177		21.484375
2178		19.531250
2179		23.437500
2180		19.531250
2181		23.437500
2182		21.484375
2183		23.437500
2184		21.484375
2185		27.343750
2186		23.437500
2187		27.343750
2188		25.390625
2189		27.343750
2190		25.390625
2191		29.296875
2192		25.390625
2193		29.296875
2194		27.343750
2195		31.250000
2196		27.343750
2197		33.203125
2198		29.296875
2199		33.203125
2200		31.250000
2201		33.203125
2202		31.250000
2203		35.156250
2204		33.203125
2205		37.109375
2206		33.203125
2207		37.109375
2208		35.156250
2209		39.062500
2210		35.156250
2211		39.062500
2212		37.109375
2213		39.062500
2214		37.109375
2215		41.015625
2216		39.062500
2217		41.015625
2218		39.062500
2219		42.968750
2220		39.062500
2221		42.968750
2222		41.015625
2223		44.921875
2224		41.015625
2225		44.921875
2226		42.968750
2227		44.921875
2228		42.968750
2229		46.875000
2230		42.968750
2231		46.875000
2232		44.921875
2233		46.875000
2234		42.968750
2235		48.828125
2236		44.921875
2237		48.828125
2238		44.921875
2239		48.828125
2240		46.875000
2241		48.828125
2242		46.875000
2243		50.781250
2244		46.875000
2245		50.781250
2246		48.828125
2247		52.734375
2248		48.828125
2249		50.781250
2250		48.828125
2251		50.781250
2252		48.828125
2253		52.734375
2254		50.781250
2255		52.734375
2256		50.781250
2257		52.734375
2258		50.781250
2259		54.687500
2260		50.781250
2261		54.687500
2262		50.781250
2263		54.687500
2264		50.781250
2265		54.687500
2266		52.734375
2267		54.687500
2268		52.734375
2269		54.687500
2270		52.734375
2271		54.687500
2272		52.734375
2273		56.640625
2274		52.734375
2275		54.687500
2276		52.734375
2277		56.640625
2278		52.734375
2279		56.640625
2280		52.734375
2281		56.640625
2282		52.734375
2283		54.687500
2284		52.734375
2285		54.687500
2286		50.781250
2287		56.640625
2288		52.734375
2289		56.640625
2290		52.734375
2291		56.640625
2292		52.734375
2293		56.640625
2294		52.734375
2295		54.687500
2296		52.734375
2297		54.687500
2298		52.734375
2299		54.687500
2300		50.781250
2301		54.687500
2302		50.781250
2303		54.687500
2304		50.781250
2305		54.687500
2306		50.781250
2307		52.734375
2308		48.828125
2309		52.734375
2310		48.828125
2311		52.734375
2312		48.828125
2313		52.734375
2314		48.828125
2315		52.734375
2316		48.828125
2317		50.781250
2318		46.875000
2319		50.781250
2320		46.875000
2321		50.781250
2322		46.875000
2323		50.781250
2324		46.875000
2325		48.828125
2326		44.921875
2327		48.828125
2328		44.921875
2329		48.828125
2330		42.968750
2331		46.875000
2332		44.921875
2333		46.875000
2334		42.968750
2335		46.875000
2336		42.968750
2337		44.921875
2338		41.015625
2339		44.921875
2340		41.015625
2341		44.921875
2342		39.062500
2343		42.968750
2344		39.062500
2345		42.968750
2346		39.062500
2347		41.015625
2348		37.109375
2349		41.015625
2350		37.109375
2351		39.062500
2352		35.156250
2353		39.062500
2354		35.156250
2355		37.109375
2356		33.203125
2357		37.109375
2358		33.203125
2359		35.156250
2360		31.250000
2361		35.156250
2362		31.250000
2363		35.156250
2364		29.296875
2365		33.203125
2366		29.296875
2367		31.250000
2368		27.343750
2369		31.250000
2370		27.343750
2371		29.296875
2372		25.390625
2373		29.296875
2374		25.390625
2375		27.343750
2376		23.437500
2377		27.343750
2378		23.437500
2379		25.390625
2380		21.484375
2381		25.390625
2382		19.531250
2383		23.437500
2384		19.531250
2385		21.484375
2386		17.578125
2387		21.484375
2388		17.578125
2389		19.531250
2390		15.625000
2391		19.531250
2392		13.671875
2393		17.578125
2394		13.671875
2395		15.625000
2396		11.718750
2397		15.625000
2398		9.765625
2399		13.671875
2400		9.765625
2401		11.718750
2402		7.812500
2403		11.718750
2404		7.812500
2405		11.718750
2406		5.859375
2407		9.765625
2408		5.859375
2409		7.812500
2410		3.906250
2411		7.812500
2412		1.953125
2413		5.859375
2414		0.000000
2415		3.906250
2416		0.000000
2417		3.906250
2418		0.000000
2419		1.953125
2420		-1.953125
2421		1.953125
2422		-3.906250
2423		0.000000
2424		-5.859375
2425		0.000000
2426		-5.859375
2427		-1.953125
2428		-5.859375
2429		-3.906250
2430		-7.812500
2431		-5.859375
2432		-9.765625
2433		-5.859375
2434		-9.765625
2435		-7.812500
2436		-11.718750
2437		-7.812500
2438		-11.718750
2439		-7.812500
2440		-13.671875
2441		-9.765625
2442		-13.671875
2443		-11.718750
2444		-15.625000
2445		-11.718750
2446		-15.625000
2447		-13.671875
2448		-17.578125
2449		-13.671875
2450		-17.578125
2451		-15.625000
2452		-19.531250
2453		-15.625000
2454		-19.531250
2455		-15.625000
2456		-21.484375
2457		-17.578125
2458		-21.484375
2459		-17.578125
2460		-21.484375
2461		-19.531250
2462		-23.437500
2463		-19.531250
2464		-23.437500
2465		-21.484375
2466		-25.390625
2467		-21.484375
2468		-25.390625
2469		-21.484375
2470		-27.343750
2471		-23.437500
2472		-27.343750
2473		-23.437500
2474		-27.343750
2475		-25.390625
2476		-27.343750
2477		-25.390625
2478		-29.296875
2479		-25.390625
2480		-29.296875
2481		-27.343750
2482		-31.250000
2483		-27.343750
2484		-29.296875
2485		-27.343750
2486		-29.296875
2487		-27.343750
2488		-31.250000
2489		-27.343750
2490		-31.250000
2491		-27.343750
2492		-31.250000
2493		-29.296875
2494		-33.203125
2495		-29.296875
2496		-33.203125
2497		-29.296875
2498		-33.203125
2499		-29.296875
2500		-33.203125
2501		-31.250000
2502		-33.203125
2503		-29.296875
2504		-35.156250
2505		-29.296875
2506		-33.203125
2507		-31.250000
2508		-33.203125
2509		-31.250000
2510		-33.203125
2511		-31.250000
2512		-35.156250
2513		-31.250000
2514		-33.203125
2515		-31.250000
2516		-33.203125
2517		-31.250000
2518		-33.203125
2519		-31.250000
2520		-35.156250
2521		-29.296875
2522		-33.203125
2523		-31.250000
2524		-33.203125
2525		-31.250000
2526		-33.203125
2527		-31.250000
2528		-33.203125
2529		-29.296875
2530		-33.203125
2531		-29.296875
2532		-33.203125
2533		-29.296875
2534		-31.250000
2535		-29.296875
2536		-31.250000
2537		-29.296875
2538		-31.250000
2539		-27.343750
2540		-31.250000
2541		-29.296875
2542		-31.250000
2543		-27.343750
2544		-31.250000
2545		-27.343750
2546		-29.296875
2547		-27.343750
2548		-29.296875
2549		-25.390625
2550		-29.296875
2551		-25.390625
2552		-27.343750
2553		-25.390625
2554		-27.343750
2555		-23.437500
2556		-27.343750
2557		-23.437500
2558		-27.343750
2559		-23.437500
2560		-25.390625
2561		-23.437500
2562		-25.390625
2563		-21.484375
2564		-23.437500
2565		-21.484375
2566		-23.437500
2567		-19.531250
2568		-23.437500
2569		-19.531250
2570		-21.484375
2571		-19.531250
2572		-21.484375
2573		-17.578125
2574		-19.531250
2575		-17.578125
2576		-19.531250
2577		-15.625000
2578		-17.578125
2579		-15.625000
2580		-17.578125
2581		-13.671875
2582		-17.578125
2583		-13.671875
2584		-15.625000
2585		-13.671875
2586		-15.625000
2587		-11.718750
2588		-15.625000
2589		-9.765625
2590		-13.671875
2591		-9.765625
2592		-11.718750
2593		-9.765625
2594		-11.718750
2595		-7.812500
2596		-9.765625
2597		-7.812500
2598		-9.765625
2599		-5.859375
2600		-9.765625
2601		-3.906250
2602		-5.859375
2603		-1.953125
2604		-5.859375
2605		-1.953125
2606		-3.906250
2607		0.000000
2608		-3.906250
2609		0.000000
2610		-1.953125
2611		0.000000
2612		-1.953125
2613		1.953125
2614		-1.953125
2615		3.906250
2616		0.000000
2617		3.906250
2618		1.953125
2619		5.859375
2620		3.906250
2621		5.859375
2622		3.906250
2623		7.812500
2624		5.859375
2625		9.765625
2626		5.859375
2627		9.765625
2628		7.812500
2629		11.718750
2630		7.812500
2631		11.718750
2632		9.765625
2633		13.671875
2634		9.765625
2635		13.671875
2636		11.718750
2637		15.625000
2638		13.671875
2639		17.578125
2640		15.625000
2641		17.578125
2642		15.625000
2643		19.531250
2644		15.625000
2645		19.531250
2646		17.578125
2647		21.484375
2648		19.531250
2649		21.484375
2650		19.531250
2651		23.437500
2652		21.484375
2653		23.437500
2654		21.484375
2655		25.390625
2656		21.484375
2657		25.390625
2658		23.437500
2659		27.343750
2660		25.390625
2661		29.296875
2662		27.343750
2663		29.296875
2664		27.343750
2665		31.250000
2666		27.343750
2667		31.250000
2668		27.343750
2669		31.250000
2670		31.250000
2671		33.203125
2672		31.250000
2673		35.156250
2674		31.250000
2675		35.156250
2676		33.203125
2677		37.109375
2678		35.156250
2679		37.109375
2680		35.156250
2681		39.062500
2682		35.156250
2683		39.062500
2684		37.109375
2685		41.015625
2686		37.109375
2687		41.015625
2688		39.062500
2689		42.968750
2690		39.062500
2691		42.968750
2692		41.015625
2693		42.968750
2694		41.015625
2695		44.921875
2696		41.015625
2697		44.921875
2698		42.968750
2699		44.921875
2700		42.968750
2701		46.875000
2702		44.921875
2703		46.875000
2704		44.921875
2705		46.875000
2706		44.921875
2707		48.828125
2708		44.921875
2709		48.828125
2710		46.875000
2711		48.828125
2712		46.875000
2713		50.781250
2714		46.875000
2715		50.781250
2716		46.875000
2717		50.781250
2718		48.828125
2719		50.781250
2720		48.828125
2721		50.781250
2722		48.828125
2723		52.734375
2724		50.781250
2725		52.734375
2726		50.781250
2727		52.734375
2728		50.781250
2729		52.734375
2730		50.781250
2731		54.687500
2732		50.781250
2733		54.687500
2734		50.781250
2735		54.687500
2736		52.734375
2737		54.687500
2738		52.734375
2739		54.687500
2740		52.734375
2741		56.640625
2742		52.734375
2743		56.640625
2744		52.734375
2745		54.687500
2746		52.734375
2747		56.640625
2748		52.734375
2749		56.640625
2750		52.734375
2751		56.640625
2752		52.734375
2753		56.640625
2754		52.734375
2755		54.687500
2756		52.734375
2757		56.640625
2758		52.734375
2759		54.687500
2760		52.734375
2761		56.640625
2762		52.734375
2763		56.640625
2764		52.734375
2765		54.687500
2766		52.734375
2767		54.687500
2768		50.781250
2769		56.640625
2770		52.734375
2771		54.687500
2772		50.781250
2773		54.687500
2774		50.781250
2775		54.687500
2776		50.781250
2777		54.687500
2778		50.781250
2779		52.734375
2780		50.781250
2781		52.734375
2782		50.781250
2783		52.734375
2784		48.828125
2785		52.734375
2786		48.828125
2787		52.734375
2788		48.828125
2789		50.781250
2790		46.875000
2791		52.734375
2792		46.875000
2793		50.781250
2794		46.875000
2795		50.781250
2796		46.875000
2797		48.828125
2798		44.921875
2799		48.828125
2800		44.921875
2801		48.828125
2802		44.921875
2803		46.875000
2804		44.921875
2805		46.875000
2806		42.968750
2807		46.875000
2808		42.968750
2809		44.921875
2810		41.015625
2811		44.921875
2812		41.015625
2813		44.921875
2814		41.015625
2815		42.968750
2816		39.062500
2817		42.968750
2818		37.109375
2819		41.015625
2820		37.109375
2821		41.015625
2822		37.109375
2823		39.062500
2824		35.156250
2825		39.062500
2826		35.156250
2827		39.062500
2828		33.203125
2829		37.109375
2830		33.203125
2831		35.156250
2832		31.250000
2833		35.156250
2834		31.250000
2835		35.156250
2836		29.296875
2837		33.203125
2838		29.296875
2839		31.250000
2840		27.343750
2841		31.250000
2842		25.390625
2843		29.296875
2844		25.390625
2845		29.296875
2846		23.437500
2847		27.343750
2848		23.437500
2849		27.343750
2850		21.484375
2851		25.390625
2852		21.484375
2853		25.390625
2854		19.531250
2855		23.437500
2856		17.578125
2857		21.484375
2858		17.578125
2859		21.484375
2860		15.625000
2861		19.531250
2862		15.625000
2863		17.578125
2864		13.671875
2865		17.578125
2866		13.671875
2867		15.625000
2868		11.718750
2869		15.625000
2870		11.718750
2871		13.671875
2872		9.765625
2873		11.718750
2874		7.812500
2875		11.718750
2876		5.859375
2877		9.765625
2878		5.859375
2879		9.765625
2880		3.906250
2881		7.812500
2882		3.906250
2883		5.859375
2884		1.953125
2885		5.859375
2886		0.000000
2887		3.906250
2888		0.000000
2889		1.953125
2890		-1.953125
2891		1.953125
2892		-1.953125
2893		0.000000
2894		-3.906250
2895		0.000000
2896		-3.906250
2897		-1.953125
2898		-5.859375
2899		-1.953125
2900		-7.812500
2901		-3.906250
2902		-9.765625
2903		-3.906250
2904		-9.765625
2905		-5.859375
2906		-9.765625
2907		-7.812500
2908		-11.718750
2909		-7.812500
2910		-11.718750
2911		-9.765625
2912		-13.671875
2913		-9.765625
2914		-15.625000
2915		-11.718750
2916		-15.625000
2917		-11.718750
2918		-15.625000
2919		-13.671875
2920		-17.578125
2921		-13.671875
2922		-17.578125
2923		-15.625000
2924		-19.531250
2925		-15.625000
2926		-19.531250
2927		-17.578125
2928		-21.484375
2929		-17.578125
2930		-21.484375
2931		-19.531250
2932		-23.437500
2933		-19.531250
2934		-23.437500
2935		-19.531250
2936		-25.390625
2937		-21.484375
2938		-25.390625
2939		-21.484375
2940		-27.343750
2941		-21.484375
2942		-25.390625
2943		-23.437500
2944		-27.343750
2945		-23.437500
2946		-27.343750
2947		-25.390625
2948		-29.296875
2949		-25.390625
2950		-29.296875
2951		-25.390625
2952		-29.296875
2953		-25.390625
2954		-29.296875
2955		-27.343750
2956		-29.296875
2957		-27.343750
2958		-31.250000
2959		-27.343750
2960		-31.250000
2961		-27.343750
2962		-31.250000
2963		-29.296875
2964		-31.250000
2965		-29.296875
2966		-33.203125
2967		-29.296875
2968		-33.203125
2969		-29.296875
2970		-33.203125
2971		-29.296875
2972		-33.203125
2973		-29.296875
2974		-35.156250
2975		-31.250000
2976		-33.203125
2977		-31.250000
2978		-33.203125
2979		-31.250000
2980		-33.203125
2981		-31.250000
2982		-33.203125
2983		-31.250000
2984		-35.156250
2985		-31.250000
2986		-35.156250
2987		-31.250000
2988		-33.203125
2989		-31.250000
2990		-33.203125
2991		-31.250000
2992		-35.156250
2993		-31.250000
2994		-33.203125
2995		-31.250000
2996		-33.203125
2997		-31.250000
2998		-33.203125
2999		-29.296875
3000		-33.203125
3001		-29.296875
3002		-33.203125
3003		-29.296875
3004		-33.203125
3005		-29.296875
3006		-33.203125
3007		-29.296875
3008		-33.203125
3009		-29.296875
3010		-31.250000
3011		-29.296875
3012		-31.250000
3013		-27.343750
3014		-31.250000
3015		-27.343750
3016		-31.250000
3017		-27.343750
3018		-31.250000
3019		-25.390625
3020		-29.296875
3021		-25.390625
3022		-29.296875
3023		-25.390625
3024		-27.343750
3025		-25.390625
3026		-27.343750
3027		-23.437500
3028		-27.343750
3029		-23.437500
3030		-27.343750
3031		-23.437500
3032		-25.390625
3033		-21.484375
3034		-25.390625
3035		-21.484375
3036		-25.390625
3037		-19.531250
3038		-23.437500
3039		-19.531250
3040		-21.484375
3041		-19.531250
3042		-21.484375
3043		-17.578125
3044		-21.484375
3045		-17.578125
3046		-19.531250
3047		-17.578125
3048		-19.531250
3049		-15.625000
3050		-17.578125
3051		-15.625000
3052		-17.578125
3053		-13.671875
3054		-17.578125
3055		-13.671875
3056		-15.625000
3057		-13.671875
3058		-15.625000
3059		-9.765625
3060		-13.671875
3061		-11.718750
3062		-13.671875
3063		-9.765625
3064		-11.718750
3065		-7.812500
3066		-9.765625
3067		-7.812500
3068		-9.765625
3069		-5.859375
3070		-9.765625
3071		-5.859375
3072		-7.812500
3073		-3.906250
3074		-5.859375
3075		-3.906250
3076		-5.859375
3077		-1.953125
3078		-3.906250
3079		0.000000
3080		-3.906250
3081		0.000000
3082		-1.953125
3083		1.953125
3084		-1.953125
3085		1.953125
3086		0.000000
3087		3.906250
3088		0.000000
3089		3.906250
3090		1.953125
3091		5.859375
3092		3.906250
3093		7.812500
3094		3.906250
3095		7.812500
3096		5.859375
3097		9.765625
3098		7.812500
3099		9.765625
3100		7.812500
3101		11.718750
3102		9.765625
3103		11.718750
3104		9.765625
3105		13.671875
3106		11.718750
3107		13.671875
3108		13.671875
3109		15.625000
3110		13.671875
3111		17.578125
3112		15.625000
3113		17.578125
3114		15.625000
3115		19.531250
3116		17.578125
3117		21.484375
3118		17.578125
3119		21.484375
3120		19.531250
3121		23.437500
3122		21.484375
3123		23.437500
3124		21.484375
3125		23.437500
3126		21.484375
3127		25.390625
3128		23.437500
3129		27.343750
3130		25.390625
3131		27.343750
3132		25.390625
3133		29.296875
3134		27.343750
3135		29.296875
3136		27.343750
3137		31.250000
3138		27.343750
3139		31.250000
3140		29.296875
3141		33.203125
3142		31.250000
3143		35.156250
3144		31.250000
3145		35.156250
3146		33.203125
3147		35.156250
3148		33.203125
3149		37.109375
3150		35.156250
3151		37.109375
3152		35.156250
3153		39.062500
3154		37.109375
3155		41.015625
3156		37.109375
3157		41.015625
3158		39.062500
3159		41.015625
3160		39.062500
3161		42.968750
3162		39.062500
3163		42.968750
3164		41.015625
3165		42.968750
3166		41.015625
3167		44.921875
3168		41.015625
3169		44.921875
3170		42.968750
3171		46.875000
3172		42.968750
3173		46.875000
3174		44.921875
3175		46.875000
3176		44.921875
3177		46.875000
3178		44.921875
3179		48.828125
3180		44.921875
3181		48.828125
3182		46.875000
3183		48.828125
3184		46.875000
3185		50.781250
3186		48.828125
3187		50.781250
3188		48.828125
3189		50.781250
3190		48.828125
3191		50.781250
3192		48.828125
3193		52.734375
3194		48.828125
3195		52.734375
3196		50.781250
3197		52.734375
3198		50.781250
3199		54.687500
3200		50.781250
3201		52.734375
3202		50.781250
3203		54.687500
3204		50.781250
3205		54.687500
3206		52.734375
3207		54.687500
3208		52.734375
3209		54.687500
3210		50.781250
3211		54.687500
3212		52.734375
3213		56.640625
3214		52.734375
3215		54.687500
3216		52.734375
3217		56.640625
3218		52.734375
3219		54.687500
3220		52.734375
3221		56.640625
3222		52.734375
3223		56.640625
3224		52.734375
3225		54.687500
3226		52.734375
3227		56.640625
3228		52.734375
3229		54.687500
3230		52.734375
3231		56.640625
3232		52.734375
3233		54.687500
3234		52.734375
3235		54.687500
3236		52.734375
3237		54.687500
3238		50.781250
3239		56.640625
3240		52.734375
3241		54.687500
3242		52.734375
3243		54.687500
3244		50.781250
3245		54.687500
3246		50.781250
3247		54.687500
3248		50.781250
3249		54.687500
3250		50.781250
3251		54.687500
3252		50.781250
3253		52.734375
3254		50.781250
3255		52.734375
3256		48.828125
3257		52.734375
3258		48.828125
3259		50.781250
3260		46.875000
3261		50.781250
3262		48.828125
3263		50.781250
3264		46.875000
3265		50.781250
3266		46.875000
3267		50.781250
3268		46.875000
3269		50.781250
3270		46.875000
3271		48.828125
3272		44.921875
3273		48.828125
3274		44.921875
3275		46.875000
3276		44.921875
3277		46.875000
3278		42.968750
3279		46.875000
3280		42.968750
3281		44.921875
3282		41.015625
3283		44.921875
3284		41.015625
3285		44.921875
3286		41.015625
3287		42.968750
3288		39.062500
3289		42.968750
3290		39.062500
3291		41.015625
3292		37.109375
3293		41.015625
3294		37.109375
3295		41.015625
3296		35.156250
3297		39.062500
3298		35.156250
3299		39.062500
3300		33.203125
3301		37.109375
3302		33.203125
3303		35.156250
3304		31.250000
3305		35.156250
3306		31.250000
3307		35.156250
3308		29.296875
3309		33.203125
3310		29.296875
3311		31.250000
3312		27.343750
3313		31.250000
3314		27.343750
3315		29.296875
3316		25.390625
3317		29.296875
3318		25.390625
3319		27.343750
3320		23.437500
3321		25.390625
3322		21.484375
3323		25.390625
3324		21.484375
3325		23.437500
3326		19.531250
3327		23.437500
3328		17.578125
3329		23.437500
3330		17.578125
3331		21.484375
3332		15.625000
3333		19.531250
3334		15.625000
3335		17.578125
3336		13.671875
3337		17.578125
3338		13.671875
3339		17.578125
3340		11.718750
3341		15.625000
3342		11.718750
3343		13.671875
3344		7.812500
3345		11.718750
3346		7.812500
3347		11.718750
3348		5.859375
3349		9.765625
3350		5.859375
3351		9.765625
3352		3.906250
3353		7.812500
3354		3.906250
3355		5.859375
3356		1.953125
3357		5.859375
3358		1.953125
3359		3.906250
3360		0.000000
3361		3.906250
3362		-1.953125
3363		1.953125
3364		-1.953125
3365		1.953125
3366		-3.906250
3367		0.000000
3368		-3.906250
3369		-1.953125
3370		-5.859375
3371		-1.953125
3372		-7.812500
3373		-3.906250
3374		-7.812500
3375		-3.906250
3376		-9.765625
3377		-5.859375
3378		-9.765625
3379		-7.812500
3380		-11.718750
3381		-7.812500
3382		-11.718750
3383		-9.765625
3384		-13.671875
3385		-9.765625
3386		-13.671875
3387		-11.718750
3388		-15.625000
3389		-11.718750
3390		-17.578125
3391		-11.718750
3392		-17.578125
3393		-13.671875
3394		-19.531250
3395		-15.625000
3396		-19.531250
3397		-15.625000
3398		-19.531250
3399		-17.578125
3400		-21.484375
3401		-17.578125
3402		-21.484375
3403		-17.578125
3404		-23.437500
3405		-19.531250
3406		-23.437500
3407		-19.531250
3408		-23.437500
3409		-21.484375
3410		-25.390625
3411		-21.484375
3412		-25.390625
3413		-21.484375
3414		-25.390625
3415		-23.437500
3416		-27.343750
3417		-23.437500
3418		-27.343750
3419		-23.437500
3420		-27.343750
3421		-25.390625
3422		-29.296875
3423		-25.390625
3424		-29.296875
3425		-25.390625
3426		-29.296875
3427		-27.343750
3428		-31.250000
3429		-27.343750
3430		-31.250000
3431		-27.343750
3432		-31.250000
3433		-27.343750
3434		-31.250000
3435		-29.296875
3436		-31.250000
3437		-29.296875
3438		-33.203125
3439		-29.296875
3440		-33.203125
3441		-29.296875
3442		-33.203125
3443		-29.296875
3444		-33.203125
3445		-29.296875
3446		-33.203125
3447		-29.296875
3448		-33.203125
3449		-29.296875
3450		-33.203125
3451		-31.250000
3452		-33.203125
3453		-31.250000
3454		-33.203125
3455		-31.250000
3456		-33.203125
3457		-29.296875
3458		-35.156250
3459		-29.296875
3460		-33.203125
3461		-31.250000
3462		-33.203125
3463		-31.250000
3464		-33.203125
3465		-31.250000
3466		-33.203125
3467		-31.250000
3468		-33.203125
3469		-31.250000
3470		-33.203125
3471		-29.296875
3472		-33.203125
3473		-29.296875
3474		-31.250000
3475		-29.296875
3476		-31.250000
3477		-29.296875
3478		-31.250000
3479		-29.296875
3480		-31.250000
3481		-29.296875
3482		-31.250000
3483		-27.343750
3484		-31.250000
3485		-27.343750
3486		-29.296875
3487		-27.343750
3488		-29.296875
3489		-27.343750
3490		-29.296875
3491		-25.390625
3492		-29.296875
3493		-25.390625
3494		-27.343750
3495		-25.390625
3496		-29.296875
3497		-23.437500
3498		-27.343750
3499		-23.437500
3500		-27.343750
3501		-23.437500
3502		-25.390625
3503		-23.437500
3504		-25.390625
3505		-21.484375
3506		-23.437500
3507		-21.484375
3508		-25.390625
3509		-19.531250
3510		-23.437500
3511		-19.531250
3512		-21.484375
3513		-17.578125
3514		-21.484375
3515		-17.578125
3516		-19.531250
3517		-17.578125
3518		-19.531250
3519		-15.625000
3520		-19.531250
3521		-15.625000
3522		-17.578125
3523		-13.671875
3524		-17.578125
3525		-13.671875
3526		-15.625000
3527		-13.671875
3528		-15.625000
3529		-11.718750
3530		-13.671875
3531		-11.718750
3532		-13.671875
3533		-9.765625
3534		-11.718750
3535		-7.812500
3536		-11.718750
3537		-7.812500
3538		-9.765625
3539		-5.859375
3540		-9.765625
3541		-5.859375
3542		-7.812500
3543		-3.906250
3544		-7.812500
3545		-3.906250
3546		-5.859375
3547		-1.953125
3548		-5.859375
3549		-1.953125
3550		-3.906250
3551		0.000000
3552		-1.953125
3553		0.000000
3554		-1.953125
3555		1.953125
3556		0.000000
3557		3.906250
3558		0.000000
3559		3.906250
3560		1.953125
3561		5.859375
3562		3.906250
3563		7.812500
3564		3.906250
3565		7.812500
3566		5.859375
3567		7.812500
3568		5.859375
3569		9.765625
3570		7.812500
3571		9.765625
3572		7.812500
3573		11.718750
3574		9.765625
3575		13.671875
3576		11.718750
3577		13.671875
3578		11.718750
3579		15.625000
3580		13.671875
3581		15.625000
3582		13.671875
3583		17.578125
3584		15.625000
3585		19.531250
3586		17.578125
3587		19.531250
3588		17.578125
3589		21.484375
3590		17.578125
3591		23.437500
3592		19.531250
3593		23.437500
3594		21.484375
3595		23.437500
3596		21.484375
3597		25.390625
3598		23.437500
3599		27.343750
3600		23.437500
3601		27.343750
3602		25.390625
3603		27.343750
3604		25.390625
3605		29.296875
3606		27.343750
3607		31.250000
3608		27.343750
3609		31.250000
3610		29.296875
3611		33.203125
3612		31.250000
3613		33.203125
3614		31.250000
3615		35.156250
3616		33.203125
3617		35.156250
3618		33.203125
3619		37.109375
3620		35.156250
3621		37.109375
3622		35.156250
3623		37.109375
3624		35.156250
3625		39.062500
3626		37.109375
3627		39.062500
3628		37.109375
3629		41.015625
3630		37.109375
3631		41.015625
3632		39.062500
3633		42.968750
3634		39.062500
3635		42.968750
3636		41.015625
3637		44.921875
3638		41.015625
3639		44.921875
3640		41.015625
3641		46.875000
3642		42.968750
3643		46.875000
3644		44.921875
3645		46.875000
3646		44.921875
3647		46.875000
3648		44.921875
3649		48.828125
3650		44.921875
3651		48.828125
3652		44.921875
3653		50.781250
3654		46.875000
3655		50.781250
3656		46.875000
3657		50.781250
3658		46.875000
3659		50.781250
3660		48.828125
3661		50.781250
3662		48.828125
3663		50.781250
3664		48.828125
3665		52.734375
3666		48.828125
3667		52.734375
3668		48.828125
3669		52.734375
3670		50.781250
3671		54.687500
3672		50.781250
3673		54.687500
3674		50.781250
3675		54.687500
3676		52.734375
3677		54.687500
3678		52.734375
3679		54.687500
3680		52.734375
3681		54.687500
3682		52.734375
3683		54.687500
3684		52.734375
3685		54.687500
3686		52.734375
3687		54.687500
3688		52.734375
3689		56.640625
3690		52.734375
3691		56.640625
3692		52.734375
3693		56.640625
3694		52.734375
3695		56.640625
3696		52.734375
3697		56.640625
3698		52.734375
3699		56.640625
3700		52.734375
3701		56.640625
3702		52.734375
3703		56.640625
3704		52.734375
3705		56.640625
3706		52.734375
3707		56.640625
3708		52.734375
3709		56.640625
3710		50.781250
3711		56.640625
3712		52.734375
3713		54.687500
3714		50.781250
3715		54.687500
3716		52.734375
3717		54.687500
3718		52.734375
3719		54.687500
3720		50.781250
3721		54.687500
3722		50.781250
3723		54.687500
3724		50.781250
3725		52.734375
3726		48.828125
3727		52.734375
3728		50.781250
3729		52.734375
3730		48.828125
3731		50.781250
3732		48.828125
3733		50.781250
3734		48.828125
3735		50.781250
3736		46.875000
3737		50.781250
3738		46.875000
3739		50.781250
3740		46.875000
3741		48.828125
3742		46.875000
3743		48.828125
3744		44.921875
3745		48.828125
3746		44.921875
3747		46.875000
3748		42.968750
3749		46.875000
3750		42.968750
3751		46.875000
3752		42.968750
3753		44.921875
3754		41.015625
3755		44.921875
3756		41.015625
3757		44.921875
3758		39.062500
3759		42.968750
3760		39.062500
3761		42.968750
3762		39.062500
3763		41.015625
3764		37.109375
3765		41.015625
3766		37.109375
3767		39.062500
3768		35.156250
3769		39.062500
3770		35.156250
3771		37.109375
3772		33.203125
3773		37.109375
3774		33.203125
3775		37.109375
3776		31.250000
3777		35.156250
3778		31.250000
3779		33.203125
3780		29.296875
3781		33.203125
3782		27.343750
3783		33.203125
3784		27.343750
3785		31.250000
3786		27.343750
3787		29.296875
3788		25.390625
3789		29.296875
3790		23.437500
3791		27.343750
3792		23.437500
3793		27.343750
3794		21.484375
3795		25.390625
3796		21.484375
3797		23.437500
3798		19.531250
3799		23.437500
3800		17.578125
3801		21.484375
3802		17.578125
3803		21.484375
3804		15.625000
3805		19.531250
3806		15.625000
3807		17.578125
3808		13.671875
3809		17.578125
3810		11.718750
3811		15.625000
3812		11.718750
3813		15.625000
3814		9.765625
3815		13.671875
3816		9.765625
3817		13.671875
3818		7.812500
3819		11.718750
3820		5.859375
3821		9.765625
3822		5.859375
3823		9.765625
3824		3.906250
3825		7.812500
3826		1.953125
3827		7.812500
3828		1.953125
3829		5.859375
3830		0.000000
3831		3.906250
3832		0.000000
3833		3.906250
3834		-1.953125
3835		1.953125
3836		-1.953125
3837		0.000000
3838		-3.906250
3839		0.000000
3840		-5.859375
3841		-1.953125
3842		-5.859375
3843		-1.953125
3844		-7.812500
3845		-3.906250
3846		-7.812500
3847		-5.859375
3848		-9.765625
3849		-5.859375
3850		-9.765625
3851		-7.812500
3852		-11.718750
3853		-7.812500
3854		-11.718750
3855		-9.765625
3856		-13.671875
3857		-9.765625
3858		-13.671875
3859		-9.765625
3860		-15.625000
3861		-11.718750
3862		-15.625000
3863		-13.671875
3864		-17.578125
3865		-13.671875
3866		-19.531250
3867		-13.671875
3868		-19.531250
3869		-15.625000
3870		-19.531250
3871		-15.625000
3872		-21.484375
3873		-17.578125
3874		-21.484375
3875		-17.578125
3876		-23.437500
3877		-19.531250
3878		-23.437500
3879		-19.531250
3880		-23.437500
3881		-21.484375
3882		-25.390625
3883		-21.484375
3884		-25.390625
3885		-23.437500
3886		-25.390625
3887		-23.437500
3888		-27.343750
3889		-23.437500
3890		-27.343750
3891		-23.437500
3892		-27.343750
3893		-25.390625
3894		-29.296875
3895		-25.390625
3896		-29.296875
3897		-27.343750
3898		-29.296875
3899		-27.343750
3900		-31.250000
3901		-27.343750
3902		-31.250000
3903		-27.343750
3904		-31.250000
3905		-27.343750
3906		-31.250000
3907		-29.296875
3908		-33.203125
3909		-29.296875
3910		-33.203125
3911		-29.296875
3912		-33.203125
3913		-29.296875
3914		-33.203125
3915		-29.296875
3916		-33.203125
3917		-29.296875
3918		-33.203125
3919		-29.296875
3920		-33.203125
3921		-29.296875
3922		-33.203125
3923		-29.296875
3924		-33.203125
3925		-31.250000
3926		-33.203125
3927		-29.296875
3928		-33.203125
3929		-31.250000
3930		-33.203125
3931		-31.250000
3932		-33.203125
3933		-29.296875
3934		-33.203125
3935		-31.250000
3936		-33.203125
3937		-29.296875
3938		-33.203125
3939		-29.296875
3940		-33.203125
3941		-29.296875
3942		-33.203125
3943		-29.296875
3944		-33.203125
3945		-29.296875
3946		-31.250000
3947		-29.296875
3948		-31.250000
3949		-29.296875
3950		-31.250000
3951		-27.343750
3952		-31.250000
3953		-27.343750
3954		-31.250000
3955		-27.343750
3956		-29.296875
3957		-27.343750
3958		-31.250000
3959		-27.343750
3960		-29.296875
3961		-25.390625
3962		-29.296875
3963		-25.390625
3964		-27.343750
3965		-25.390625
3966		-29.296875
3967		-23.437500
3968		-27.343750
3969		-23.437500
3970		-27.343750
3971		-23.437500
3972		-25.390625
3973		-23.437500
3974		-25.390625
3975		-21.484375
3976		-25.390625
3977		-21.484375
3978		-23.437500
3979		-21.484375
3980		-23.437500
3981		-19.531250
3982		-21.484375
3983		-19.531250
3984		-21.484375
3985		-17.578125
3986		-21.484375
3987		-17.578125
3988		-19.531250
3989		-17.578125
3990		-19.531250
3991		-15.625000
3992		-19.531250
3993		-15.625000
3994		-17.578125
3995		-13.671875
3996		-17.578125
3997		-13.671875
3998		-15.625000
3999		-13.671875
4000		-13.671875
4001		-11.718750
4002		-13.671875
4003		-9.765625
4004		-11.718750
4005		-9.765625
4006		-11.718750
4007		-7.812500
4008		-9.765625
4009		-7.812500
4010		-9.765625
4011		-5.859375
4012		-9.765625
4013		-5.859375
4014		-7.812500
4015		-3.906250
4016		-5.859375
4017		-1.953125
4018		-5.859375
4019		-1.953125
4020		-3.906250
4021		-1.953125
4022		-3.906250
4023		0.000000
4024		-1.953125
4025		1.953125
4026		-1.953125
4027		1.953125
4028		0.000000
4029		3.906250
4030		1.953125
4031		3.906250
4032		1.953125
4033		5.859375
4034		3.906250
4035		7.812500
4036		3.906250
4037		7.812500
4038		5.859375
4039		9.765625
4040		5.859375
4041		9.765625
4042		7.812500
4043		11.718750
4044		9.765625
4045		13.671875
4046		9.765625
4047		13.671875
4048		11.718750
4049		13.671875
4050		11.718750
4051		17.578125
4052		13.671875
4053		17.578125
4054		13.671875
4055		17.578125
4056		15.625000
4057		19.531250
4058		15.625000
4059		21.484375
4060		17.578125
4061		21.484375
4062		17.578125
4063		23.437500
4064		21.484375
4065		23.437500
4066		21.484375
4067		23.437500
4068		21.484375
4069		27.343750
4070		23.437500
4071		27.343750
4072		23.437500
4073		29.296875
4074		25.390625
4075		29.296875
4076		27.343750
4077		31.250000
4078		27.343750
4079		31.250000
4080		27.343750
4081		33.203125
4082		29.296875
4083		33.203125
4084		31.250000
4085		35.156250
4086		31.250000
4087		37.109375
4088		31.250000
4089		37.109375
4090		33.203125
4091		37.109375
4092		33.203125
4093		39.062500
4094		35.156250
4095		39.062500
4096		35.156250
4097		41.015625
4098		37.109375
4099		39.062500
4100		37.109375
4101		41.015625
4102		39.062500
4103		42.968750
4104		39.062500
4105		42.968750
4106		41.015625
4107		44.921875
4108		41.015625
4109		44.921875
4110		41.015625
4111		46.875000
4112		42.968750
4113		46.875000
4114		42.968750
4115		46.875000
4116		44.921875
4117		46.875000
4118		42.968750
4119		48.828125
4120		44.921875
4121		48.828125
4122		44.921875
4123		50.781250
4124		46.875000
4125		50.781250
4126		46.875000
4127		50.781250
4128		46.875000
4129		50.781250
4130		46.875000
4131		52.734375
4132		48.828125
4133		50.781250
4134		48.828125
4135		52.734375
4136		48.828125
4137		52.734375
4138		48.828125
4139		54.687500
4140		50.781250
4141		54.687500
4142		50.781250
4143		54.687500
4144		50.781250
4145		54.687500
4146		50.781250
4147		54.687500
4148		52.734375
4149		54.687500
4150		52.734375
4151		54.687500
4152		52.734375
4153		54.687500
4154		52.734375
4155		54.687500
4156		52.734375
4157		54.687500
4158		52.734375
4159		54.687500
4160		52.734375
4161		54.687500
4162		52.734375
4163		54.687500
4164		52.734375
4165		56.640625
4166		52.734375
4167		56.640625
4168		52.734375
4169		56.640625
4170		52.734375
4171		56.640625
4172		54.687500
4173		54.687500
4174		52.734375
4175		56.640625
4176		52.734375
4177		54.687500
4178		52.734375
4179		54.687500
4180		52.734375
4181		54.687500
4182		52.734375
4183		54.687500
4184		52.734375
4185		54.687500
4186		52.734375
4187		54.687500
4188		52.734375
4189		54.687500
4190		52.734375
4191		54.687500
4192		50.781250
4193		54.687500
4194		50.781250
4195		52.734375
4196		50.781250
4197		52.734375
4198		50.781250
4199		52.734375
4200		50.781250
4201		52.734375
4202		48.828125
4203		50.781250
4204		48.828125
4205		50.781250
4206		48.828125
4207		50.781250
4208		48.828125
4209		50.781250
4210		46.875000
4211		50.781250
4212		46.875000
4213		48.828125
4214		46.875000
4215		48.828125
4216		44.921875
4217		46.875000
4218		44.921875
4219		46.875000
4220		42.968750
4221		46.875000
4222		42.968750
4223		46.875000
4224		42.968750
4225		44.921875
4226		41.015625
4227		44.921875
4228		41.015625
4229		42.968750
4230		41.015625
4231		42.968750
4232		39.062500
4233		41.015625
4234		39.062500
4235		41.015625
4236		37.109375
4237		39.062500
4238		37.109375
4239		39.062500
4240		35.156250
4241		39.062500
4242		35.156250
4243		37.109375
4244		33.203125
4245		37.109375
4246		33.203125
4247		35.156250
4248		31.250000
4249		35.156250
4250		31.250000
4251		33.203125
4252		27.343750
4253		35.156250
4254		25.390625
4255		33.203125
4256		23.437500
4257		33.203125
4258		27.343750
4259		29.296875
4260		25.390625
4261		27.343750
4262		23.437500
4263		27.343750
4264		23.437500
4265		25.390625
4266		21.484375
4267		25.390625
4268		21.484375
4269		23.437500
4270		17.578125
4271		25.390625
4272		15.625000
4273		25.390625
4274		15.625000
4275		23.437500
4276		15.625000
4277		19.531250
4278		15.625000
4279		17.578125
4280		13.671875
4281		15.625000
4282		13.671875
4283		15.625000
4284		11.718750
4285		13.671875
4286		7.812500
4287		15.625000
4288		5.859375
4289		15.625000
4290		3.906250
4291		13.671875
4292		7.812500
4293		9.765625
4294		5.859375
4295		7.812500
4296		3.906250
4297		7.812500
4298		3.906250
4299		5.859375
4300		1.953125
4301		5.859375
4302		-1.953125
4303		5.859375
4304		-3.906250
4305		5.859375
4306		-3.906250
4307		5.859375
4308		-3.906250
4309		3.906250
4310		-3.906250
4311		0.000000
4312		-3.906250
4313		-1.953125
4314		-5.859375
4315		-1.953125
4316		-5.859375
4317		-3.906250
4318		-7.812500
4319		-5.859375
4320		-11.718750
4321		-3.906250
4322		-11.718750
4323		-3.906250
4324		-15.625000
4325		-5.859375
4326		-11.718750
4327		-9.765625
4328		-13.671875
4329		-9.765625
4330		-13.671875
4331		-11.718750
4332		-15.625000
4333		-13.671875
4334		-15.625000
4335		-13.671875
4336		-19.531250
4337		-11.718750
4338		-21.484375
4339		-11.718750
4340		-21.484375
4341		-13.671875
4342		-23.437500
4343		-13.671875
4344		-19.531250
4345		-17.578125
4346		-21.484375
4347		-19.531250
4348		-21.484375
4349		-19.531250
4350		-23.437500
4351		-19.531250
4352		-23.437500
4353		-21.484375
4354		-27.343750
4355		-17.578125
4356		-27.343750
4357		-19.531250
4358		-29.296875
4359		-19.531250
4360		-27.343750
4361		-23.437500
4362		-27.343750
4363		-25.390625
4364		-27.343750
4365		-25.390625
4366		-27.343750
4367		-25.390625
4368		-29.296875
4369		-27.343750
4370		-33.203125
4371		-23.437500
4372		-33.203125
4373		-23.437500
4374		-33.203125
4375		-25.390625
4376		-31.250000
4377		-27.343750
4378		-31.250000
4379		-29.296875
4380		-31.250000
4381		-29.296875
4382		-31.250000
4383		-29.296875
4384		-31.250000
4385		-29.296875
4386		-35.156250
4387		-27.343750
4388		-35.156250
4389		-27.343750
4390		-35.156250
4391		-27.343750
4392		-35.156250
4393		-27.343750
4394		-33.203125
4395		-31.250000
4396		-33.203125
4397		-31.250000
4398		-33.203125
4399		-31.250000
4400		-33.203125
4401		-31.250000
4402		-33.203125
4403		-31.250000
4404		-35.156250
4405		-27.343750
4406		-35.156250
4407		-27.343750
4408		-35.156250
4409		-27.343750
4410		-33.203125
4411		-31.250000
4412		-31.250000
4413		-29.296875
4414		-31.250000
4415		-29.296875
4416		-31.250000
4417		-29.296875
4418		-31.250000
4419		-29.296875
4420		-35.156250
4421		-25.390625
4422		-33.203125
4423		-25.390625
4424		-33.203125
4425		-25.390625
4426		-33.203125
4427		-25.390625
4428		-29.296875
4429		-27.343750
4430		-29.296875
4431		-27.343750
4432		-29.296875
4433		-27.343750
4434		-29.296875
4435		-25.390625
4436		-27.343750
4437		-25.390625
4438		-27.343750
4439		-25.390625
4440		-29.296875
4441		-21.484375
4442		-27.343750
4443		-21.484375
4444		-25.390625
4445		-23.437500
4446		-25.390625
4447		-21.484375
4448		-23.437500
4449		-21.484375
4450		-23.437500
4451		-21.484375
4452		-23.437500
4453		-19.531250
4454		-21.484375
4455		-19.531250
4456		-23.437500
4457		-15.625000
4458		-21.484375
4459		-15.625000
4460		-19.531250
4461		-17.578125
4462		-17.578125
4463		-15.625000
4464		-17.578125
4465		-15.625000
4466		-15.625000
4467		-13.671875
4468		-15.625000
4469		-13.671875
4470		-15.625000
4471		-11.718750
4472		-15.625000
4473		-9.765625
4474		-13.671875
4475		-7.812500
4476		-11.718750
4477		-9.765625
4478		-11.718750
4479		-7.812500
4480		-9.765625
4481		-7.812500
4482		-9.765625
4483		-5.859375
4484		-7.812500
4485		-5.859375
4486		-5.859375
4487		-3.906250
4488		-5.859375
4489		-1.953125
4490		-3.906250
4491		-1.953125
4492		-3.906250
4493		0.000000
4494		-1.953125
4495		0.000000
4496		-1.953125
4497		1.953125
4498		0.000000
4499		3.906250
4500		0.000000
4501		3.906250
4502		1.953125
4503		5.859375
4504		3.906250
4505		5.859375
4506		3.906250
4507		7.812500
4508		5.859375
4509		7.812500
4510		5.859375
4511		9.765625
4512		7.812500
4513		9.765625
4514		9.765625
4515		11.718750
4516		9.765625
4517		13.671875
4518		11.718750
4519		13.671875
4520		11.718750
4521		15.625000
4522		13.671875
4523		15.625000
4524		13.671875
4525		17.578125
4526		15.625000
4527		17.578125
4528		17.578125
4529		19.531250
4530		17.578125
4531		21.484375
4532		19.531250
4533		21.484375
4534		19.531250
4535		23.437500
4536		21.484375
4537		23.437500
4538		21.484375
4539		25.390625
4540		23.437500
4541		27.343750
4542		25.390625
4543		27.343750
4544		25.390625
4545		29.296875
4546		25.390625
4547		29.296875
4548		27.343750
4549		31.250000
4550		29.296875
4551		31.250000
4552		29.296875
4553		33.203125
4554		31.250000
4555		33.203125
4556		31.250000
4557		35.156250
4558		33.203125
4559		35.156250
4560		33.203125
4561		37.109375
4562		33.203125
4563		37.109375
4564		35.156250
4565		39.062500
4566		37.109375
4567		39.062500
4568		37.109375
4569		39.062500
4570		39.062500
4571		41.015625
4572		39.062500
4573		41.015625
4574		39.062500
4575		42.968750
4576		41.015625
4577		42.968750
4578		41.015625
4579		44.921875
4580		41.015625
4581		44.921875
4582		42.968750
4583		44.921875
4584		42.968750
4585		46.875000
4586		44.921875
4587		46.875000
4588		44.921875
4589		48.828125
4590		44.921875
4591		48.828125
4592		46.875000
4593		48.828125
4594		46.875000
4595		50.781250
4596		46.875000
4597		50.781250
4598		48.828125
4599		50.781250
4600		48.828125
4601		50.781250
4602		48.828125
4603		50.781250
4604		48.828125
4605		52.734375
4606		46.875000
4607		54.687500
4608		50.781250
4609		52.734375
4610		50.781250
4611		52.734375
4612		50.781250
4613		54.687500
4614		50.781250
4615		54.687500
4616		52.734375
4617		54.687500
4618		52.734375
4619		54.687500
4620		52.734375
4621		54.687500
4622		50.781250
4623		56.640625
4624		52.734375
4625		56.640625
4626		52.734375
4627		54.687500
4628		52.734375
4629		56.640625
4630		52.734375
4631		56.640625
4632		54.687500
4633		56.640625
4634		54.687500
4635		56.640625
4636		54.687500
4637		56.640625
4638		52.734375
4639		56.640625
4640		52.734375
4641		56.640625
4642		54.687500
4643		56.640625
4644		54.687500
4645		56.640625
4646		52.734375
4647		56.640625
4648		52.734375
4649		56.640625
4650		52.734375
4651		54.687500
4652		52.734375
4653		54.687500
4654		52.734375
4655		54.687500
4656		50.781250
4657		56.640625
4658		52.734375
4659		54.687500
4660		52.734375
4661		54.687500
4662		50.781250
4663		54.687500
4664		50.781250
4665		54.687500
4666		50.781250
4667		54.687500
4668		50.781250
4669		52.734375
4670		50.781250
4671		52.734375
4672		46.875000
4673		54.687500
4674		48.828125
4675		52.734375
4676		48.828125
4677		50.781250
4678		46.875000
4679		50.781250
4680		46.875000
4681		50.781250
4682		46.875000
4683		48.828125
4684		46.875000
4685		48.828125
4686		46.875000
4687		48.828125
4688		44.921875
4689		48.828125
4690		42.968750
4691		48.828125
4692		42.968750
4693		46.875000
4694		42.968750
4695		44.921875
4696		41.015625
4697		44.921875
4698		41.015625
4699		44.921875
4700		41.015625
4701		42.968750
4702		41.015625
4703		42.968750
4704		39.062500
4705		41.015625
4706		37.109375
4707		41.015625
4708		37.109375
4709		41.015625
4710		37.109375
4711		39.062500
4712		35.156250
4713		39.062500
4714		33.203125
4715		37.109375
4716		33.203125
4717		37.109375
4718		33.203125
4719		35.156250
4720		31.250000
4721		35.156250
4722		29.296875
4723		33.203125
4724		29.296875
4725		33.203125
4726		29.296875
4727		31.250000
4728		27.343750
4729		29.296875
4730		25.390625
4731		29.296875
4732		25.390625
4733		29.296875
4734		23.437500
4735		27.343750
4736		23.437500
4737		25.390625
4738		21.484375
4739		25.390625
4740		21.484375
4741		23.437500
4742		19.531250
4743		21.484375
4744		17.578125
4745		21.484375
4746		17.578125
4747		19.531250
4748		15.625000
4749		19.531250
4750		15.625000
4751		17.578125
4752		13.671875
4753		17.578125
4754		11.718750
4755		15.625000
4756		11.718750
4757		13.671875
4758		9.765625
4759		13.671875
4760		9.765625
4761		11.718750
4762		7.812500
4763		9.765625
4764		7.812500
4765		9.765625
4766		5.859375
4767		7.812500
4768		3.906250
4769		7.812500
4770		3.906250
4771		5.859375
4772		1.953125
4773		3.906250
4774		0.000000
4775		3.906250
4776		0.000000
4777		1.953125
4778		-1.953125
4779		1.953125
4780		-1.953125
4781		0.000000
4782		-3.906250
4783		0.000000
4784		-5.859375
4785		-1.953125
4786		-5.859375
4787		-3.906250
4788		-7.812500
4789		-3.906250
4790		-7.812500
4791		-5.859375
4792		-9.765625
4793		-5.859375
4794		-9.765625
4795		-7.812500
4796		-11.718750
4797		-7.812500
4798		-11.718750
4799		-9.765625
4800		-13.671875
4801		-9.765625
4802		-13.671875
4803		-11.718750
4804		-15.625000
4805		-11.718750
4806		-15.625000
4807		-13.671875
4808		-17.578125
4809		-13.671875
4810		-17.578125
4811		-15.625000
4812		-19.531250
4813		-15.625000
4814		-19.531250
4815		-17.578125
4816		-21.484375
4817		-17.578125
4818		-21.484375
4819		-19.531250
4820		-21.484375
4821		-19.531250
4822		-23.437500
4823		-19.531250
4824		-23.437500
4825		-21.484375
4826		-23.437500
4827		-21.484375
4828		-25.390625
4829		-23.437500
4830		-25.390625
4831		-23.437500
4832		-25.390625
4833		-23.437500
4834		-27.343750
4835		-25.390625
4836		-27.343750
4837		-25.390625
4838		-27.343750
4839		-25.390625
4840		-29.296875
4841		-25.390625
4842		-29.296875
4843		-27.343750
4844		-29.296875
4845		-27.343750
4846		-29.296875
4847		-27.343750
4848		-29.296875
4849		-27.343750
4850		-31.250000
4851		-27.343750
4852		-31.250000
4853		-29.296875
4854		-31.250000
4855		-29.296875
4856		-31.250000
4857		-29.296875
4858		-31.250000
4859		-29.296875
4860		-31.250000
4861		-29.296875
4862		-31.250000
4863		-29.296875
4864		-31.250000
4865		-29.296875
4866		-33.203125
4867		-29.296875
4868		-33.203125
4869		-31.250000
4870		-33.203125
4871		-29.296875
4872		-33.203125
4873		-31.250000
4874		-33.203125
4875		-29.296875
4876		-33.203125
4877		-29.296875
4878		-33.203125
4879		-31.250000
4880		-33.203125
4881		-29.296875
4882		-33.203125
4883		-29.296875
4884		-31.250000
4885		-29.296875
4886		-31.250000
4887		-29.296875
4888		-31.250000
4889		-29.296875
4890		-33.203125
4891		-27.343750
4892		-33.203125
4893		-27.343750
4894		-31.250000
4895		-27.343750
4896		-29.296875
4897		-27.343750
4898		-29.296875
4899		-27.343750
4900		-29.296875
4901		-27.343750
4902		-29.296875
4903		-27.343750
4904		-29.296875
4905		-25.390625
4906		-27.343750
4907		-25.390625
4908		-29.296875
4909		-23.437500
4910		-27.343750
4911		-23.437500
4912		-25.390625
4913		-23.437500
4914		-25.390625
4915		-23.437500
4916		-25.390625
4917		-21.484375
4918		-23.437500
4919		-21.484375
4920		-23.437500
4921		-21.484375
4922		-23.437500
4923		-19.531250
4924		-23.437500
4925		-17.578125
4926		-23.437500
4927		-17.578125
4928		-19.531250
4929		-17.578125
4930		-19.531250
4931		-17.578125
4932		-19.531250
4933		-15.625000
4934		-17.578125
4935		-15.625000
4936		-17.578125
4937		-13.671875
4938		-15.625000
4939		-13.671875
4940		-15.625000
4941		-11.718750
4942		-15.625000
4943		-9.765625
4944		-15.625000
4945		-9.765625
4946		-11.718750
4947		-9.765625
4948		-11.718750
4949		-9.765625
4950		-9.765625
4951		-7.812500
4952		-9.765625
4953		-5.859375
4954		-7.812500
4955		-5.859375
4956		-7.812500
4957		-3.906250
4958		-7.812500
4959		-1.953125
4960		-5.859375
4961		0.000000
4962		-3.906250
4963		-1.953125
4964		-1.953125
4965		0.000000
4966		-1.953125
4967		0.000000
4968		0.000000
4969		1.953125
4970		0.000000
4971		3.906250
4972		1.953125
4973		3.906250
4974		1.953125
4975		5.859375
4976		1.953125
4977		7.812500
4978		3.906250
4979		7.812500
4980		5.859375
4981		7.812500
4982		7.812500
4983		9.765625
4984		7.812500
4985		11.718750
4986		9.765625
4987		11.718750
4988		11.718750
4989		13.671875
4990		11.718750
4991		13.671875
4992		11.718750
4993		17.578125
4994		13.671875
4995		17.578125
4996		15.625000
4997		17.578125
4998		15.625000
4999		19.531250
5000		17.578125
5001		19.531250
5002		17.578125
5003		21.484375
5004		19.531250
5005		21.484375
5006		21.484375
5007		23.437500
5008		21.484375
5009		25.390625
5010		21.484375
5011		27.343750
5012		23.437500
5013		27.343750
5014		25.390625
5015		27.343750
5016		25.390625
5017		29.296875
5018		27.343750
5019		29.296875
5020		29.296875
5021		31.250000
5022		29.296875
5023		31.250000
5024		31.250000
5025		33.203125
5026		29.296875
5027		35.156250
5028		31.250000
5029		37.109375
5030		33.203125
5031		35.156250
5032		33.203125
5033		37.109375
5034		35.156250
5035		37.109375
5036		35.156250
5037		39.062500
5038		37.109375
5039		39.062500
5040		37.109375
5041		41.015625
5042		37.109375
5043		42.968750
5044		39.062500
5045		42.968750
5046		41.015625
5047		42.968750
5048		41.015625
5049		42.968750
5050		41.015625
5051		44.921875
5052		42.968750
5053		44.921875
5054		42.968750
5055		46.875000
5056		44.921875
5057		46.875000
5058		44.921875
5059		48.828125
5060		44.921875
5061		48.828125
5062		46.875000
5063		48.828125
5064		46.875000
5065		48.828125
5066		46.875000
5067		50.781250
5068		48.828125
5069		50.781250
5070		48.828125
5071		50.781250
5072		48.828125
5073		50.781250
5074		48.828125
5075		52.734375
5076		48.828125
5077		52.734375
5078		50.781250
5079		52.734375
5080		50.781250
5081		52.734375
5082		50.781250
5083		54.687500
5084		50.781250
5085		54.687500
5086		52.734375
5087		54.687500
5088		52.734375
5089		54.687500
5090		52.734375
5091		54.687500
5092		52.734375
5093		56.640625
5094		52.734375
5095		54.687500
5096		52.734375
5097		56.640625
5098		54.687500
5099		56.640625
5100		54.687500
5101		56.640625
5102		54.687500
5103		56.640625
5104		54.687500
5105		56.640625
5106		54.687500
5107		56.640625
5108		54.687500
5109		56.640625
5110		54.687500
5111		56.640625
5112		54.687500
5113		56.640625
5114		54.687500
5115		56.640625
5116		54.687500
5117		56.640625
5118		54.687500
5119		56.640625
5120		54.687500
5121		56.640625
5122		54.687500
5123		56.640625
5124		52.734375
5125		56.640625
5126		52.734375
5127		54.687500
5128		52.734375
5129		54.687500
5130		52.734375
5131		54.687500
5132		52.734375
5133		54.687500
5134		52.734375
5135		54.687500
5136		52.734375
5137		54.687500
5138		50.781250
5139		54.687500
5140		50.781250
5141		52.734375
5142		50.781250
5143		52.734375
5144		50.781250
5145		52.734375
5146		48.828125
5147		52.734375
5148		48.828125
5149		50.781250
5150		48.828125
5151		50.781250
5152		48.828125
5153		50.781250
5154		46.875000
5155		48.828125
5156		46.875000
5157		48.828125
5158		46.875000
5159		48.828125
5160		44.921875
5161		48.828125
5162		44.921875
5163		46.875000
5164		44.921875
5165		46.875000
5166		42.968750
5167		46.875000
5168		42.968750
5169		44.921875
5170		41.015625
5171		44.921875
5172		41.015625
5173		42.968750
5174		41.015625
5175		42.968750
5176		39.062500
5177		41.015625
5178		39.062500
5179		41.015625
5180		37.109375
5181		41.015625
5182		37.109375
5183		39.062500
5184		35.156250
5185		39.062500
5186		35.156250
5187		37.109375
5188		33.203125
5189		37.109375
5190		33.203125
5191		35.156250
5192		31.250000
5193		35.156250
5194		31.250000
5195		33.203125
5196		29.296875
5197		33.203125
5198		27.343750
5199		31.250000
5200		27.343750
5201		29.296875
5202		27.343750
5203		29.296875
5204		25.390625
5205		27.343750
5206		23.437500
5207		27.343750
5208		23.437500
5209		25.390625
5210		21.484375
5211		25.390625
5212		21.484375
5213		23.437500
5214		19.531250
5215		23.437500
5216		19.531250
5217		21.484375
5218		17.578125
5219		19.531250
5220		15.625000
5221		19.531250
5222		15.625000
5223		17.578125
5224		13.671875
5225		15.625000
5226		13.671875
5227		15.625000
5228		11.718750
5229		13.671875
5230		9.765625
5231		13.671875
5232		9.765625
5233		11.718750
5234		7.812500
5235		11.718750
5236		7.812500
5237		9.765625
5238		5.859375
5239		7.812500
5240		3.906250
5241		7.812500
5242		3.906250
5243		5.859375
5244		1.953125
5245		5.859375
5246		1.953125
5247		3.906250
5248		0.000000
5249		1.953125
5250		-1.953125
5251		1.953125
5252		-1.953125
5253		0.000000
5254		-3.906250
5255		0.000000
5256		-3.906250
5257		-1.953125
5258		-5.859375
5259		-3.906250
5260		-5.859375
5261		-3.906250
5262		-7.812500
5263		-5.859375
5264		-9.765625
5265		-5.859375
5266		-9.765625
5267		-7.812500
5268		-11.718750
5269		-7.812500
5270		-11.718750
5271		-9.765625
5272		-13.671875
5273		-9.765625
5274		-13.671875
5275		-11.718750
5276		-15.625000
5277		-11.718750
5278		-15.625000
5279		-13.671875
5280		-17.578125
5281		-13.671875
5282		-17.578125
5283		-15.625000
5284		-17.578125
5285		-15.625000
5286		-19.531250
5287		-17.578125
5288		-19.531250
5289		-17.578125
5290		-21.484375
5291		-19.531250
5292		-21.484375
5293		-19.531250
5294		-23.437500
5295		-19.531250
5296		-23.437500
5297		-21.484375
5298		-23.437500
5299		-21.484375
5300		-25.390625
5301		-21.484375
5302		-25.390625
5303		-23.437500
5304		-25.390625
5305		-23.437500
5306		-25.390625
5307		-23.437500
5308		-27.343750
5309		-25.390625
5310		-27.343750
5311		-25.390625
5312		-27.343750
5313		-25.390625
5314		-29.296875
5315		-25.390625
5316		-29.296875
5317		-27.343750
5318		-29.296875
5319		-27.343750
5320		-29.296875
5321		-27.343750
5322		-29.296875
5323		-27.343750
5324		-31.250000
5325		-29.296875
5326		-31.250000
5327		-27.343750
5328		-31.250000
5329		-29.296875
5330		-31.250000
5331		-29.296875
5332		-31.250000
5333		-29.296875
5334		-31.250000
5335		-29.296875
5336		-31.250000
5337		-29.296875
5338		-31.250000
5339		-29.296875
5340		-31.250000
5341		-29.296875
5342		-31.250000
5343		-29.296875
5344		-33.203125
5345		-29.296875
5346		-31.250000
5347		-29.296875
5348		-31.250000
5349		-29.296875
5350		-31.250000
5351		-29.296875
5352		-31.250000
5353		-29.296875
5354		-31.250000
5355		-29.296875
5356		-31.250000
5357		-29.296875
5358		-31.250000
5359		-29.296875
5360		-31.250000
5361		-29.296875
5362		-31.250000
5363		-29.296875
5364		-29.296875
5365		-27.343750
5366		-29.296875
5367		-27.343750
5368		-29.296875
5369		-27.343750
5370		-29.296875
5371		-27.343750
5372		-29.296875
5373		-25.390625
5374		-27.343750
5375		-25.390625
5376		-27.343750
5377		-25.390625
5378		-27.343750
5379		-25.390625
5380		-27.343750
5381		-23.437500
5382		-25.390625
5383		-23.437500
5384		-25.390625
5385		-23.437500
5386		-25.390625
5387		-23.437500
5388		-23.437500
5389		-21.484375
5390		-23.437500
5391		-21.484375
5392		-23.437500
5393		-19.531250
5394		-21.484375
5395		-19.531250
5396		-21.484375
5397		-19.531250
5398		-21.484375
5399		-17.578125
5400		-19.531250
5401		-17.578125
5402		-19.531250
5403		-15.625000
5404		-17.578125
5405		-15.625000
5406		-17.578125
5407		-13.671875
5408		-15.625000
5409		-13.671875
5410		-15.625000
5411		-13.671875
5412		-15.625000
5413		-11.718750
5414		-13.671875
5415		-11.718750
5416		-11.718750
5417		-9.765625
5418		-11.718750
5419		-9.765625
5420		-9.765625
5421		-7.812500
5422		-9.765625
5423		-5.859375
5424		-7.812500
5425		-5.859375
5426		-7.812500
5427		-3.906250
5428		-5.859375
5429		-3.906250
5430		-5.859375
5431		-1.953125
5432		-3.906250
5433		-1.953125
5434		-3.906250
5435		0.000000
5436		-1.953125
5437		0.000000
5438		0.000000
5439		1.953125
5440		0.000000
5441		3.906250
5442		1.953125
5443		3.906250
5444		1.953125
5445		5.859375
5446		3.906250
5447		5.859375
5448		3.906250
5449		7.812500
5450		5.859375
5451		7.812500
5452		5.859375
5453		9.765625
5454		7.812500
5455		11.718750
5456		9.765625
5457		11.718750
5458		9.765625
5459		13.671875
5460		11.718750
5461		13.671875
5462		11.718750
5463		15.625000
5464		13.671875
5465		15.625000
5466		15.625000
5467		17.578125
5468		15.625000
5469		19.531250
5470		17.578125
5471		19.531250
5472		17.578125
5473		21.484375
5474		19.531250
5475		21.484375
5476		21.484375
5477		23.437500
5478		21.484375
5479		23.437500
5480		21.484375
5481		25.390625
5482		23.437500
5483		27.343750
5484		25.390625
5485		27.343750
5486		25.390625
5487		29.296875
5488		27.343750
5489		29.296875
5490		27.343750
5491		31.250000
5492		29.296875
5493		31.250000
5494		29.296875
5495		33.203125
5496		31.250000
5497		33.203125
5498		31.250000
5499		35.156250
5500		33.203125
5501		35.156250
5502		33.203125
5503		37.109375
5504		35.156250
5505		37.109375
5506		35.156250
5507		39.062500
5508		37.109375
5509		39.062500
5510		37.109375
5511		41.015625
5512		39.062500
5513		41.015625
5514		39.062500
5515		41.015625
5516		41.015625
5517		42.968750
5518		41.015625
5519		42.968750
5520		41.015625
5521		44.921875
5522		42.968750
5523		44.921875
5524		42.968750
5525		44.921875
5526		44.921875
5527		46.875000
5528		44.921875
5529		46.875000
5530		44.921875
5531		46.875000
5532		46.875000
5533		48.828125
5534		46.875000
5535		48.828125
5536		46.875000
5537		50.781250
5538		48.828125
5539		50.781250
5540		48.828125
5541		50.781250
5542		48.828125
5543		50.781250
5544		48.828125
5545		52.734375
5546		50.781250
5547		52.734375
5548		50.781250
5549		52.734375
5550		50.781250
5551		52.734375
5552		50.781250
5553		52.734375
5554		50.781250
5555		54.687500
5556		52.734375
5557		54.687500
5558		52.734375
5559		54.687500
5560		52.734375
5561		54.687500
5562		52.734375
5563		54.687500
5564		52.734375
5565		54.687500
5566		52.734375
5567		56.640625
5568		54.687500
5569		56.640625
5570		54.687500
5571		56.640625
5572		54.687500
5573		56.640625
5574		54.687500
5575		56.640625
5576		54.687500
5577		56.640625
5578		54.687500
5579		56.640625
5580		54.687500
5581		56.640625
5582		54.687500
5583		56.640625
5584		54.687500
5585		56.640625
5586		54.687500
5587		56.640625
5588		54.687500
5589		56.640625
5590		54.687500
5591		56.640625
5592		54.687500
5593		56.640625
5594		54.687500
5595		56.640625
5596		54.687500
5597		56.640625
5598		52.734375
5599		56.640625
5600		52.734375
5601		54.687500
5602		52.734375
5603		54.687500
5604		52.734375
5605		54.687500
5606		52.734375
5607		54.687500
5608		52.734375
5609		54.687500
5610		52.734375
5611		54.687500
5612		50.781250
5613		52.734375
5614		50.781250
5615		52.734375
5616		50.781250
5617		52.734375
5618		50.781250
5619		52.734375
5620		48.828125
5621		50.781250
5622		48.828125
5623		50.781250
5624		48.828125
5625		50.781250
5626		46.875000
5627		50.781250
5628		46.875000
5629		48.828125
5630		46.875000
5631		48.828125
5632		44.921875
5633		48.828125
5634		44.921875
5635		46.875000
5636		44.921875
5637		46.875000
5638		42.968750
5639		46.875000
5640		42.968750
5641		44.921875
5642		41.015625
5643		44.921875
5644		41.015625
5645		42.968750
5646		41.015625
5647		42.968750
5648		39.062500
5649		41.015625
5650		37.109375
5651		41.015625
5652		37.109375
5653		41.015625
5654		37.109375
5655		39.062500
5656		35.156250
5657		39.062500
5658		35.156250
5659		37.109375
5660		33.203125
5661		37.109375
5662		33.203125
5663		35.156250
5664		31.250000
5665		35.156250
5666		31.250000
5667		33.203125
5668		29.296875
5669		33.203125
5670		29.296875
5671		31.250000
5672		27.343750
5673		31.250000
5674		25.390625
5675		29.296875
5676		25.390625
5677		27.343750
5678		23.437500
5679		27.343750
5680		23.437500
5681		25.390625
5682		21.484375
5683		25.390625
5684		21.484375
5685		23.437500
5686		19.531250
5687		23.437500
5688		17.578125
5689		21.484375
5690		17.578125
5691		19.531250
5692		15.625000
5693		19.531250
5694		15.625000
5695		17.578125
5696		13.671875
5697		17.578125
5698		11.718750
5699		15.625000
5700		11.718750
5701		13.671875
5702		9.765625
5703		13.671875
5704		9.765625
5705		11.718750
5706		7.812500
5707		11.718750
5708		5.859375
5709		9.765625
5710		5.859375
5711		7.812500
5712		3.906250
5713		7.812500
5714		3.906250
5715		5.859375
5716		1.953125
5717		3.906250
5718		0.000000
5719		3.906250
5720		0.000000
5721		1.953125
5722		-1.953125
5723		1.953125
5724		-1.953125
5725		0.000000
5726		-3.906250
5727		-1.953125
5728		-3.906250
5729		-1.953125
5730		-5.859375
5731		-3.906250
5732		-5.859375
5733		-3.906250
5734		-7.812500
5735		-5.859375
5736		-9.765625
5737		-5.859375
5738		-9.765625
5739		-7.812500
5740		-11.718750
5741		-7.812500
5742		-11.718750
5743		-9.765625
5744		-13.671875
5745		-9.765625
5746		-13.671875
5747		-11.718750
5748		-15.625000
5749		-11.718750
5750		-15.625000
5751		-13.671875
5752		-17.578125
5753		-13.671875
5754		-19.531250
5755		-15.625000
5756		-17.578125
5757		-15.625000
5758		-19.531250
5759		-17.578125
5760		-19.531250
5761		-17.578125
5762		-21.484375
5763		-19.531250
5764		-21.484375
5765		-19.531250
5766		-23.437500
5767		-19.531250
5768		-23.437500
5769		-21.484375
5770		-23.437500
5771		-21.484375
5772		-25.390625
5773		-21.484375
5774		-25.390625
5775		-23.437500
5776		-25.390625
5777		-23.437500
5778		-27.343750
5779		-23.437500
5780		-27.343750
5781		-25.390625
5782		-27.343750
5783		-25.390625
5784		-29.296875
5785		-25.390625
5786		-29.296875
5787		-25.390625
5788		-29.296875
5789		-27.343750
5790		-29.296875
5791		-27.343750
5792		-29.296875
5793		-27.343750
5794		-29.296875
5795		-27.343750
5796		-31.250000
5797		-29.296875
5798		-31.250000
5799		-29.296875
5800		-31.250000
5801		-29.296875
5802		-31.250000
5803		-29.296875
5804		-31.250000
5805		-29.296875
5806		-31.250000
5807		-29.296875
5808		-31.250000
5809		-29.296875
5810		-31.250000
5811		-29.296875
5812		-31.250000
5813		-29.296875
5814		-31.250000
5815		-29.296875
5816		-31.250000
5817		-29.296875
5818		-31.250000
5819		-29.296875
5820		-31.250000
5821		-29.296875
5822		-31.250000
5823		-29.296875
5824		-31.250000
5825		-29.296875
5826		-31.250000
5827		-29.296875
5828		-31.250000
5829		-29.296875
5830		-31.250000
5831		-29.296875
5832		-31.250000
5833		-29.296875
5834		-31.250000
5835		-27.343750
5836		-29.296875
5837		-27.343750
5838		-29.296875
5839		-27.343750
5840		-29.296875
5841		-27.343750
5842		-29.296875
5843		-27.343750
5844		-29.296875
5845		-25.390625
5846		-27.343750
5847		-25.390625
5848		-27.343750
5849		-25.390625
5850		-27.343750
5851		-25.390625
5852		-25.390625
5853		-23.437500
5854		-25.390625
5855		-23.437500
5856		-25.390625
5857		-23.437500
5858		-25.390625
5859		-21.484375
5860		-23.437500
5861		-21.484375
5862		-23.437500
5863		-21.484375
5864		-23.437500
5865		-19.531250
5866		-21.484375
5867		-19.531250
5868		-21.484375
5869		-17.578125
5870		-19.531250
5871		-17.578125
5872		-19.531250
5873		-17.578125
5874		-17.578125
5875		-15.625000
5876		-17.578125
5877		-15.625000
5878		-17.578125
5879		-13.671875
5880		-15.625000
5881		-13.671875
5882		-15.625000
5883		-11.718750
5884		-15.625000
5885		-11.718750
5886		-13.671875
5887		-9.765625
5888		-11.718750
5889		-9.765625
5890		-11.718750
5891		-7.812500
5892		-9.765625
5893		-7.812500
5894		-9.765625
5895		-5.859375
5896		-7.812500
5897		-5.859375
5898		-7.812500
5899		-3.906250
5900		-7.812500
5901		-1.953125
5902		-3.906250
5903		-1.953125
5904		-5.859375
5905		0.000000
5906		-1.953125
5907		1.953125
5908		-3.906250
5909		1.953125
5910		0.000000
5911		1.953125
5912		0.000000
5913		3.906250
5914		1.953125
5915		3.906250
5916		1.953125
5917		5.859375
5918		3.906250
5919		7.812500
5920		3.906250
5921		9.765625
5922		5.859375
5923		9.765625
5924		5.859375
5925		11.718750
5926		7.812500
5927		11.718750
5928		7.812500
5929		13.671875
5930		9.765625
5931		13.671875
5932		11.718750
5933		15.625000
5934		11.718750
5935		15.625000
5936		13.671875
5937		19.531250
5938		13.671875
5939		17.578125
5940		13.671875
5941		19.531250
5942		15.625000
5943		21.484375
5944		15.625000
5945		25.390625
5946		19.531250
5947		23.437500
5948		21.484375
5949		23.437500
5950		21.484375
5951		25.390625
5952		21.484375
5953		27.343750
5954		23.437500
5955		27.343750
5956		25.390625
5957		29.296875
5958		25.390625
5959		31.250000
5960		27.343750
5961		29.296875
5962		27.343750
5963		33.203125
5964		29.296875
5965		31.250000
5966		29.296875
5967		33.203125
5968		29.296875
5969		35.156250
5970		29.296875
5971		37.109375
5972		33.203125
5973		37.109375
5974		33.203125
5975		37.109375
5976		35.156250
5977		39.062500
5978		35.156250
5979		41.015625
5980		37.109375
5981		39.062500
5982		37.109375
5983		41.015625
5984		37.109375
5985		42.968750
5986		37.109375
5987		44.921875
5988		39.062500
5989		42.968750
5990		41.015625
5991		44.921875
5992		41.015625
5993		48.828125
5994		42.968750
5995		44.921875
5996		41.015625
5997		48.828125
5998		44.921875
5999		46.875000
6000		44.921875
6001		46.875000
6002		42.968750
6003		50.781250
6004		44.921875
6005		50.781250
6006		46.875000
6007		50.781250
6008		46.875000
6009		52.734375
6010		44.921875
6011		54.687500
6012		44.921875
6013		54.687500
6014		48.828125
6015		50.781250
6016		48.828125
6017		52.734375
6018		48.828125
6019		54.687500
6020		48.828125
6021		56.640625
6022		48.828125
6023		54.687500
6024		52.734375
6025		54.687500
6026		48.828125
6027		58.593750
6028		48.828125
6029		58.593750
6030		50.781250
6031		58.593750
6032		52.734375
6033		54.687500
6034		52.734375
6035		56.640625
6036		50.781250
6037		58.593750
6038		52.734375
6039		56.640625
6040		54.687500
6041		56.640625
6042		52.734375
6043		58.593750
6044		52.734375
6045		60.546875
6046		52.734375
6047		60.546875
6048		54.687500
6049		56.640625
6050		54.687500
6051		56.640625
6052		52.734375
6053		58.593750
6054		52.734375
6055		60.546875
6056		54.687500
6057		56.640625
6058		54.687500
6059		56.640625
6060		50.781250
6061		60.546875
6062		52.734375
6063		58.593750
6064		54.687500
6065		56.640625
6066		54.687500
6067		56.640625
6068		52.734375
6069		56.640625
6070		52.734375
6071		58.593750
6072		50.781250
6073		58.593750
6074		52.734375
6075		54.687500
6076		48.828125
6077		58.593750
6078		50.781250
6079		58.593750
6080		48.828125
6081		58.593750
6082		52.734375
6083		54.687500
6084		50.781250
6085		54.687500
6086		48.828125
6087		56.640625
6088		48.828125
6089		54.687500
6090		50.781250
6091		52.734375
6092		48.828125
6093		54.687500
6094		46.875000
6095		54.687500
6096		46.875000
6097		52.734375
6098		46.875000
6099		50.781250
6100		46.875000
6101		48.828125
6102		44.921875
6103		50.781250
6104		42.968750
6105		50.781250
6106		44.921875
6107		48.828125
6108		44.921875
6109		46.875000
6110		41.015625
6111		48.828125
6112		42.968750
6113		44.921875
6114		41.015625
6115		46.875000
6116		41.015625
6117		42.968750
6118		39.062500
6119		42.968750
6120		37.109375
6121		44.921875
6122		37.109375
6123		41.015625
6124		37.109375
6125		41.015625
6126		33.203125
6127		41.015625
6128		33.203125
6129		41.015625
6130		33.203125
6131		41.015625
6132		33.203125
6133		37.109375
6134		33.203125
6135		35.156250
6136		29.296875
6137		35.156250
6138		29.296875
6139		37.109375
6140		29.296875
6141		33.203125
6142		27.343750
6143		31.250000
6144		25.390625
6145		33.203125
6146		23.437500
6147		31.250000
6148		25.390625
6149		27.343750
6150		23.437500
6151		27.343750
6152		21.484375
6153		25.390625
6154		19.531250
6155		25.390625
6156		19.531250
6157		25.390625
6158		19.531250
6159		21.484375
6160		15.625000
6161		23.437500
6162		15.625000
6163		23.437500
6164		13.671875
6165		21.484375
6166		15.625000
6167		17.578125
6168		13.671875
6169		17.578125
6170		9.765625
6171		17.578125
6172		9.765625
6173		15.625000
6174		9.765625
6175		13.671875
6176		7.812500
6177		11.718750
6178		7.812500
6179		9.765625
6180		3.906250
6181		11.718750
6182		5.859375
6183		7.812500
6184		3.906250
6185		7.812500
6186		3.906250
6187		5.859375
6188		0.000000
6189		5.859375
6190		0.000000
6191		5.859375
6192		0.000000
6193		1.953125
6194		-1.953125
6195		3.906250
6196		-1.953125
6197		0.000000
6198		-5.859375
6199		0.000000
6200		-5.859375
6201		-1.953125
6202		-5.859375
6203		-3.906250
6204		-7.812500
6205		-3.906250
6206		-9.765625
6207		-3.906250
6208		-9.765625
6209		-5.859375
6210		-11.718750
6211		-5.859375
6212		-11.718750
6213		-7.812500
6214		-11.718750
6215		-9.765625
6216		-13.671875
6217		-9.765625
6218		-13.671875
6219		-11.718750
6220		-15.625000
6221		-11.718750
6222		-15.625000
6223		-13.671875
6224		-17.578125
6225		-13.671875
6226		-17.578125
6227		-15.625000
6228		-19.531250
6229		-15.625000
6230		-19.531250
6231		-17.578125
6232		-19.531250
6233		-17.578125
6234		-21.484375
6235		-17.578125
6236		-21.484375
6237		-19.531250
6238		-23.437500
6239		-19.531250
6240		-23.437500
6241		-21.484375
6242		-25.390625
6243		-21.484375
6244		-25.390625
6245		-21.484375
6246		-25.390625
6247		-23.437500
6248		-25.390625
6249		-23.437500
6250		-27.343750
6251		-23.437500
6252		-27.343750
6253		-23.437500
6254		-29.296875
6255		-23.437500
6256		-29.296875
6257		-25.390625
6258		-29.296875
6259		-25.390625
6260		-29.296875
6261		-25.390625
6262		-31.250000
6263		-25.390625
6264		-31.250000
6265		-25.390625
6266		-29.296875
6267		-27.343750
6268		-31.250000
6269		-27.343750
6270		-31.250000
6271		-27.343750
6272		-31.250000
6273		-27.343750
6274		-31.250000
6275		-27.343750
6276		-33.203125
6277		-27.343750
6278		-33.203125
6279		-27.343750
6280		-33.203125
6281		-29.296875
6282		-33.203125
6283		-27.343750
6284		-31.250000
6285		-29.296875
6286		-31.250000
6287		-29.296875
6288		-33.203125
6289		-29.296875
6290		-33.203125
6291		-27.343750
6292		-33.203125
6293		-27.343750
6294		-33.203125
6295		-27.343750
6296		-33.203125
6297		-27.343750
6298		-33.203125
6299		-27.343750
6300		-31.250000
6301		-29.296875
6302		-31.250000
6303		-27.343750
6304		-31.250000
6305		-27.343750
6306		-31.250000
6307		-27.343750
6308		-31.250000
6309		-27.343750
6310		-31.250000
6311		-25.390625
6312		-29.296875
6313		-25.390625
6314		-29.296875
6315		-25.390625
6316		-29.296875
6317		-25.390625
6318		-27.343750
6319		-25.390625
6320		-29.296875
6321		-23.437500
6322		-27.343750
6323		-23.437500
6324		-27.343750
6325		-23.437500
6326		-27.343750
6327		-21.484375
6328		-25.390625
6329		-21.484375
6330		-25.390625
6331		-21.484375
6332		-23.437500
6333		-21.484375
6334		-23.437500
6335		-21.484375
6336		-23.437500
6337		-19.531250
6338		-23.437500
6339		-17.578125
6340		-21.484375
6341		-17.578125
6342		-21.484375
6343		-15.625000
6344		-19.531250
6345		-15.625000
6346		-19.531250
6347		-15.625000
6348		-17.578125
6349		-13.671875
6350		-17.578125
6351		-13.671875
6352		-15.625000
6353		-13.671875
6354		-15.625000
6355		-11.718750
6356		-15.625000
6357		-9.765625
6358		-15.625000
6359		-9.765625
6360		-13.671875
6361		-7.812500
6362		-11.718750
6363		-7.812500
6364		-9.765625
6365		-7.812500
6366		-9.765625
6367		-5.859375
6368		-7.812500
6369		-5.859375
6370		-7.812500
6371		-3.906250
6372		-5.859375
6373		-1.953125
6374		-5.859375
6375		-1.953125
6376		-5.859375
6377		1.953125
6378		-3.906250
6379		1.953125
6380		-1.953125
6381		1.953125
6382		-1.953125
6383		3.906250
6384		0.000000
6385		3.906250
6386		1.953125
6387		3.906250
6388		1.953125
6389		5.859375
6390		3.906250
6391		7.812500
6392		3.906250
6393		7.812500
6394		3.906250
6395		9.765625
6396		5.859375
6397		9.765625
6398		7.812500
6399		11.718750
6400		9.765625
6401		11.718750
6402		9.765625
6403		13.671875
6404		11.718750
6405		15.625000
6406		11.718750
6407		15.625000
6408		13.671875
6409		17.578125
6410		13.671875
6411		19.531250
6412		15.625000
6413		19.531250
6414		17.578125
6415		21.484375
6416		17.578125
6417		21.484375
6418		19.531250
6419		21.484375
6420		21.484375
6421		25.390625
6422		21.484375
6423		25.390625
6424		23.437500
6425		25.390625
6426		23.437500
6427		29.296875
6428		25.390625
6429		27.343750
6430		25.390625
6431		29.296875
6432		27.343750
6433		31.250000
6434		29.296875
6435		31.250000
6436		29.296875
6437		31.250000
6438		29.296875
6439		33.203125
6440		31.250000
6441		33.203125
6442		31.250000
6443		35.156250
6444		33.203125
6445		37.109375
6446		33.203125
6447		37.109375
6448		35.156250
6449		39.062500
6450		35.156250
6451		39.062500
6452		37.109375
6453		39.062500
6454		37.109375
6455		41.015625
6456		39.062500
6457		42.968750
6458		39.062500
6459		42.968750
6460		39.062500
6461		44.921875
6462		41.015625
6463		44.921875
6464		41.015625
6465		44.921875
6466		42.968750
6467		44.921875
6468		42.968750
6469		44.921875
6470		44.921875
6471		46.875000
6472		42.968750
6473		46.875000
6474		44.921875
6475		48.828125
6476		46.875000
6477		48.828125
6478		46.875000
6479		50.781250
6480		46.875000
6481		50.781250
6482		46.875000
6483		50.781250
6484		46.875000
6485		52.734375
6486		48.828125
6487		50.781250
6488		48.828125
6489		52.734375
6490		50.781250
6491		52.734375
6492		50.781250
6493		52.734375
6494		50.781250
6495		54.687500
6496		50.781250
6497		54.687500
6498		50.781250
6499		54.687500
6500		50.781250
6501		54.687500
6502		52.734375
6503		54.687500
6504		52.734375
6505		56.640625
6506		52.734375
6507		56.640625
6508		52.734375
6509		56.640625
6510		52.734375
6511		56.640625
6512		52.734375
6513		56.640625
6514		52.734375
6515		56.640625
6516		52.734375
6517		56.640625
6518		54.687500
6519		56.640625
6520		54.687500
6521		56.640625
6522		52.734375
6523		58.593750
6524		54.687500
6525		56.640625
6526		54.687500
6527		56.640625
6528		54.687500
6529		58.593750
6530		54.687500
6531		56.640625
6532		54.687500
6533		56.640625
6534		54.687500
6535		58.593750
6536		54.687500
6537		56.640625
6538		52.734375
6539		56.640625
6540		52.734375
6541		56.640625
6542		52.734375
6543		56.640625
6544		52.734375
6545		56.640625
6546		52.734375
6547		56.640625
6548		52.734375
6549		54.687500
6550		50.781250
6551		54.687500
6552		52.734375
6553		54.687500
6554		52.734375
6555		54.687500
6556		50.781250
6557		54.687500
6558		50.781250
6559		54.687500
6560		48.828125
6561		52.734375
6562		48.828125
6563		52.734375
6564		48.828125
6565		52.734375
6566		48.828125
6567		52.734375
6568		46.875000
6569		50.781250
6570		46.875000
6571		50.781250
6572		46.875000
6573		48.828125
6574		44.921875
6575		48.828125
6576		44.921875
6577		48.828125
6578		44.921875
6579		46.875000
6580		42.968750
6581		46.875000
6582		42.968750
6583		46.875000
6584		42.968750
6585		46.875000
6586		41.015625
6587		42.968750
6588		39.062500
6589		42.968750
6590		39.062500
6591		42.968750
6592		39.062500
6593		42.968750
6594		37.109375
6595		41.015625
6596		37.109375
6597		41.015625
6598		35.156250
6599		39.062500
6600		35.156250
6601		39.062500
6602		35.156250
6603		37.109375
6604		33.203125
6605		35.156250
6606		31.250000
6607		37.109375
6608		31.250000
6609		35.156250
6610		29.296875
6611		33.203125
6612		29.296875
6613		31.250000
6614		27.343750
6615		31.250000
6616		27.343750
6617		29.296875
6618		25.390625
6619		29.296875
6620		25.390625
6621		27.343750
6622		23.437500
6623		27.343750
6624		21.484375
6625		25.390625
6626		21.484375
6627		25.390625
6628		19.531250
6629		23.437500
6630		19.531250
6631		23.437500
6632		17.578125
6633		21.484375
6634		15.625000
6635		19.531250
6636		15.625000
6637		17.578125
6638		13.671875
6639		17.578125
6640		13.671875
6641		17.578125
6642		11.718750
6643		15.625000
6644		9.765625
6645		13.671875
6646		9.765625
6647		13.671875
6648		7.812500
6649		11.718750
6650		7.812500
6651		11.718750
6652		5.859375
6653		9.765625
6654		5.859375
6655		7.812500
6656		3.906250
6657		5.859375
6658		1.953125
6659		5.859375
6660		1.953125
6661		5.859375
6662		0.000000
6663		3.906250
6664		0.000000
6665		1.953125
6666		-1.953125
6667		1.953125
6668		-1.953125
6669		0.000000
6670		-3.906250
6671		-1.953125
6672		-5.859375
6673		-1.953125
6674		-5.859375
6675		-1.953125
6676		-7.812500
6677		-3.906250
6678		-7.812500
6679		-5.859375
6680		-9.765625
6681		-5.859375
6682		-11.718750
6683		-7.812500
6684		-11.718750
6685		-7.812500
6686		-13.671875
6687		-9.765625
6688		-13.671875
6689		-11.718750
6690		-15.625000
6691		-11.718750
6692		-15.625000
6693		-11.718750
6694		-17.578125
6695		-13.671875
6696		-17.578125
6697		-13.671875
6698		-19.531250
6699		-15.625000
6700		-19.531250
6701		-15.625000
6702		-21.484375
6703		-17.578125
6704		-21.484375
6705		-17.578125
6706		-21.484375
6707		-17.578125
6708		-21.484375
6709		-19.531250
6710		-23.437500
6711		-19.531250
6712		-23.437500
6713		-21.484375
6714		-25.390625
6715		-21.484375
6716		-25.390625
6717		-21.484375
6718		-27.343750
6719		-23.437500
6720		-25.390625
6721		-23.437500
6722		-27.343750
6723		-23.437500
6724		-27.343750
6725		-23.437500
6726		-27.343750
6727		-25.390625
6728		-29.296875
6729		-25.390625
6730		-29.296875
6731		-25.390625
6732		-29.296875
6733		-25.390625
6734		-29.296875
6735		-25.390625
6736		-31.250000
6737		-27.343750
6738		-31.250000
6739		-27.343750
6740		-31.250000
6741		-27.343750
6742		-31.250000
6743		-27.343750
6744		-31.250000
6745		-29.296875
6746		-31.250000
6747		-29.296875
6748		-31.250000
6749		-27.343750
6750		-31.250000
6751		-29.296875
6752		-31.250000
6753		-29.296875
6754		-31.250000
6755		-29.296875
6756		-31.250000
6757		-29.296875
6758		-31.250000
6759		-29.296875
6760		-31.250000
6761		-29.296875
6762		-31.250000
6763		-29.296875
6764		-33.203125
6765		-29.296875
6766		-31.250000
6767		-27.343750
6768		-31.250000
6769		-27.343750
6770		-31.250000
6771		-29.296875
6772		-31.250000
6773		-29.296875
6774		-31.250000
6775		-27.343750
6776		-31.250000
6777		-27.343750
6778		-29.296875
6779		-27.343750
6780		-29.296875
6781		-27.343750
6782		-29.296875
6783		-27.343750
6784		-29.296875
6785		-25.390625
6786		-29.296875
6787		-25.390625
6788		-27.343750
6789		-25.390625
6790		-29.296875
6791		-23.437500
6792		-27.343750
6793		-23.437500
6794		-27.343750
6795		-23.437500
6796		-27.343750
6797		-23.437500
6798		-25.390625
6799		-23.437500
6800		-25.390625
6801		-21.484375
6802		-23.437500
6803		-19.531250
6804		-23.437500
6805		-19.531250
6806		-23.437500
6807		-19.531250
6808		-23.437500
6809		-19.531250
6810		-21.484375
6811		-17.578125
6812		-19.531250
6813		-17.578125
6814		-19.531250
6815		-17.578125
6816		-19.531250
6817		-15.625000
6818		-17.578125
6819		-13.671875
6820		-17.578125
6821		-13.671875
6822		-15.625000
6823		-13.671875
6824		-15.625000
6825		-11.718750
6826		-13.671875
6827		-11.718750
6828		-13.671875
6829		-9.765625
6830		-11.718750
6831		-9.765625
6832		-11.718750
6833		-7.812500
6834		-11.718750
6835		-7.812500
6836		-9.765625
6837		-5.859375
6838		-7.812500
6839		-5.859375
6840		-7.812500
6841		-5.859375
6842		-7.812500
6843		-3.906250
6844		-5.859375
6845		-1.953125
6846		-3.906250
6847		-1.953125
6848		-3.906250
6849		0.000000
6850		-1.953125
6851		0.000000
6852		-1.953125
6853		1.953125
6854		-1.953125
6855		3.906250
6856		1.953125
6857		3.906250
6858		1.953125
6859		5.859375
6860		3.906250
6861		5.859375
6862		3.906250
6863		7.812500
6864		5.859375
6865		9.765625
6866		5.859375
6867		9.765625
6868		7.812500
6869		11.718750
6870		7.812500
6871		11.718750
6872		9.765625
6873		13.671875
6874		11.718750
6875		15.625000
6876		11.718750
6877		15.625000
6878		13.671875
6879		15.625000
6880		15.625000
6881		17.578125
6882		15.625000
6883		19.531250
6884		15.625000
6885		19.531250
6886		17.578125
6887		21.484375
6888		19.531250
6889		21.484375
6890		19.531250
6891		23.437500
6892		21.484375
6893		25.390625
6894		23.437500
6895		25.390625
6896		21.484375
6897		27.343750
6898		25.390625
6899		27.343750
6900		25.390625
6901		29.296875
6902		27.343750
6903		29.296875
6904		27.343750
6905		31.250000
6906		29.296875
6907		31.250000
6908		29.296875
6909		33.203125
6910		31.250000
6911		33.203125
6912		31.250000
6913		35.156250
6914		33.203125
6915		35.156250
6916		33.203125
6917		37.109375
6918		35.156250
6919		39.062500
6920		35.156250
6921		39.062500
6922		37.109375
6923		39.062500
6924		37.109375
6925		41.015625
6926		37.109375
6927		41.015625
6928		39.062500
6929		42.968750
6930		39.062500
6931		42.968750
6932		41.015625
6933		42.968750
6934		41.015625
6935		44.921875
6936		41.015625
6937		44.921875
6938		42.968750
6939		44.921875
6940		44.921875
6941		46.875000
6942		42.968750
6943		46.875000
6944		44.921875
6945		48.828125
6946		46.875000
6947		48.828125
6948		46.875000
6949		50.781250
6950		46.875000
6951		50.781250
6952		46.875000
6953		50.781250
6954		48.828125
6955		50.781250
6956		48.828125
6957		52.734375
6958		48.828125
6959		52.734375
6960		50.781250
6961		52.734375
6962		50.781250
6963		52.734375
6964		50.781250
6965		52.734375
6966		50.781250
6967		54.687500
6968		52.734375
6969		54.687500
6970		50.781250
6971		54.687500
6972		52.734375
6973		54.687500
6974		52.734375
6975		56.640625
6976		52.734375
6977		56.640625
6978		54.687500
6979		56.640625
6980		52.734375
6981		56.640625
6982		54.687500
6983		56.640625
6984		54.687500
6985		56.640625
6986		54.687500
6987		56.640625
6988		54.687500
6989		58.593750
6990		54.687500
6991		56.640625
6992		54.687500
6993		58.593750
6994		54.687500
6995		58.593750
6996		54.687500
6997		56.640625
6998		54.687500
6999		56.640625
7000		54.687500
7001		58.593750
7002		54.687500
7003		58.593750
7004		54.687500
7005		58.593750
7006		54.687500
7007		56.640625
7008		54.687500
7009		56.640625
7010		52.734375
7011		58.593750
7012		52.734375
7013		56.640625
7014		54.687500
7015		56.640625
7016		52.734375
7017		56.640625
7018		52.734375
7019		56.640625
7020		52.734375
7021		56.640625
7022		52.734375
7023		56.640625
7024		50.781250
7025		54.687500
7026		50.781250
7027		54.687500
7028		50.781250
7029		54.687500
7030		50.781250
7031		54.687500
7032		50.781250
7033		52.734375
7034		48.828125
7035		52.734375
7036		48.828125
7037		52.734375
7038		48.828125
7039		52.734375
7040		48.828125
7041		50.781250
7042		46.875000
7043		50.781250
7044		46.875000
7045		50.781250
7046		46.875000
7047		48.828125
7048		44.921875
7049		48.828125
7050		44.921875
7051		48.828125
7052		42.968750
7053		46.875000
7054		41.015625
7055		46.875000
7056		42.968750
7057		44.921875
7058		42.968750
7059		44.921875
7060		41.015625
7061		44.921875
7062		41.015625
7063		42.968750
7064		39.062500
7065		42.968750
7066		39.062500
7067		41.015625
7068		37.109375
7069		41.015625
7070		37.109375
7071		39.062500
7072		35.156250
7073		39.062500
7074		35.156250
7075		37.109375
7076		33.203125
7077		37.109375
7078		31.250000
7079		35.156250
7080		31.250000
7081		35.156250
7082		31.250000
7083		33.203125
7084		29.296875
7085		33.203125
7086		27.343750
7087		31.250000
7088		27.343750
7089		31.250000
7090		25.390625
7091		29.296875
7092		25.390625
7093		27.343750
7094		23.437500
7095		27.343750
7096		23.437500
7097		25.390625
7098		21.484375
7099		25.390625
7100		19.531250
7101		23.437500
7102		19.531250
7103		21.484375
7104		17.578125
7105		21.484375
7106		17.578125
7107		21.484375
7108		15.625000
7109		19.531250
7110		13.671875
7111		17.578125
7112		13.671875
7113		17.578125
7114		11.718750
7115		15.625000
7116		9.765625
7117		13.671875
7118		9.765625
7119		13.671875
7120		7.812500
7121		11.718750
7122		7.812500
7123		11.718750
7124		5.859375
7125		9.765625
7126		5.859375
7127		7.812500
7128		3.906250
7129		7.812500
7130		1.953125
7131		5.859375
7132		1.953125
7133		5.859375
7134		0.000000
7135		3.906250
7136		-1.953125
7137		1.953125
7138		-3.906250
7139		1.953125
7140		-1.953125
7141		0.000000
7142		-3.906250
7143		-1.953125
7144		-5.859375
7145		-1.953125
7146		-5.859375
7147		-1.953125
7148		-7.812500
7149		-3.906250
7150		-7.812500
7151		-5.859375
7152		-9.765625
7153		-5.859375
7154		-9.765625
7155		-7.812500
7156		-11.718750
7157		-7.812500
7158		-11.718750
7159		-9.765625
7160		-13.671875
7161		-9.765625
7162		-13.671875
7163		-11.718750
7164		-15.625000
7165		-11.718750
7166		-15.625000
7167		-13.671875
7168		-17.578125
7169		-13.671875
7170		-17.578125
7171		-13.671875
7172		-19.531250
7173		-15.625000
7174		-19.531250
7175		-17.578125
7176		-19.531250
7177		-17.578125
7178		-21.484375
7179		-17.578125
7180		-21.484375
7181		-19.531250
7182		-23.437500
7183		-19.531250
7184		-23.437500
7185		-21.484375
7186		-25.390625
7187		-21.484375
7188		-25.390625
7189		-21.484375
7190		-25.390625
7191		-21.484375
7192		-25.390625
7193		-23.437500
7194		-27.343750
7195		-23.437500
7196		-27.343750
7197		-23.437500
7198		-27.343750
7199		-25.390625
7200		-29.296875
7201		-25.390625
7202		-29.296875
7203		-25.390625
7204		-29.296875
7205		-25.390625
7206		-31.250000
7207		-25.390625
7208		-29.296875
7209		-27.343750
7210		-29.296875
7211		-27.343750
7212		-29.296875
7213		-27.343750
7214		-31.250000
7215		-27.343750
7216		-31.250000
7217		-27.343750
7218		-31.250000
7219		-27.343750
7220		-31.250000
7221		-29.296875
7222		-31.250000
7223		-29.296875
7224		-31.250000
7225		-29.296875
7226		-31.250000
7227		-29.296875
7228		-31.250000
7229		-27.343750
7230		-31.250000
7231		-29.296875
7232		-31.250000
7233		-27.343750
7234		-31.250000
7235		-27.343750
7236		-31.250000
7237		-29.296875
7238		-31.250000
7239		-29.296875
7240		-31.250000
7241		-27.343750
7242		-31.250000
7243		-27.343750
7244		-31.250000
7245		-27.343750
7246		-31.250000
7247		-27.343750
7248		-29.296875
7249		-27.343750
7250		-29.296875
7251		-27.343750
7252		-29.296875
7253		-25.390625
7254		-29.296875
7255		-25.390625
7256		-29.296875
7257		-25.390625
7258		-27.343750
7259		-25.390625
7260		-27.343750
7261		-25.390625
7262		-27.343750
7263		-23.437500
7264		-27.343750
7265		-23.437500
7266		-27.343750
7267		-23.437500
7268		-25.390625
7269		-21.484375
7270		-25.390625
7271		-21.484375
7272		-23.437500
7273		-21.484375
7274		-25.390625
7275		-19.531250
7276		-23.437500
7277		-19.531250
7278		-23.437500
7279		-19.531250
7280		-21.484375
7281		-17.578125
7282		-21.484375
7283		-17.578125
7284		-19.531250
7285		-17.578125
7286		-19.531250
7287		-15.625000
7288		-17.578125
7289		-15.625000
7290		-17.578125
7291		-13.671875
7292		-15.625000
7293		-13.671875
7294		-15.625000
7295		-13.671875
7296		-15.625000
7297		-11.718750
7298		-13.671875
7299		-9.765625
7300		-13.671875
7301		-9.765625
7302		-11.718750
7303		-9.765625
7304		-11.718750
7305		-7.812500
7306		-9.765625
7307		-5.859375
7308		-9.765625
7309		-5.859375
7310		-7.812500
7311		-5.859375
7312		-7.812500
7313		-3.906250
7314		-5.859375
7315		-1.953125
7316		-5.859375
7317		-1.953125
7318		-3.906250
7319		0.000000
7320		-1.953125
7321		0.000000
7322		-1.953125
7323		1.953125
7324		-1.953125
7325		3.906250
7326		0.000000
7327		3.906250
7328		1.953125
7329		5.859375
7330		1.953125
7331		5.859375
7332		3.906250
7333		7.812500
7334		3.906250
7335		9.765625
7336		5.859375
7337		9.765625
7338		7.812500
7339		11.718750
7340		7.812500
7341		11.718750
7342		9.765625
7343		11.718750
7344		11.718750
7345		13.671875
7346		11.718750
7347		15.625000
7348		11.718750
7349		15.625000
7350		13.671875
7351		17.578125
7352		15.625000
7353		19.531250
7354		15.625000
7355		19.531250
7356		17.578125
7357		21.484375
7358		17.578125
7359		21.484375
7360		19.531250
7361		23.437500
7362		19.531250
7363		25.390625
7364		21.484375
7365		25.390625
7366		21.484375
7367		27.343750
7368		23.437500
7369		27.343750
7370		25.390625
7371		29.296875
7372		25.390625
7373		29.296875
7374		27.343750
7375		31.250000
7376		29.296875
7377		31.250000
7378		29.296875
7379		31.250000
7380		29.296875
7381		33.203125
7382		31.250000
7383		35.156250
7384		33.203125
7385		35.156250
7386		33.203125
7387		37.109375
7388		33.203125
7389		37.109375
7390		35.156250
7391		39.062500
7392		37.109375
7393		39.062500
7394		37.109375
7395		39.062500
7396		37.109375
7397		41.015625
7398		39.062500
7399		41.015625
7400		39.062500
7401		42.968750
7402		41.015625
7403		42.968750
7404		41.015625
7405		44.921875
7406		41.015625
7407		44.921875
7408		42.968750
7409		46.875000
7410		44.921875
7411		46.875000
7412		44.921875
7413		46.875000
7414		44.921875
7415		48.828125
7416		44.921875
7417		48.828125
7418		46.875000
7419		48.828125
7420		46.875000
7421		50.781250
7422		48.828125
7423		50.781250
7424		48.828125
7425		52.734375
7426		48.828125
7427		50.781250
7428		48.828125
7429		52.734375
7430		48.828125
7431		52.734375
7432		50.781250
7433		52.734375
7434		50.781250
7435		54.687500
7436		50.781250
7437		54.687500
7438		52.734375
7439		54.687500
7440		52.734375
7441		54.687500
7442		52.734375
7443		56.640625
7444		52.734375
7445		54.687500
7446		52.734375
7447		56.640625
7448		52.734375
7449		56.640625
7450		52.734375
7451		56.640625
7452		54.687500
7453		56.640625
7454		54.687500
7455		56.640625
7456		54.687500
7457		56.640625
7458		52.734375
7459		58.593750
7460		54.687500
7461		56.640625
7462		54.687500
7463		56.640625
7464		54.687500
7465		58.593750
7466		54.687500
7467		56.640625
7468		54.687500
7469		58.593750
7470		54.687500
7471		58.593750
7472		54.687500
7473		56.640625
7474		54.687500
7475		56.640625
7476		54.687500
7477		58.593750
7478		54.687500
7479		56.640625
7480		54.687500
7481		56.640625
7482		54.687500
7483		56.640625
7484		54.687500
7485		56.640625
7486		52.734375
7487		56.640625
7488		52.734375
7489		56.640625
7490		52.734375
7491		56.640625
7492		52.734375
7493		56.640625
7494		52.734375
7495		54.687500
7496		50.781250
7497		54.687500
7498		50.781250
7499		54.687500
7500		50.781250
7501		54.687500
7502		50.781250
7503		54.687500
7504		50.781250
7505		52.734375
7506		48.828125
7507		52.734375
7508		48.828125
7509		52.734375
7510		48.828125
7511		50.781250
7512		48.828125
7513		50.781250
7514		46.875000
7515		50.781250
7516		46.875000
7517		48.828125
7518		46.875000
7519		48.828125
7520		46.875000
7521		48.828125
7522		44.921875
7523		48.828125
7524		42.968750
7525		46.875000
7526		42.968750
7527		46.875000
7528		42.968750
7529		44.921875
7530		41.015625
7531		44.921875
7532		41.015625
7533		44.921875
7534		39.062500
7535		42.968750
7536		39.062500
7537		41.015625
7538		39.062500
7539		41.015625
7540		37.109375
7541		41.015625
7542		35.156250
7543		41.015625
7544		35.156250
7545		39.062500
7546		35.156250
7547		37.109375
7548		33.203125
7549		37.109375
7550		33.203125
7551		37.109375
7552		31.250000
7553		35.156250
7554		31.250000
7555		33.203125
7556		29.296875
7557		31.250000
7558		27.343750
7559		31.250000
7560		27.343750
7561		31.250000
7562		25.390625
7563		29.296875
7564		23.437500
7565		27.343750
7566		23.437500
7567		27.343750
7568		23.437500
7569		25.390625
7570		21.484375
7571		25.390625
7572		19.531250
7573		23.437500
7574		19.531250
7575		21.484375
7576		17.578125
7577		21.484375
7578		15.625000
7579		19.531250
7580		15.625000
7581		19.531250
7582		15.625000
7583		17.578125
7584		13.671875
7585		17.578125
7586		11.718750
7587		15.625000
7588		11.718750
7589		13.671875
7590		9.765625
7591		13.671875
7592		7.812500
7593		11.718750
7594		7.812500
7595		9.765625
7596		5.859375
7597		9.765625
7598		3.906250
7599		9.765625
7600		3.906250
7601		7.812500
7602		1.953125
7603		5.859375
7604		1.953125
7605		5.859375
7606		0.000000
7607		3.906250
7608		0.000000
7609		3.906250
7610		-1.953125
7611		1.953125
7612		-3.906250
7613		0.000000
7614		-3.906250
7615		-1.953125
7616		-5.859375
7617		-1.953125
7618		-7.812500
7619		-3.906250
7620		-7.812500
7621		-3.906250
7622		-7.812500
7623		-5.859375
7624		-9.765625
7625		-5.859375
7626		-11.718750
7627		-7.812500
7628		-11.718750
7629		-7.812500
7630		-11.718750
7631		-9.765625
7632		-13.671875
7633		-9.765625
7634		-15.625000
7635		-11.718750
7636		-15.625000
7637		-11.718750
7638		-17.578125
7639		-13.671875
7640		-17.578125
7641		-13.671875
7642		-17.578125
7643		-15.625000
7644		-19.531250
7645		-15.625000
7646		-19.531250
7647		-17.578125
7648		-21.484375
7649		-17.578125
7650		-21.484375
7651		-17.578125
7652		-21.484375
7653		-19.531250
7654		-23.437500
7655		-19.531250
7656		-23.437500
7657		-21.484375
7658		-25.390625
7659		-21.484375
7660		-25.390625
7661		-21.484375
7662		-25.390625
7663		-23.437500
7664		-27.343750
7665		-23.437500
7666		-27.343750
7667		-23.437500
7668		-27.343750
7669		-23.437500
7670		-27.343750
7671		-25.390625
7672		-29.296875
7673		-25.390625
7674		-29.296875
7675		-25.390625
7676		-31.250000
7677		-25.390625
7678		-29.296875
7679		-27.343750
7680		-29.296875
7681		-27.343750
7682		-31.250000
7683		-27.343750
7684		-31.250000
7685		-27.343750
7686		-31.250000
7687		-27.343750
7688		-31.250000
7689		-29.296875
7690		-31.250000
7691		-29.296875
7692		-31.250000
7693		-29.296875
7694		-33.203125
7695		-29.296875
7696		-31.250000
7697		-29.296875
7698		-33.203125
7699		-29.296875
7700		-31.250000
7701		-29.296875
7702		-31.250000
7703		-29.296875
7704		-31.250000
7705		-29.296875
7706		-31.250000
7707		-29.296875
7708		-33.203125
7709		-29.296875
7710		-31.250000
7711		-27.343750
7712		-31.250000
7713		-29.296875
7714		-31.250000
7715		-29.296875
7716		-33.203125
7717		-27.343750
7718		-31.250000
7719		-27.343750
7720		-31.250000
7721		-27.343750
7722		-29.296875
7723		-27.343750
7724		-29.296875
7725		-27.343750
7726		-29.296875
7727		-25.390625
7728		-29.296875
7729		-25.390625
7730		-27.343750
7731		-25.390625
7732		-29.296875
7733		-25.390625
7734		-27.343750
7735		-25.390625
7736		-27.343750
7737		-23.437500
7738		-25.390625
7739		-23.437500
7740		-25.390625
7741		-21.484375
7742		-25.390625
7743		-21.484375
7744		-25.390625
7745		-21.484375
7746		-23.437500
7747		-21.484375
7748		-23.437500
7749		-19.531250
7750		-21.484375
7751		-19.531250
7752		-21.484375
7753		-19.531250
7754		-21.484375
7755		-17.578125
7756		-19.531250
7757		-17.578125
7758		-19.531250
7759		-15.625000
7760		-19.531250
7761		-15.625000
7762		-17.578125
7763		-15.625000
7764		-17.578125
7765		-13.671875
7766		-17.578125
7767		-11.718750
7768		-15.625000
7769		-11.718750
7770		-13.671875
7771		-9.765625
7772		-13.671875
7773		-9.765625
7774		-11.718750
7775		-9.765625
7776		-11.718750
7777		-7.812500
7778		-11.718750
7779		-7.812500
7780		-9.765625
7781		-5.859375
7782		-7.812500
7783		-3.906250
7784		-7.812500
7785		-3.906250
7786		-5.859375
7787		-1.953125
7788		-5.859375
7789		-1.953125
7790		-3.906250
7791		0.000000
7792		-1.953125
7793		0.000000
7794		-1.953125
7795		1.953125
7796		0.000000
7797		1.953125
7798		0.000000
7799		3.906250
7800		0.000000
7801		5.859375
7802		1.953125
7803		5.859375
7804		3.906250
7805		5.859375
7806		5.859375
7807		7.812500
7808		5.859375
7809		9.765625
7810		5.859375
7811		9.765625
7812		7.812500
7813		11.718750
7814		9.765625
7815		11.718750
7816		9.765625
7817		13.671875
7818		11.718750
7819		15.625000
7820		13.671875
7821		15.625000
7822		13.671875
7823		17.578125
7824		13.671875
7825		17.578125
7826		15.625000
7827		19.531250
7828		15.625000
7829		21.484375
7830		19.531250
7831		21.484375
7832		19.531250
7833		23.437500
7834		21.484375
7835		23.437500
7836		21.484375
7837		25.390625
7838		21.484375
7839		25.390625
7840		23.437500
7841		27.343750
7842		25.390625
7843		27.343750
7844		25.390625
7845		29.296875
7846		27.343750
7847		29.296875
7848		29.296875
7849		31.250000
7850		29.296875
7851		31.250000
7852		29.296875
7853		33.203125
7854		31.250000
7855		35.156250
7856		31.250000
7857		35.156250
7858		33.203125
7859		37.109375
7860		33.203125
7861		37.109375
7862		35.156250
7863		39.062500
7864		37.109375
7865		39.062500
7866		37.109375
7867		41.015625
7868		37.109375
7869		41.015625
7870		39.062500
7871		42.968750
7872		39.062500
7873		42.968750
7874		39.062500
7875		42.968750
7876		41.015625
7877		42.968750
7878		41.015625
7879		44.921875
7880		42.968750
7881		44.921875
7882		42.968750
7883		46.875000
7884		42.968750
7885		46.875000
7886		44.921875
7887		48.828125
7888		44.921875
7889		48.828125
7890		46.875000
7891		48.828125
7892		46.875000
7893		48.828125
7894		46.875000
7895		50.781250
7896		46.875000
7897		50.781250
7898		48.828125
7899		50.781250
7900		48.828125
7901		52.734375
7902		48.828125
7903		52.734375
7904		48.828125
7905		52.734375
7906		50.781250
7907		54.687500
7908		50.781250
7909		54.687500
7910		50.781250
7911		54.687500
7912		52.734375
7913		54.687500
7914		52.734375
7915		54.687500
7916		52.734375
7917		54.687500
7918		50.781250
7919		56.640625
7920		52.734375
7921		56.640625
7922		54.687500
7923		56.640625
7924		52.734375
7925		56.640625
7926		52.734375
7927		56.640625
7928		54.687500
7929		56.640625
7930		54.687500
7931		56.640625
7932		54.687500
7933		56.640625
7934		52.734375
7935		58.593750
7936		54.687500
7937		56.640625
7938		54.687500
7939		56.640625
7940		54.687500
7941		56.640625
7942		54.687500
7943		56.640625
7944		54.687500
7945		56.640625
7946		52.734375
7947		56.640625
7948		54.687500
7949		56.640625
7950		54.687500
7951		56.640625
7952		54.687500
7953		56.640625
7954		54.687500
7955		56.640625
7956		52.734375
7957		56.640625
7958		52.734375
7959		56.640625
7960		52.734375
7961		56.640625
7962		50.781250
7963		54.687500
7964		52.734375
7965		54.687500
7966		52.734375
7967		54.687500
7968		50.781250
7969		54.687500
7970		50.781250
7971		54.687500
7972		50.781250
7973		52.734375
7974		48.828125
7975		52.734375
7976		48.828125
7977		52.734375
7978		48.828125
7979		52.734375
7980		48.828125
7981		52.734375
7982		48.828125
7983		50.781250
7984		46.875000
7985		50.781250
7986		46.875000
7987		48.828125
7988		46.875000
7989		48.828125
7990		44.921875
7991		48.828125
7992		44.921875
7993		46.875000
7994		42.968750
7995		46.875000
7996		42.968750
7997		46.875000
7998		42.968750
7999		44.921875
8000		41.015625
8001		44.921875
8002		41.015625
8003		44.921875
8004		39.062500
8005		42.968750
8006		39.062500
8007		41.015625
8008		39.062500
8009		41.015625
8010		37.109375
8011		41.015625
8012		35.156250
8013		39.062500
8014		35.156250
8015		39.062500
8016		35.156250
8017		37.109375
8018		33.203125
8019		37.109375
8020		33.203125
8021		35.156250
8022		31.250000
8023		35.156250
8024		29.296875
8025		33.203125
8026		29.296875
8027		33.203125
8028		29.296875
8029		31.250000
8030		27.343750
8031		31.250000
8032		27.343750
8033		29.296875
8034		25.390625
8035		27.343750
8036		23.437500
8037		27.343750
8038		23.437500
8039		25.390625
8040		21.484375
8041		25.390625
8042		19.531250
8043		25.390625
8044		19.531250
8045		23.437500
8046		17.578125
8047		21.484375
8048		17.578125
8049		19.531250
8050		15.625000
8051		19.531250
8052		13.671875
8053		17.578125
8054		13.671875
8055		17.578125
8056		11.718750
8057		15.625000
8058		11.718750
8059		13.671875
8060		9.765625
8061		13.671875
8062		7.812500
8063		13.671875
8064		7.812500
8065		11.718750
8066		5.859375
8067		9.765625
8068		3.906250
8069		9.765625
8070		3.906250
8071		7.812500
8072		3.906250
8073		5.859375
8074		1.953125
8075		3.906250
8076		0.000000
8077		3.906250
8078		0.000000
8079		1.953125
8080		-1.953125
8081		1.953125
8082		-1.953125
8083		0.000000
8084		-3.906250
8085		0.000000
8086		-5.859375
8087		-1.953125
8088		-5.859375
8089		-1.953125
8090		-7.812500
8091		-3.906250
8092		-7.812500
8093		-5.859375
8094		-9.765625
8095		-5.859375
8096		-9.765625
8097		-7.812500
8098		-11.718750
8099		-7.812500
8100		-11.718750
8101		-9.765625
8102		-13.671875
8103		-9.765625
8104		-15.625000
8105		-11.718750
8106		-15.625000
8107		-11.718750
8108		-17.578125
8109		-11.718750
8110		-17.578125
8111		-13.671875
8112		-17.578125
8113		-13.671875
8114		-19.531250
8115		-15.625000
8116		-19.531250
8117		-17.578125
8118		-21.484375
8119		-17.578125
8120		-21.484375
8121		-17.578125
8122		-21.484375
8123		-19.531250
8124		-23.437500
8125		-19.531250
8126		-23.437500
8127		-19.531250
8128		-25.390625
8129		-21.484375
8130		-25.390625
8131		-21.484375
8132		-25.390625
8133		-23.437500
8134		-25.390625
8135		-23.437500
8136		-27.343750
8137		-23.437500
8138		-27.343750
8139		-25.390625
8140		-27.343750
8141		-25.390625
8142		-29.296875
8143		-25.390625
8144		-29.296875
8145		-25.390625
8146		-29.296875
8147		-27.343750
8148		-29.296875
8149		-25.390625
8150		-29.296875
8151		-27.343750
8152		-31.250000
8153		-27.343750
8154		-31.250000
8155		-27.343750
8156		-31.250000
8157		-27.343750
8158		-31.250000
8159		-29.296875
8160		-31.250000
8161		-29.296875
8162		-31.250000
8163		-29.296875
8164		-33.203125
8165		-29.296875
8166		-31.250000
8167		-29.296875
8168		-31.250000
8169		-29.296875
8170		-33.203125
8171		-29.296875
8172		-31.250000
8173		-29.296875
8174		-33.203125
8175		-29.296875
8176		-33.203125
8177		-29.296875
8178		-31.250000
8179		-29.296875
8180		-33.203125
8181		-29.296875
8182		-33.203125
8183		-29.296875
8184		-31.250000
8185		-29.296875
8186		-33.203125
8187		-27.343750
8188		-31.250000
8189		-27.343750
8190		-31.250000
8191		-29.296875
8192		-31.250000
8193		-27.343750
8194		-31.250000
8195		-27.343750
8196		-29.296875
8197		-27.343750
8198		-29.296875
8199		-27.343750
8200		-29.296875
8201		-27.343750
8202		-29.296875
8203		-25.390625
8204		-29.296875
8205		-25.390625
8206		-27.343750
8207		-25.390625
8208		-27.343750
8209		-23.437500
8210		-27.343750
8211		-23.437500
8212		-25.390625
8213		-23.437500
8214		-25.390625
8215		-21.484375
8216		-25.390625
8217		-21.484375
8218		-23.437500
8219		-21.484375
8220		-23.437500
8221		-19.531250
8222		-21.484375
8223		-19.531250
8224		-21.484375
8225		-19.531250
8226		-21.484375
8227		-17.578125
8228		-21.484375
8229		-17.578125
8230		-19.531250
8231		-17.578125
8232		-19.531250
8233		-15.625000
8234		-17.578125
8235		-15.625000
8236		-17.578125
8237		-13.671875
8238		-15.625000
8239		-13.671875
8240		-15.625000
8241		-11.718750
8242		-13.671875
8243		-11.718750
8244		-13.671875
8245		-9.765625
8246		-11.718750
8247		-9.765625
8248		-11.718750
8249		-7.812500
8250		-9.765625
8251		-7.812500
8252		-9.765625
8253		-5.859375
8254		-9.765625
8255		-5.859375
8256		-7.812500
8257		-3.906250
8258		-5.859375
8259		-3.906250
8260		-5.859375
8261		-1.953125
8262		-3.906250
8263		-1.953125
8264		-3.906250
8265		0.000000
8266		-1.953125
8267		0.000000
8268		0.000000
8269		1.953125
8270		0.000000
8271		3.906250
8272		1.953125
8273		5.859375
8274		1.953125
8275		5.859375
8276		3.906250
8277		7.812500
8278		5.859375
8279		7.812500
8280		5.859375
8281		9.765625
8282		5.859375
8283		11.718750
8284		7.812500
8285		11.718750
8286		9.765625
8287		13.671875
8288		9.765625
8289		13.671875
8290		11.718750
8291		15.625000
8292		13.671875
8293		15.625000
8294		13.671875
8295		17.578125
8296		13.671875
8297		17.578125
8298		15.625000
8299		19.531250
8300		17.578125
8301		19.531250
8302		17.578125
8303		21.484375
8304		19.531250
8305		23.437500
8306		19.531250
8307		23.437500
8308		21.484375
8309		25.390625
8310		23.437500
8311		25.390625
8312		23.437500
8313		27.343750
8314		25.390625
8315		27.343750
8316		25.390625
8317		29.296875
8318		27.343750
8319		29.296875
8320		27.343750
8321		31.250000
8322		29.296875
8323		33.203125
8324		29.296875
8325		33.203125
8326		31.250000
8327		33.203125
8328		31.250000
8329		35.156250
8330		33.203125
8331		37.109375
8332		33.203125
8333		37.109375
8334		35.156250
8335		37.109375
8336		35.156250
8337		39.062500
8338		35.156250
8339		39.062500
8340		37.109375
8341		41.015625
8342		39.062500
8343		41.015625
8344		39.062500
8345		42.968750
8346		41.015625
8347		42.968750
8348		41.015625
8349		44.921875
8350		41.015625
8351		44.921875
8352		42.968750
8353		44.921875
8354		42.968750
8355		46.875000
8356		42.968750
8357		46.875000
8358		44.921875
8359		46.875000
8360		44.921875
8361		48.828125
8362		44.921875
8363		48.828125
8364		46.875000
8365		48.828125
8366		44.921875
8367		50.781250
8368		48.828125
8369		50.781250
8370		48.828125
8371		50.781250
8372		48.828125
8373		52.734375
8374		48.828125
8375		52.734375
8376		48.828125
8377		52.734375
8378		50.781250
8379		52.734375
8380		50.781250
8381		52.734375
8382		50.781250
8383		54.687500
8384		50.781250
8385		54.687500
8386		52.734375
8387		54.687500
8388		52.734375
8389		54.687500
8390		52.734375
8391		56.640625
8392		52.734375
8393		56.640625
8394		52.734375
8395		54.687500
8396		52.734375
8397		56.640625
8398		52.734375
8399		56.640625
8400		52.734375
8401		56.640625
8402		54.687500
8403		56.640625
8404		52.734375
8405		56.640625
8406		54.687500
8407		56.640625
8408		54.687500
8409		56.640625
8410		54.687500
8411		56.640625
8412		54.687500
8413		56.640625
8414		54.687500
8415		56.640625
8416		54.687500
8417		56.640625
8418		54.687500
8419		56.640625
8420		54.687500
8421		56.640625
8422		52.734375
8423		56.640625
8424		52.734375
8425		56.640625
8426		52.734375
8427		56.640625
8428		52.734375
8429		56.640625
8430		52.734375
8431		56.640625
8432		52.734375
8433		56.640625
8434		50.781250
8435		54.687500
8436		52.734375
8437		54.687500
8438		50.781250
8439		54.687500
8440		50.781250
8441		54.687500
8442		50.781250
8443		54.687500
8444		50.781250
8445		54.687500
8446		48.828125
8447		52.734375
8448		48.828125
8449		52.734375
8450		48.828125
8451		50.781250
8452		48.828125
8453		50.781250
8454		46.875000
8455		50.781250
8456		46.875000
8457		50.781250
8458		46.875000
8459		50.781250
8460		46.875000
8461		48.828125
8462		44.921875
8463		48.828125
8464		42.968750
8465		46.875000
8466		42.968750
8467		46.875000
8468		42.968750
8469		44.921875
8470		42.968750
8471		44.921875
8472		41.015625
8473		44.921875
8474		41.015625
8475		44.921875
8476		39.062500
8477		42.968750
8478		39.062500
8479		41.015625
8480		37.109375
8481		41.015625
8482		37.109375
8483		41.015625
8484		37.109375
8485		39.062500
8486		35.156250
8487		37.109375
8488		33.203125
8489		37.109375
8490		33.203125
8491		37.109375
8492		33.203125
8493		35.156250
8494		31.250000
8495		33.203125
8496		29.296875
8497		33.203125
8498		29.296875
8499		31.250000
8500		27.343750
8501		31.250000
8502		27.343750
8503		29.296875
8504		25.390625
8505		29.296875
8506		23.437500
8507		29.296875
8508		23.437500
8509		27.343750
8510		21.484375
8511		25.390625
8512		21.484375
8513		23.437500
8514		19.531250
8515		23.437500
8516		19.531250
8517		21.484375
8518		17.578125
8519		21.484375
8520		15.625000
8521		19.531250
8522		15.625000
8523		17.578125
8524		13.671875
8525		17.578125
8526		11.718750
8527		17.578125
8528		11.718750
8529		15.625000
8530		11.718750
8531		13.671875
8532		9.765625
8533		13.671875
8534		7.812500
8535		11.718750
8536		7.812500
8537		9.765625
8538		5.859375
8539		9.765625
8540		3.906250
8541		7.812500
8542		3.906250
8543		7.812500
8544		1.953125
8545		5.859375
8546		1.953125
8547		3.906250
8548		0.000000
8549		3.906250
8550		-1.953125
8551		1.953125
8552		-1.953125
8553		0.000000
8554		-3.906250
8555		0.000000
8556		-5.859375
8557		-1.953125
8558		-5.859375
8559		-1.953125
8560		-5.859375
8561		-3.906250
8562		-7.812500
8563		-3.906250
8564		-9.765625
8565		-5.859375
8566		-9.765625
8567		-5.859375
8568		-11.718750
8569		-7.812500
8570		-11.718750
8571		-9.765625
8572		-13.671875
8573		-9.765625
8574		-13.671875
8575		-9.765625
8576		-15.625000
8577		-11.718750
8578		-15.625000
8579		-11.718750
8580		-17.578125
8581		-13.671875
8582		-17.578125
8583		-15.625000
8584		-19.531250
8585		-13.671875
8586		-19.531250
8587		-15.625000
8588		-19.531250
8589		-17.578125
8590		-21.484375
8591		-17.578125
8592		-21.484375
8593		-17.578125
8594		-23.437500
8595		-19.531250
8596		-23.437500
8597		-21.484375
8598		-23.437500
8599		-21.484375
8600		-25.390625
8601		-21.484375
8602		-25.390625
8603		-21.484375
8604		-25.390625
8605		-23.437500
8606		-27.343750
8607		-23.437500
8608		-27.343750
8609		-23.437500
8610		-27.343750
8611		-25.390625
8612		-29.296875
8613		-25.390625
8614		-29.296875
8615		-25.390625
8616		-29.296875
8617		-25.390625
8618		-29.296875
8619		-25.390625
8620		-29.296875
8621		-27.343750
8622		-29.296875
8623		-27.343750
8624		-31.250000
8625		-27.343750
8626		-31.250000
8627		-27.343750
8628		-31.250000
8629		-29.296875
8630		-31.250000
8631		-29.296875
8632		-33.203125
8633		-27.343750
8634		-31.250000
8635		-29.296875
8636		-33.203125
8637		-29.296875
8638		-31.250000
8639		-29.296875
8640		-33.203125
8641		-29.296875
8642		-33.203125
8643		-29.296875
8644		-33.203125
8645		-29.296875
8646		-33.203125
8647		-29.296875
8648		-33.203125
8649		-29.296875
8650		-33.203125
8651		-27.343750
8652		-33.203125
8653		-29.296875
8654		-31.250000
8655		-29.296875
8656		-31.250000
8657		-29.296875
8658		-33.203125
8659		-27.343750
8660		-33.203125
8661		-27.343750
8662		-33.203125
8663		-27.343750
8664		-31.250000
8665		-25.390625
8666		-33.203125
8667		-25.390625
8668		-31.250000
8669		-25.390625
8670		-29.296875
8671		-27.343750
8672		-29.296875
8673		-27.343750
8674		-29.296875
8675		-25.390625
8676		-29.296875
8677		-23.437500
8678		-29.296875
8679		-23.437500
8680		-29.296875
8681		-21.484375
8682		-27.343750
8683		-23.437500
8684		-27.343750
8685		-21.484375
8686		-25.390625
8687		-21.484375
8688		-23.437500
8689		-21.484375
8690		-25.390625
8691		-19.531250
8692		-25.390625
8693		-17.578125
8694		-23.437500
8695		-17.578125
8696		-23.437500
8697		-17.578125
8698		-23.437500
8699		-17.578125
8700		-21.484375
8701		-15.625000
8702		-21.484375
8703		-15.625000
8704		-17.578125
8705		-15.625000
8706		-17.578125
8707		-15.625000
8708		-17.578125
8709		-11.718750
8710		-17.578125
8711		-9.765625
8712		-15.625000
8713		-9.765625
8714		-15.625000
8715		-9.765625
8716		-15.625000
8717		-7.812500
8718		-13.671875
8719		-7.812500
8720		-11.718750
8721		-7.812500
8722		-9.765625
8723		-7.812500
8724		-9.765625
8725		-3.906250
8726		-9.765625
8727		-3.906250
8728		-9.765625
8729		-1.953125
8730		-7.812500
8731		-1.953125
8732		-5.859375
8733		0.000000
8734		-3.906250
8735		0.000000
8736		-3.906250
8737		1.953125
8738		-1.953125
8739		1.953125
8740		-1.953125
8741		3.906250
8742		0.000000
8743		3.906250
8744		0.000000
8745		5.859375
8746		1.953125
8747		7.812500
8748		1.953125
8749		7.812500
8750		1.953125
8751		9.765625
8752		3.906250
8753		11.718750
8754		7.812500
8755		9.765625
8756		7.812500
8757		11.718750
8758		7.812500
8759		13.671875
8760		7.812500
8761		15.625000
8762		9.765625
8763		17.578125
8764		11.718750
8765		17.578125
8766		11.718750
8767		19.531250
8768		13.671875
8769		19.531250
8770		15.625000
8771		19.531250
8772		17.578125
8773		19.531250
8774		19.531250
8775		23.437500
8776		19.531250
8777		23.437500
8778		19.531250
8779		25.390625
8780		21.484375
8781		25.390625
8782		21.484375
8783		27.343750
8784		23.437500
8785		27.343750
8786		23.437500
8787		29.296875
8788		27.343750
8789		29.296875
8790		27.343750
8791		31.250000
8792		27.343750
8793		33.203125
8794		27.343750
8795		33.203125
8796		29.296875
8797		35.156250
8798		29.296875
8799		35.156250
8800		31.250000
8801		37.109375
8802		31.250000
8803		39.062500
8804		33.203125
8805		37.109375
8806		35.156250
8807		37.109375
8808		35.156250
8809		41.015625
8810		35.156250
8811		41.015625
8812		35.156250
8813		42.968750
8814		37.109375
8815		42.968750
8816		37.109375
8817		44.921875
8818		37.109375
8819		44.921875
8820		39.062500
8821		44.921875
8822		41.015625
8823		44.921875
8824		41.015625
8825		46.875000
8826		41.015625
8827		48.828125
8828		42.968750
8829		48.828125
8830		42.968750
8831		48.828125
8832		42.968750
8833		50.781250
8834		44.921875
8835		50.781250
8836		44.921875
8837		50.781250
8838		46.875000
8839		50.781250
8840		48.828125
8841		50.781250
8842		46.875000
8843		52.734375
8844		46.875000
8845		52.734375
8846		46.875000
8847		54.687500
8848		48.828125
8849		54.687500
8850		48.828125
8851		54.687500
8852		48.828125
8853		54.687500
8854		50.781250
8855		54.687500
8856		52.734375
8857		54.687500
8858		50.781250
8859		56.640625
8860		50.781250
8861		56.640625
8862		50.781250
8863		56.640625
8864		50.781250
8865		56.640625
8866		50.781250
8867		56.640625
8868		50.781250
8869		58.593750
8870		52.734375
8871		58.593750
8872		54.687500
8873		56.640625
8874		54.687500
8875		56.640625
8876		52.734375
8877		58.593750
8878		52.734375
8879		58.593750
8880		52.734375
8881		58.593750
8882		52.734375
8883		58.593750
8884		50.781250
8885		58.593750
8886		52.734375
8887		58.593750
8888		54.687500
8889		56.640625
8890		54.687500
8891		56.640625
8892		50.781250
8893		58.593750
8894		52.734375
8895		58.593750
8896		50.781250
8897		58.593750
8898		50.781250
8899		56.640625
8900		50.781250
8901		56.640625
8902		50.781250
8903		56.640625
8904		50.781250
8905		56.640625
8906		52.734375
8907		54.687500
8908		50.781250
8909		54.687500
8910		48.828125
8911		56.640625
8912		48.828125
8913		54.687500
8914		48.828125
8915		54.687500
8916		48.828125
8917		54.687500
8918		46.875000
8919		54.687500
8920		46.875000
8921		52.734375
8922		48.828125
8923		50.781250
8924		48.828125
8925		50.781250
8926		44.921875
8927		52.734375
8928		44.921875
8929		50.781250
8930		42.968750
8931		50.781250
8932		42.968750
8933		50.781250
8934		42.968750
8935		48.828125
8936		41.015625
8937		48.828125
8938		41.015625
8939		46.875000
8940		42.968750
8941		44.921875
8942		41.015625
8943		46.875000
8944		39.062500
8945		44.921875
8946		37.109375
8947		44.921875
8948		37.109375
8949		42.968750
8950		35.156250
8951		42.968750
8952		35.156250
8953		41.015625
8954		35.156250
8955		41.015625
8956		35.156250
8957		39.062500
8958		35.156250
8959		37.109375
8960		31.250000
8961		37.109375
8962		31.250000
8963		37.109375
8964		29.296875
8965		37.109375
8966		29.296875
8967		35.156250
8968		27.343750
8969		35.156250
8970		27.343750
8971		33.203125
8972		27.343750
8973		31.250000
8974		27.343750
8975		29.296875
8976		23.437500
8977		29.296875
8978		21.484375
8979		29.296875
8980		21.484375
8981		27.343750
8982		19.531250
8983		27.343750
8984		19.531250
8985		25.390625
8986		17.578125
8987		23.437500
8988		17.578125
8989		23.437500
8990		17.578125
8991		19.531250
8992		15.625000
8993		19.531250
8994		13.671875
8995		19.531250
8996		11.718750
8997		17.578125
8998		9.765625
8999		17.578125
9000		9.765625
9001		15.625000
9002		7.812500
9003		15.625000
9004		7.812500
9005		13.671875
9006		7.812500
9007		11.718750
9008		7.812500
9009		9.765625
9010		3.906250
9011		9.765625
9012		1.953125
9013		9.765625
9014		0.000000
9015		7.812500
9016		0.000000
9017		5.859375
9018		-1.953125
9019		5.859375
9020		-1.953125
9021		3.906250
9022		-1.953125
9023		3.906250
9024		-1.953125
9025		0.000000
9026		-5.859375
9027		0.000000
9028		-5.859375
9029		0.000000
9030		-7.812500
9031		-1.953125
9032		-9.765625
9033		-1.953125
9034		-9.765625
9035		-3.906250
9036		-11.718750
9037		-3.906250
9038		-11.718750
9039		-5.859375
9040		-11.718750
9041		-7.812500
9042		-11.718750
9043		-9.765625
9044		-15.625000
9045		-9.765625
9046		-15.625000
9047		-9.765625
9048		-17.578125
9049		-11.718750
9050		-19.531250
9051		-11.718750
9052		-19.531250
9053		-11.718750
9054		-19.531250
9055		-13.671875
9056		-19.531250
9057		-15.625000
9058		-19.531250
9059		-17.578125
9060		-21.484375
9061		-15.625000
9062		-23.437500
9063		-17.578125
9064		-23.437500
9065		-17.578125
9066		-25.390625
9067		-17.578125
9068		-25.390625
9069		-19.531250
9070		-27.343750
9071		-19.531250
9072		-27.343750
9073		-21.484375
9074		-25.390625
9075		-23.437500
9076		-27.343750
9077		-23.437500
9078		-29.296875
9079		-23.437500
9080		-29.296875
9081		-23.437500
9082		-29.296875
9083		-23.437500
9084		-31.250000
9085		-23.437500
9086		-31.250000
9087		-25.390625
9088		-31.250000
9089		-25.390625
9090		-29.296875
9091		-27.343750
9092		-29.296875
9093		-27.343750
9094		-33.203125
9095		-27.343750
9096		-33.203125
9097		-25.390625
9098		-33.203125
9099		-27.343750
9100		-33.203125
9101		-27.343750
9102		-33.203125
9103		-27.343750
9104		-35.156250
9105		-27.343750
9106		-33.203125
9107		-29.296875
9108		-31.250000
9109		-29.296875
9110		-35.156250
9111		-27.343750
9112		-35.156250
9113		-27.343750
9114		-35.156250
9115		-27.343750
9116		-35.156250
9117		-27.343750
9118		-35.156250
9119		-27.343750
9120		-35.156250
9121		-29.296875
9122		-35.156250
9123		-27.343750
9124		-31.250000
9125		-29.296875
9126		-33.203125
9127		-29.296875
9128		-33.203125
9129		-27.343750
9130		-35.156250
9131		-27.343750
9132		-33.203125
9133		-27.343750
9134		-33.203125
9135		-27.343750
9136		-33.203125
9137		-27.343750
9138		-33.203125
9139		-25.390625
9140		-33.203125
9141		-27.343750
9142		-29.296875
9143		-27.343750
9144		-31.250000
9145		-23.437500
9146		-31.250000
9147		-23.437500
9148		-31.250000
9149		-23.437500
9150		-29.296875
9151		-23.437500
9152		-29.296875
9153		-23.437500
9154		-29.296875
9155		-21.484375
9156		-27.343750
9157		-21.484375
9158		-25.390625
9159		-23.437500
9160		-25.390625
9161		-23.437500
9162		-27.343750
9163		-19.531250
9164		-25.390625
9165		-19.531250
9166		-25.390625
9167		-17.578125
9168		-23.437500
9169		-17.578125
9170		-23.437500
9171		-15.625000
9172		-23.437500
9173		-15.625000
9174		-21.484375
9175		-15.625000
9176		-19.531250
9177		-15.625000
9178		-19.531250
9179		-13.671875
9180		-19.531250
9181		-11.718750
9182		-17.578125
9183		-11.718750
9184		-17.578125
9185		-9.765625
9186		-15.625000
9187		-9.765625
9188		-15.625000
9189		-7.812500
9190		-13.671875
9191		-7.812500
9192		-11.718750
9193		-7.812500
9194		-11.718750
9195		-5.859375
9196		-11.718750
9197		-3.906250
9198		-9.765625
9199		-3.906250
9200		-9.765625
9201		-1.953125
9202		-7.812500
9203		-1.953125
9204		-7.812500
9205		0.000000
9206		-5.859375
9207		1.953125
9208		-1.953125
9209		0.000000
9210		-1.953125
9211		0.000000
9212		-3.906250
9213		3.906250
9214		-1.953125
9215		3.906250
9216		0.000000
9217		5.859375
9218		0.000000
9219		7.812500
9220		1.953125
9221		7.812500
9222		1.953125
9223		9.765625
9224		3.906250
9225		9.765625
9226		7.812500
9227		9.765625
9228		5.859375
9229		13.671875
9230		7.812500
9231		13.671875
9232		7.812500
9233		15.625000
9234		9.765625
9235		15.625000
9236		9.765625
9237		17.578125
9238		11.718750
9239		19.531250
9240		13.671875
9241		19.531250
9242		15.625000
9243		19.531250
9244		17.578125
9245		21.484375
9246		17.578125
9247		23.437500
9248		17.578125
9249		23.437500
9250		19.531250
9251		25.390625
9252		19.531250
9253		25.390625
9254		21.484375
9255		27.343750
9256		21.484375
9257		29.296875
9258		23.437500
9259		27.343750
9260		25.390625
9261		29.296875
9262		25.390625
9263		31.250000
9264		25.390625
9265		33.203125
9266		27.343750
9267		33.203125
9268		27.343750
9269		35.156250
9270		29.296875
9271		35.156250
9272		29.296875
9273		37.109375
9274		31.250000
9275		37.109375
9276		33.203125
9277		37.109375
9278		33.203125
9279		39.062500
9280		33.203125
9281		41.015625
9282		33.203125
9283		41.015625
9284		35.156250
9285		42.968750
9286		37.109375
9287		42.968750
9288		37.109375
9289		42.968750
9290		39.062500
9291		44.921875
9292		41.015625
9293		42.968750
9294		41.015625
9295		44.921875
9296		41.015625
9297		46.875000
9298		41.015625
9299		46.875000
9300		41.015625
9301		48.828125
9302		42.968750
9303		48.828125
9304		42.968750
9305		48.828125
9306		42.968750
9307		50.781250
9308		44.921875
9309		50.781250
9310		46.875000
9311		48.828125
9312		46.875000
9313		52.734375
9314		46.875000
9315		52.734375
9316		46.875000
9317		52.734375
9318		46.875000
9319		52.734375
9320		46.875000
9321		54.687500
9322		48.828125
9323		54.687500
9324		48.828125
9325		54.687500
9326		50.781250
9327		52.734375
9328		50.781250
9329		54.687500
9330		48.828125
9331		56.640625
9332		50.781250
9333		56.640625
9334		50.781250
9335		56.640625
9336		50.781250
9337		56.640625
9338		50.781250
9339		56.640625
9340		50.781250
9341		58.593750
9342		52.734375
9343		58.593750
9344		52.734375
9345		56.640625
9346		50.781250
9347		58.593750
9348		50.781250
9349		58.593750
9350		50.781250
9351		58.593750
9352		52.734375
9353		58.593750
9354		50.781250
9355		58.593750
9356		50.781250
9357		58.593750
9358		50.781250
9359		58.593750
9360		52.734375
9361		56.640625
9362		52.734375
9363		56.640625
9364		50.781250
9365		56.640625
9366		50.781250
9367		56.640625
9368		50.781250
9369		56.640625
9370		50.781250
9371		56.640625
9372		50.781250
9373		56.640625
9374		50.781250
9375		56.640625
9376		52.734375
9377		54.687500
9378		52.734375
9379		54.687500
9380		48.828125
9381		56.640625
9382		48.828125
9383		54.687500
9384		48.828125
9385		54.687500
9386		46.875000
9387		54.687500
9388		46.875000
9389		54.687500
9390		46.875000
9391		54.687500
9392		46.875000
9393		52.734375
9394		48.828125
9395		50.781250
9396		46.875000
9397		50.781250
9398		44.921875
9399		50.781250
9400		42.968750
9401		50.781250
9402		42.968750
9403		50.781250
9404		42.968750
9405		48.828125
9406		42.968750
9407		48.828125
9408		42.968750
9409		46.875000
9410		42.968750
9411		44.921875
9412		41.015625
9413		44.921875
9414		39.062500
9415		44.921875
9416		39.062500
9417		44.921875
9418		37.109375
9419		42.968750
9420		37.109375
9421		42.968750
9422		35.156250
9423		41.015625
9424		35.156250
9425		41.015625
9426		35.156250
9427		41.015625
9428		35.156250
9429		37.109375
9430		31.250000
9431		39.062500
9432		31.250000
9433		37.109375
9434		31.250000
9435		37.109375
9436		29.296875
9437		35.156250
9438		27.343750
9439		35.156250
9440		27.343750
9441		33.203125
9442		25.390625
9443		33.203125
9444		27.343750
9445		29.296875
9446		25.390625
9447		29.296875
9448		23.437500
9449		29.296875
9450		21.484375
9451		29.296875
9452		21.484375
9453		27.343750
9454		19.531250
9455		25.390625
9456		17.578125
9457		25.390625
9458		17.578125
9459		25.390625
9460		17.578125
9461		21.484375
9462		17.578125
9463		19.531250
9464		13.671875
9465		19.531250
9466		11.718750
9467		19.531250
9468		11.718750
9469		17.578125
9470		9.765625
9471		17.578125
9472		9.765625
9473		15.625000
9474		7.812500
9475		13.671875
9476		5.859375
9477		13.671875
9478		7.812500
9479		9.765625
9480		3.906250
9481		9.765625
9482		1.953125
9483		9.765625
9484		1.953125
9485		9.765625
9486		0.000000
9487		5.859375
9488		0.000000
9489		5.859375
9490		-1.953125
9491		5.859375
9492		-1.953125
9493		3.906250
9494		-1.953125
9495		0.000000
9496		-3.906250
9497		0.000000
9498		-5.859375
9499		0.000000
9500		-7.812500
9501		0.000000
9502		-7.812500
9503		-1.953125
9504		-9.765625
9505		-1.953125
9506		-11.718750
9507		-3.906250
9508		-11.718750
9509		-5.859375
9510		-11.718750
9511		-5.859375
9512		-11.718750
9513		-9.765625
9514		-13.671875
9515		-9.765625
9516		-15.625000
9517		-9.765625
9518		-17.578125
9519		-9.765625
9520		-17.578125
9521		-11.718750
9522		-19.531250
9523		-11.718750
9524		-19.531250
9525		-13.671875
9526		-21.484375
9527		-13.671875
9528		-19.531250
9529		-17.578125
9530		-21.484375
9531		-17.578125
9532		-23.437500
9533		-15.625000
9534		-23.437500
9535		-17.578125
9536		-25.390625
9537		-17.578125
9538		-25.390625
9539		-19.531250
9540		-27.343750
9541		-19.531250
9542		-27.343750
9543		-19.531250
9544		-25.390625
9545		-23.437500
9546		-25.390625
9547		-23.437500
9548		-29.296875
9549		-23.437500
9550		-29.296875
9551		-23.437500
9552		-31.250000
9553		-23.437500
9554		-31.250000
9555		-23.437500
9556		-31.250000
9557		-25.390625
9558		-31.250000
9559		-25.390625
9560		-31.250000
9561		-25.390625
9562		-31.250000
9563		-27.343750
9564		-33.203125
9565		-27.343750
9566		-33.203125
9567		-27.343750
9568		-35.156250
9569		-27.343750
9570		-33.203125
9571		-27.343750
9572		-33.203125
9573		-27.343750
9574		-35.156250
9575		-27.343750
9576		-35.156250
9577		-27.343750
9578		-33.203125
9579		-31.250000
9580		-33.203125
9581		-31.250000
9582		-35.156250
9583		-29.296875
9584		-35.156250
9585		-29.296875
9586		-35.156250
9587		-29.296875
9588		-35.156250
9589		-29.296875
9590		-35.156250
9591		-29.296875
9592		-35.156250
9593		-29.296875
9594		-35.156250
9595		-29.296875
9596		-33.203125
9597		-31.250000
9598		-35.156250
9599		-27.343750
9600		-33.203125
9601		-27.343750
9602		-35.156250
9603		-27.343750
9604		-33.203125
9605		-27.343750
9606		-33.203125
9607		-27.343750
9608		-33.203125
9609		-27.343750
9610		-33.203125
9611		-25.390625
9612		-31.250000
9613		-27.343750
9614		-29.296875
9615		-27.343750
9616		-31.250000
9617		-25.390625
9618		-31.250000
9619		-23.437500
9620		-31.250000
9621		-23.437500
9622		-29.296875
9623		-23.437500
9624		-29.296875
9625		-23.437500
9626		-29.296875
9627		-21.484375
9628		-25.390625
9629		-23.437500
9630		-25.390625
9631		-23.437500
9632		-27.343750
9633		-19.531250
9634		-25.390625
9635		-19.531250
9636		-25.390625
9637		-19.531250
9638		-25.390625
9639		-19.531250
9640		-23.437500
9641		-17.578125
9642		-23.437500
9643		-15.625000
9644		-21.484375
9645		-17.578125
9646		-19.531250
9647		-17.578125
9648		-19.531250
9649		-15.625000
9650		-19.531250
9651		-13.671875
9652		-19.531250
9653		-11.718750
9654		-17.578125
9655		-11.718750
9656		-17.578125
9657		-9.765625
9658		-15.625000
9659		-9.765625
9660		-15.625000
9661		-7.812500
9662		-11.718750
9663		-9.765625
9664		-11.718750
9665		-7.812500
9666		-11.718750
9667		-5.859375
9668		-11.718750
9669		-3.906250
9670		-9.765625
9671		-3.906250
9672		-9.765625
9673		-1.953125
9674		-7.812500
9675		-1.953125
9676		-5.859375
9677		0.000000
9678		-5.859375
9679		0.000000
9680		-1.953125
9681		0.000000
9682		-1.953125
9683		3.906250
9684		-1.953125
9685		3.906250
9686		-1.953125
9687		5.859375
9688		0.000000
9689		5.859375
9690		0.000000
9691		7.812500
9692		1.953125
9693		9.765625
9694		1.953125
9695		9.765625
9696		5.859375
9697		9.765625
9698		7.812500
9699		9.765625
9700		7.812500
9701		13.671875
9702		7.812500
9703		13.671875
9704		9.765625
9705		15.625000
9706		9.765625
9707		17.578125
9708		9.765625
9709		17.578125
9710		11.718750
9711		19.531250
9712		15.625000
9713		19.531250
9714		15.625000
9715		19.531250
9716		15.625000
9717		21.484375
9718		17.578125
9719		23.437500
9720		17.578125
9721		25.390625
9722		19.531250
9723		25.390625
9724		19.531250
9725		27.343750
9726		21.484375
9727		27.343750
9728		21.484375
9729		29.296875
9730		25.390625
9731		27.343750
9732		25.390625
9733		29.296875
9734		25.390625
9735		31.250000
9736		25.390625
9737		33.203125
9738		27.343750
9739		35.156250
9740		27.343750
9741		35.156250
9742		29.296875
9743		37.109375
9744		29.296875
9745		37.109375
9746		33.203125
9747		35.156250
9748		35.156250
9749		37.109375
9750		33.203125
9751		39.062500
9752		33.203125
9753		41.015625
9754		35.156250
9755		41.015625
9756		35.156250
9757		42.968750
9758		37.109375
9759		42.968750
9760		37.109375
9761		42.968750
9762		39.062500
9763		42.968750
9764		41.015625
9765		42.968750
9766		39.062500
9767		46.875000
9768		41.015625
9769		46.875000
9770		41.015625
9771		46.875000
9772		41.015625
9773		48.828125
9774		42.968750
9775		48.828125
9776		42.968750
9777		50.781250
9778		42.968750
9779		50.781250
9780		46.875000
9781		48.828125
9782		46.875000
9783		48.828125
9784		44.921875
9785		52.734375
9786		44.921875
9787		52.734375
9788		46.875000
9789		52.734375
9790		46.875000
9791		52.734375
9792		46.875000
9793		54.687500
9794		46.875000
9795		54.687500
9796		50.781250
9797		52.734375
9798		50.781250
9799		54.687500
9800		50.781250
9801		54.687500
9802		48.828125
9803		56.640625
9804		50.781250
9805		56.640625
9806		48.828125
9807		56.640625
9808		50.781250
9809		56.640625
9810		50.781250
9811		56.640625
9812		50.781250
9813		56.640625
9814		52.734375
9815		54.687500
9816		52.734375
9817		56.640625
9818		50.781250
9819		58.593750
9820		50.781250
9821		58.593750
9822		50.781250
9823		58.593750
9824		50.781250
9825		58.593750
9826		50.781250
9827		58.593750
9828		50.781250
9829		56.640625
9830		52.734375
9831		54.687500
9832		52.734375
9833		54.687500
9834		50.781250
9835		58.593750
9836		50.781250
9837		58.593750
9838		50.781250
9839		56.640625
9840		50.781250
9841		56.640625
9842		50.781250
9843		56.640625
9844		50.781250
9845		56.640625
9846		50.781250
9847		56.640625
9848		52.734375
9849		54.687500
9850		48.828125
9851		54.687500
9852		48.828125
9853		54.687500
9854		48.828125
9855		54.687500
9856		48.828125
9857		54.687500
9858		46.875000
9859		54.687500
9860		46.875000
9861		52.734375
9862		46.875000
9863		52.734375
9864		48.828125
9865		50.781250
9866		46.875000
9867		50.781250
9868		44.921875
9869		50.781250
9870		42.968750
9871		50.781250
9872		42.968750
9873		50.781250
9874		42.968750
9875		50.781250
9876		42.968750
9877		48.828125
9878		41.015625
9879		48.828125
9880		42.968750
9881		46.875000
9882		42.968750
9883		44.921875
9884		39.062500
9885		44.921875
9886		39.062500
9887		44.921875
9888		37.109375
9889		44.921875
9890		37.109375
9891		42.968750
9892		35.156250
9893		42.968750
9894		35.156250
9895		41.015625
9896		35.156250
9897		41.015625
9898		35.156250
9899		37.109375
9900		33.203125
9901		37.109375
9902		31.250000
9903		39.062500
9904		31.250000
9905		37.109375
9906		29.296875
9907		35.156250
9908		27.343750
9909		35.156250
9910		27.343750
9911		33.203125
9912		25.390625
9913		33.203125
9914		27.343750
9915		29.296875
9916		25.390625
9917		29.296875
9918		23.437500
9919		29.296875
9920		21.484375
9921		29.296875
9922		21.484375
9923		27.343750
9924		17.578125
9925		25.390625
9926		17.578125
9927		25.390625
9928		17.578125
9929		25.390625
9930		17.578125
9931		23.437500
9932		17.578125
9933		19.531250
9934		13.671875
9935		19.531250
9936		13.671875
9937		19.531250
9938		11.718750
9939		17.578125
9940		9.765625
9941		17.578125
9942		7.812500
9943		15.625000
9944		7.812500
9945		13.671875
9946		7.812500
9947		13.671875
9948		7.812500
9949		9.765625
9950		5.859375
9951		9.765625
9952		3.906250
9953		9.765625
9954		1.953125
9955		9.765625
9956		0.000000
9957		7.812500
9958		0.000000
9959		5.859375
9960		-1.953125
9961		5.859375
9962		-3.906250
9963		3.906250
9964		-1.953125
9965		1.953125
9966		-3.906250
9967		0.000000
9968		-5.859375
9969		0.000000
9970		-7.812500
9971		0.000000
9972		-7.812500
9973		-1.953125
9974		-9.765625
9975		-1.953125
9976		-9.765625
9977		-3.906250
9978		-11.718750
9979		-5.859375
9980		-11.718750
9981		-5.859375
9982		-11.718750
9983		-9.765625
9984		-13.671875
9985		-9.765625
9986		-15.625000
9987		-9.765625
9988		-17.578125
9989		-9.765625
9990		-17.578125
9991		-11.718750
9992		-19.531250
9993		-11.718750
9994		-19.531250
9995		-13.671875
9996		-21.484375
9997		-13.671875
9998		-19.531250
9999		-17.578125
10000		-19.531250
