Channel              :		CH1
Frequency            :		1.061kHz
Period               :		0.942ms
PK-PK                :		335.9mV
Probe attenuation    :		1X
Voltage per ADC value:		0.122070mV
Time interval        :		2.00000us

index		CH1_Voltage(mV)
1		117.187500
2		117.187500
3		107.421875
4		115.234375
5		103.515625
6		113.281250
7		101.562500
8		109.375000
9		97.656250
10		107.421875
11		97.656250
12		101.562500
13		93.750000
14		97.656250
15		89.843750
16		95.703125
17		83.984375
18		93.750000
19		80.078125
20		89.843750
21		78.125000
22		85.937500
23		74.218750
24		83.984375
25		72.265625
26		78.125000
27		68.359375
28		76.171875
29		64.453125
30		70.312500
31		60.546875
32		66.406250
33		56.640625
34		62.500000
35		52.734375
36		58.593750
37		46.875000
38		56.640625
39		42.968750
40		52.734375
41		39.062500
42		46.875000
43		35.156250
44		44.921875
45		33.203125
46		39.062500
47		27.343750
48		33.203125
49		21.484375
50		29.296875
51		17.578125
52		27.343750
53		13.671875
54		21.484375
55		7.812500
56		17.578125
57		5.859375
58		11.718750
59		0.000000
60		9.765625
61		-1.953125
62		3.906250
63		-7.812500
64		-1.953125
65		-13.671875
66		-5.859375
67		-17.578125
68		-7.812500
69		-21.484375
70		-11.718750
71		-27.343750
72		-17.578125
73		-29.296875
74		-21.484375
75		-35.156250
76		-25.390625
77		-39.062500
78		-31.250000
79		-42.968750
80		-37.109375
81		-46.875000
82		-41.015625
83		-52.734375
84		-44.921875
85		-58.593750
86		-46.875000
87		-60.546875
88		-52.734375
89		-64.453125
90		-56.640625
91		-68.359375
92		-60.546875
93		-74.218750
94		-64.453125
95		-76.171875
96		-68.359375
97		-80.078125
98		-74.218750
99		-85.937500
100		-78.125000
101		-91.796875
102		-82.031250
103		-93.750000
104		-85.937500
105		-97.656250
106		-87.890625
107		-99.609375
108		-93.750000
109		-105.468750
110		-97.656250
111		-107.421875
112		-101.562500
113		-111.328125
114		-105.468750
115		-115.234375
116		-109.375000
117		-121.093750
118		-111.328125
119		-123.046875
120		-115.234375
121		-126.953125
122		-117.187500
123		-128.906250
124		-121.093750
125		-132.812500
126		-125.000000
127		-134.765625
128		-126.953125
129		-136.718750
130		-130.859375
131		-140.625000
132		-134.765625
133		-144.531250
134		-138.671875
135		-146.484375
136		-138.671875
137		-148.437500
138		-142.578125
139		-152.343750
140		-144.531250
141		-154.296875
142		-146.484375
143		-156.250000
144		-148.437500
145		-158.203125
146		-150.390625
147		-158.203125
148		-154.296875
149		-160.156250
150		-156.250000
151		-164.062500
152		-156.250000
153		-166.015625
154		-158.203125
155		-166.015625
156		-160.156250
157		-167.968750
158		-160.156250
159		-169.921875
160		-162.109375
161		-169.921875
162		-164.062500
163		-167.968750
164		-166.015625
165		-169.921875
166		-167.968750
167		-173.828125
168		-166.015625
169		-173.828125
170		-166.015625
171		-173.828125
172		-167.968750
173		-173.828125
174		-167.968750
175		-173.828125
176		-167.968750
177		-173.828125
178		-166.015625
179		-173.828125
180		-167.968750
181		-171.875000
182		-167.968750
183		-171.875000
184		-166.015625
185		-171.875000
186		-166.015625
187		-171.875000
188		-164.062500
189		-169.921875
190		-164.062500
191		-169.921875
192		-164.062500
193		-169.921875
194		-162.109375
195		-167.968750
196		-160.156250
197		-164.062500
198		-162.109375
199		-162.109375
200		-158.203125
201		-164.062500
202		-156.250000
203		-162.109375
204		-154.296875
205		-160.156250
206		-152.343750
207		-156.250000
208		-150.390625
209		-156.250000
210		-148.437500
211		-154.296875
212		-146.484375
213		-150.390625
214		-144.531250
215		-146.484375
216		-142.578125
217		-144.531250
218		-138.671875
219		-142.578125
220		-134.765625
221		-140.625000
222		-130.859375
223		-136.718750
224		-128.906250
225		-134.765625
226		-126.953125
227		-130.859375
228		-123.046875
229		-126.953125
230		-121.093750
231		-123.046875
232		-117.187500
233		-119.140625
234		-113.281250
235		-117.187500
236		-109.375000
237		-113.281250
238		-105.468750
239		-109.375000
240		-101.562500
241		-105.468750
242		-97.656250
243		-101.562500
244		-91.796875
245		-97.656250
246		-89.843750
247		-91.796875
248		-85.937500
249		-87.890625
250		-82.031250
251		-83.984375
252		-76.171875
253		-80.078125
254		-72.265625
255		-76.171875
256		-68.359375
257		-74.218750
258		-64.453125
259		-68.359375
260		-58.593750
261		-62.500000
262		-54.687500
263		-58.593750
264		-52.734375
265		-52.734375
266		-46.875000
267		-48.828125
268		-41.015625
269		-44.921875
270		-37.109375
271		-41.015625
272		-33.203125
273		-37.109375
274		-27.343750
275		-33.203125
276		-23.437500
277		-29.296875
278		-19.531250
279		-25.390625
280		-15.625000
281		-17.578125
282		-11.718750
283		-13.671875
284		-5.859375
285		-9.765625
286		0.000000
287		-5.859375
288		3.906250
289		0.000000
290		7.812500
291		3.906250
292		13.671875
293		7.812500
294		15.625000
295		11.718750
296		21.484375
297		17.578125
298		23.437500
299		21.484375
300		29.296875
301		27.343750
302		33.203125
303		29.296875
304		39.062500
305		35.156250
306		42.968750
307		39.062500
308		46.875000
309		41.015625
310		50.781250
311		44.921875
312		54.687500
313		50.781250
314		56.640625
315		54.687500
316		60.546875
317		58.593750
318		64.453125
319		60.546875
320		70.312500
321		64.453125
322		74.218750
323		68.359375
324		76.171875
325		72.265625
326		80.078125
327		76.171875
328		83.984375
329		80.078125
330		87.890625
331		83.984375
332		89.843750
333		87.890625
334		93.750000
335		89.843750
336		97.656250
337		91.796875
338		101.562500
339		95.703125
340		103.515625
341		99.609375
342		107.421875
343		103.515625
344		109.375000
345		105.468750
346		113.281250
347		107.421875
348		113.281250
349		113.281250
350		117.187500
351		115.234375
352		121.093750
353		115.234375
354		123.046875
355		117.187500
356		125.000000
357		119.140625
358		128.906250
359		123.046875
360		130.859375
361		125.000000
362		132.812500
363		126.953125
364		134.765625
365		130.859375
366		134.765625
367		132.812500
368		136.718750
369		132.812500
370		140.625000
371		134.765625
372		142.578125
373		136.718750
374		144.531250
375		138.671875
376		144.531250
377		140.625000
378		146.484375
379		140.625000
380		148.437500
381		144.531250
382		148.437500
383		146.484375
384		148.437500
385		146.484375
386		152.343750
387		146.484375
388		152.343750
389		148.437500
390		154.296875
391		148.437500
392		154.296875
393		148.437500
394		156.250000
395		148.437500
396		156.250000
397		150.390625
398		158.203125
399		152.343750
400		156.250000
401		154.296875
402		156.250000
403		152.343750
404		158.203125
405		152.343750
406		158.203125
407		152.343750
408		160.156250
409		152.343750
410		158.203125
411		152.343750
412		160.156250
413		152.343750
414		160.156250
415		154.296875
416		158.203125
417		154.296875
418		156.250000
419		152.343750
420		158.203125
421		152.343750
422		158.203125
423		150.390625
424		158.203125
425		150.390625
426		158.203125
427		150.390625
428		156.250000
429		150.390625
430		156.250000
431		148.437500
432		156.250000
433		150.390625
434		152.343750
435		148.437500
436		152.343750
437		146.484375
438		152.343750
439		144.531250
440		152.343750
441		142.578125
442		150.390625
443		140.625000
444		148.437500
445		140.625000
446		146.484375
447		138.671875
448		146.484375
449		138.671875
450		142.578125
451		136.718750
452		140.625000
453		132.812500
454		140.625000
455		130.859375
456		138.671875
457		128.906250
458		136.718750
459		126.953125
460		134.765625
461		125.000000
462		132.812500
463		123.046875
464		130.859375
465		123.046875
466		126.953125
467		119.140625
468		123.046875
469		115.234375
470		121.093750
471		113.281250
472		121.093750
473		111.328125
474		117.187500
475		107.421875
476		115.234375
477		103.515625
478		113.281250
479		99.609375
480		109.375000
481		99.609375
482		105.468750
483		97.656250
484		101.562500
485		93.750000
486		97.656250
487		87.890625
488		97.656250
489		85.937500
490		91.796875
491		82.031250
492		89.843750
493		78.125000
494		85.937500
495		72.265625
496		82.031250
497		70.312500
498		80.078125
499		68.359375
500		74.218750
501		64.453125
502		70.312500
503		58.593750
504		66.406250
505		54.687500
506		64.453125
507		50.781250
508		60.546875
509		48.828125
510		56.640625
511		42.968750
512		50.781250
513		39.062500
514		48.828125
515		37.109375
516		42.968750
517		33.203125
518		37.109375
519		27.343750
520		33.203125
521		21.484375
522		31.250000
523		17.578125
524		27.343750
525		11.718750
526		21.484375
527		9.765625
528		15.625000
529		5.859375
530		13.671875
531		1.953125
532		9.765625
533		-1.953125
534		3.906250
535		-5.859375
536		-1.953125
537		-11.718750
538		-5.859375
539		-17.578125
540		-9.765625
541		-21.484375
542		-13.671875
543		-25.390625
544		-17.578125
545		-29.296875
546		-21.484375
547		-35.156250
548		-27.343750
549		-39.062500
550		-31.250000
551		-42.968750
552		-37.109375
553		-48.828125
554		-41.015625
555		-52.734375
556		-42.968750
557		-56.640625
558		-48.828125
559		-60.546875
560		-52.734375
561		-66.406250
562		-56.640625
563		-70.312500
564		-60.546875
565		-72.265625
566		-66.406250
567		-76.171875
568		-70.312500
569		-80.078125
570		-74.218750
571		-87.890625
572		-78.125000
573		-89.843750
574		-82.031250
575		-93.750000
576		-85.937500
577		-97.656250
578		-89.843750
579		-101.562500
580		-93.750000
581		-105.468750
582		-97.656250
583		-107.421875
584		-101.562500
585		-111.328125
586		-105.468750
587		-117.187500
588		-109.375000
589		-119.140625
590		-111.328125
591		-123.046875
592		-115.234375
593		-126.953125
594		-119.140625
595		-128.906250
596		-121.093750
597		-132.812500
598		-125.000000
599		-134.765625
600		-126.953125
601		-136.718750
602		-132.812500
603		-140.625000
604		-134.765625
605		-144.531250
606		-136.718750
607		-146.484375
608		-138.671875
609		-148.437500
610		-140.625000
611		-150.390625
612		-142.578125
613		-152.343750
614		-146.484375
615		-154.296875
616		-148.437500
617		-154.296875
618		-150.390625
619		-156.250000
620		-152.343750
621		-160.156250
622		-154.296875
623		-162.109375
624		-156.250000
625		-164.062500
626		-156.250000
627		-166.015625
628		-158.203125
629		-166.015625
630		-158.203125
631		-167.968750
632		-160.156250
633		-167.968750
634		-162.109375
635		-167.968750
636		-164.062500
637		-169.921875
638		-164.062500
639		-171.875000
640		-164.062500
641		-171.875000
642		-164.062500
643		-171.875000
644		-166.015625
645		-171.875000
646		-166.015625
647		-171.875000
648		-166.015625
649		-171.875000
650		-166.015625
651		-169.921875
652		-166.015625
653		-169.921875
654		-166.015625
655		-171.875000
656		-164.062500
657		-169.921875
658		-164.062500
659		-169.921875
660		-162.109375
661		-167.968750
662		-162.109375
663		-167.968750
664		-160.156250
665		-166.015625
666		-160.156250
667		-164.062500
668		-160.156250
669		-162.109375
670		-158.203125
671		-162.109375
672		-154.296875
673		-160.156250
674		-154.296875
675		-158.203125
676		-152.343750
677		-156.250000
678		-150.390625
679		-154.296875
680		-146.484375
681		-152.343750
682		-144.531250
683		-150.390625
684		-144.531250
685		-146.484375
686		-142.578125
687		-144.531250
688		-136.718750
689		-142.578125
690		-134.765625
691		-140.625000
692		-130.859375
693		-136.718750
694		-128.906250
695		-134.765625
696		-126.953125
697		-130.859375
698		-123.046875
699		-126.953125
700		-119.140625
701		-123.046875
702		-117.187500
703		-119.140625
704		-113.281250
705		-115.234375
706		-109.375000
707		-113.281250
708		-105.468750
709		-109.375000
710		-101.562500
711		-105.468750
712		-97.656250
713		-103.515625
714		-93.750000
715		-97.656250
716		-89.843750
717		-93.750000
718		-87.890625
719		-87.890625
720		-83.984375
721		-83.984375
722		-78.125000
723		-82.031250
724		-72.265625
725		-78.125000
726		-68.359375
727		-74.218750
728		-64.453125
729		-68.359375
730		-58.593750
731		-64.453125
732		-56.640625
733		-60.546875
734		-52.734375
735		-54.687500
736		-48.828125
737		-48.828125
738		-42.968750
739		-46.875000
740		-37.109375
741		-42.968750
742		-33.203125
743		-39.062500
744		-29.296875
745		-33.203125
746		-23.437500
747		-27.343750
748		-19.531250
749		-25.390625
750		-15.625000
751		-19.531250
752		-11.718750
753		-13.671875
754		-7.812500
755		-9.765625
756		-1.953125
757		-5.859375
758		1.953125
759		-1.953125
760		7.812500
761		1.953125
762		11.718750
763		5.859375
764		15.625000
765		9.765625
766		19.531250
767		15.625000
768		23.437500
769		21.484375
770		27.343750
771		25.390625
772		33.203125
773		27.343750
774		37.109375
775		33.203125
776		41.015625
777		39.062500
778		44.921875
779		41.015625
780		48.828125
781		44.921875
782		54.687500
783		48.828125
784		56.640625
785		54.687500
786		60.546875
787		58.593750
788		64.453125
789		62.500000
790		68.359375
791		64.453125
792		72.265625
793		70.312500
794		78.125000
795		70.312500
796		80.078125
797		76.171875
798		83.984375
799		78.125000
800		87.890625
801		83.984375
802		89.843750
803		87.890625
804		91.796875
805		89.843750
806		97.656250
807		91.796875
808		101.562500
809		95.703125
810		103.515625
811		97.656250
812		107.421875
813		101.562500
814		109.375000
815		103.515625
816		113.281250
817		107.421875
818		113.281250
819		111.328125
820		115.234375
821		113.281250
822		119.140625
823		115.234375
824		123.046875
825		117.187500
826		125.000000
827		119.140625
828		126.953125
829		123.046875
830		128.906250
831		123.046875
832		130.859375
833		126.953125
834		134.765625
835		128.906250
836		134.765625
837		132.812500
838		136.718750
839		132.812500
840		140.625000
841		134.765625
842		142.578125
843		136.718750
844		142.578125
845		138.671875
846		144.531250
847		140.625000
848		146.484375
849		140.625000
850		148.437500
851		142.578125
852		148.437500
853		146.484375
854		148.437500
855		146.484375
856		150.390625
857		146.484375
858		152.343750
859		146.484375
860		154.296875
861		148.437500
862		154.296875
863		148.437500
864		156.250000
865		150.390625
866		156.250000
867		150.390625
868		156.250000
869		152.343750
870		156.250000
871		154.296875
872		156.250000
873		152.343750
874		158.203125
875		152.343750
876		158.203125
877		152.343750
878		158.203125
879		152.343750
880		160.156250
881		152.343750
882		158.203125
883		152.343750
884		160.156250
885		154.296875
886		158.203125
887		154.296875
888		156.250000
889		152.343750
890		158.203125
891		152.343750
892		158.203125
893		150.390625
894		158.203125
895		150.390625
896		158.203125
897		150.390625
898		156.250000
899		148.437500
900		156.250000
901		148.437500
902		156.250000
903		150.390625
904		152.343750
905		148.437500
906		152.343750
907		144.531250
908		152.343750
909		144.531250
910		152.343750
911		142.578125
912		150.390625
913		142.578125
914		148.437500
915		140.625000
916		148.437500
917		138.671875
918		146.484375
919		138.671875
920		144.531250
921		136.718750
922		140.625000
923		132.812500
924		140.625000
925		132.812500
926		140.625000
927		128.906250
928		138.671875
929		126.953125
930		134.765625
931		126.953125
932		132.812500
933		123.046875
934		130.859375
935		123.046875
936		128.906250
937		121.093750
938		125.000000
939		117.187500
940		123.046875
941		113.281250
942		121.093750
943		111.328125
944		119.140625
945		107.421875
946		117.187500
947		105.468750
948		113.281250
949		101.562500
950		111.328125
951		99.609375
952		107.421875
953		97.656250
954		103.515625
955		95.703125
956		99.609375
957		89.843750
958		97.656250
959		87.890625
960		95.703125
961		83.984375
962		91.796875
963		80.078125
964		87.890625
965		76.171875
966		83.984375
967		72.265625
968		80.078125
969		70.312500
970		76.171875
971		66.406250
972		72.265625
973		60.546875
974		68.359375
975		56.640625
976		66.406250
977		52.734375
978		62.500000
979		48.828125
980		58.593750
981		44.921875
982		54.687500
983		42.968750
984		50.781250
985		37.109375
986		46.875000
987		33.203125
988		41.015625
989		29.296875
990		35.156250
991		25.390625
992		33.203125
993		19.531250
994		29.296875
995		15.625000
996		25.390625
997		11.718750
998		19.531250
999		5.859375
1000		15.625000
1001		1.953125
1002		11.718750
1003		0.000000
1004		5.859375
1005		-3.906250
1006		1.953125
1007		-9.765625
1008		-3.906250
1009		-15.625000
1010		-5.859375
1011		-19.531250
1012		-9.765625
1013		-23.437500
1014		-15.625000
1015		-29.296875
1016		-19.531250
1017		-33.203125
1018		-23.437500
1019		-35.156250
1020		-29.296875
1021		-41.015625
1022		-35.156250
1023		-44.921875
1024		-39.062500
1025		-50.781250
1026		-41.015625
1027		-54.687500
1028		-44.921875
1029		-58.593750
1030		-50.781250
1031		-64.453125
1032		-54.687500
1033		-66.406250
1034		-58.593750
1035		-72.265625
1036		-62.500000
1037		-74.218750
1038		-68.359375
1039		-78.125000
1040		-72.265625
1041		-85.937500
1042		-76.171875
1043		-87.890625
1044		-80.078125
1045		-91.796875
1046		-83.984375
1047		-95.703125
1048		-87.890625
1049		-101.562500
1050		-91.796875
1051		-101.562500
1052		-95.703125
1053		-105.468750
1054		-97.656250
1055		-109.375000
1056		-103.515625
1057		-115.234375
1058		-107.421875
1059		-119.140625
1060		-109.375000
1061		-121.093750
1062		-113.281250
1063		-125.000000
1064		-115.234375
1065		-128.906250
1066		-119.140625
1067		-130.859375
1068		-123.046875
1069		-132.812500
1070		-125.000000
1071		-134.765625
1072		-130.859375
1073		-138.671875
1074		-132.812500
1075		-142.578125
1076		-134.765625
1077		-144.531250
1078		-136.718750
1079		-146.484375
1080		-140.625000
1081		-150.390625
1082		-142.578125
1083		-152.343750
1084		-144.531250
1085		-154.296875
1086		-146.484375
1087		-154.296875
1088		-148.437500
1089		-156.250000
1090		-152.343750
1091		-160.156250
1092		-154.296875
1093		-162.109375
1094		-154.296875
1095		-164.062500
1096		-156.250000
1097		-166.015625
1098		-158.203125
1099		-166.015625
1100		-160.156250
1101		-167.968750
1102		-160.156250
1103		-169.921875
1104		-162.109375
1105		-167.968750
1106		-164.062500
1107		-167.968750
1108		-166.015625
1109		-171.875000
1110		-164.062500
1111		-171.875000
1112		-166.015625
1113		-171.875000
1114		-166.015625
1115		-173.828125
1116		-166.015625
1117		-171.875000
1118		-166.015625
1119		-173.828125
1120		-166.015625
1121		-169.921875
1122		-167.968750
1123		-169.921875
1124		-166.015625
1125		-171.875000
1126		-166.015625
1127		-171.875000
1128		-166.015625
1129		-171.875000
1130		-164.062500
1131		-169.921875
1132		-164.062500
1133		-169.921875
1134		-162.109375
1135		-167.968750
1136		-162.109375
1137		-167.968750
1138		-160.156250
1139		-164.062500
1140		-160.156250
1141		-162.109375
1142		-158.203125
1143		-162.109375
1144		-156.250000
1145		-162.109375
1146		-154.296875
1147		-160.156250
1148		-152.343750
1149		-156.250000
1150		-148.437500
1151		-154.296875
1152		-146.484375
1153		-152.343750
1154		-144.531250
1155		-148.437500
1156		-144.531250
1157		-146.484375
1158		-142.578125
1159		-144.531250
1160		-136.718750
1161		-142.578125
1162		-134.765625
1163		-140.625000
1164		-132.812500
1165		-136.718750
1166		-128.906250
1167		-134.765625
1168		-126.953125
1169		-130.859375
1170		-121.093750
1171		-126.953125
1172		-121.093750
1173		-121.093750
1174		-117.187500
1175		-119.140625
1176		-113.281250
1177		-117.187500
1178		-107.421875
1179		-111.328125
1180		-105.468750
1181		-109.375000
1182		-101.562500
1183		-105.468750
1184		-97.656250
1185		-101.562500
1186		-91.796875
1187		-97.656250
1188		-89.843750
1189		-91.796875
1190		-85.937500
1191		-87.890625
1192		-82.031250
1193		-85.937500
1194		-76.171875
1195		-82.031250
1196		-72.265625
1197		-78.125000
1198		-68.359375
1199		-72.265625
1200		-62.500000
1201		-68.359375
1202		-58.593750
1203		-62.500000
1204		-56.640625
1205		-60.546875
1206		-52.734375
1207		-52.734375
1208		-46.875000
1209		-48.828125
1210		-42.968750
1211		-46.875000
1212		-37.109375
1213		-42.968750
1214		-31.250000
1215		-37.109375
1216		-27.343750
1217		-31.250000
1218		-23.437500
1219		-27.343750
1220		-19.531250
1221		-25.390625
1222		-15.625000
1223		-17.578125
1224		-11.718750
1225		-13.671875
1226		-5.859375
1227		-9.765625
1228		0.000000
1229		-5.859375
1230		3.906250
1231		-1.953125
1232		7.812500
1233		3.906250
1234		13.671875
1235		7.812500
1236		17.578125
1237		13.671875
1238		19.531250
1239		17.578125
1240		23.437500
1241		23.437500
1242		27.343750
1243		25.390625
1244		33.203125
1245		29.296875
1246		39.062500
1247		33.203125
1248		42.968750
1249		39.062500
1250		44.921875
1251		41.015625
1252		50.781250
1253		46.875000
1254		54.687500
1255		48.828125
1256		56.640625
1257		54.687500
1258		60.546875
1259		58.593750
1260		66.406250
1261		62.500000
1262		70.312500
1263		64.453125
1264		74.218750
1265		70.312500
1266		78.125000
1267		72.265625
1268		82.031250
1269		76.171875
1270		83.984375
1271		80.078125
1272		85.937500
1273		85.937500
1274		89.843750
1275		87.890625
1276		93.750000
1277		89.843750
1278		97.656250
1279		91.796875
1280		101.562500
1281		95.703125
1282		105.468750
1283		97.656250
1284		107.421875
1285		101.562500
1286		109.375000
1287		105.468750
1288		111.328125
1289		107.421875
1290		113.281250
1291		113.281250
1292		117.187500
1293		115.234375
1294		121.093750
1295		115.234375
1296		123.046875
1297		119.140625
1298		126.953125
1299		121.093750
1300		128.906250
1301		123.046875
1302		130.859375
1303		125.000000
1304		132.812500
1305		126.953125
1306		134.765625
1307		130.859375
1308		134.765625
1309		132.812500
1310		138.671875
1311		132.812500
1312		140.625000
1313		134.765625
1314		142.578125
1315		136.718750
1316		144.531250
1317		138.671875
1318		146.484375
1319		140.625000
1320		146.484375
1321		142.578125
1322		148.437500
1323		144.531250
1324		148.437500
1325		146.484375
1326		150.390625
1327		146.484375
1328		152.343750
1329		146.484375
1330		154.296875
1331		148.437500
1332		156.250000
1333		148.437500
1334		156.250000
1335		150.390625
1336		156.250000
1337		150.390625
1338		158.203125
1339		150.390625
1340		156.250000
1341		154.296875
1342		156.250000
1343		152.343750
1344		160.156250
1345		152.343750
1346		160.156250
1347		152.343750
1348		160.156250
1349		154.296875
1350		160.156250
1351		154.296875
1352		160.156250
1353		152.343750
1354		160.156250
1355		154.296875
1356		160.156250
1357		156.250000
1358		158.203125
1359		156.250000
1360		158.203125
1361		152.343750
1362		160.156250
1363		152.343750
1364		160.156250
1365		152.343750
1366		158.203125
1367		152.343750
1368		158.203125
1369		150.390625
1370		158.203125
1371		150.390625
1372		158.203125
1373		150.390625
1374		156.250000
1375		150.390625
1376		154.296875
1377		148.437500
1378		152.343750
1379		146.484375
1380		152.343750
1381		146.484375
1382		152.343750
1383		144.531250
1384		150.390625
1385		144.531250
1386		150.390625
1387		142.578125
1388		148.437500
1389		140.625000
1390		146.484375
1391		140.625000
1392		144.531250
1393		136.718750
1394		142.578125
1395		134.765625
1396		142.578125
1397		132.812500
1398		140.625000
1399		130.859375
1400		138.671875
1401		128.906250
1402		136.718750
1403		126.953125
1404		134.765625
1405		125.000000
1406		132.812500
1407		123.046875
1408		128.906250
1409		121.093750
1410		125.000000
1411		117.187500
1412		125.000000
1413		113.281250
1414		123.046875
1415		111.328125
1416		119.140625
1417		107.421875
1418		117.187500
1419		107.421875
1420		115.234375
1421		103.515625
1422		111.328125
1423		101.562500
1424		107.421875
1425		99.609375
1426		103.515625
1427		93.750000
1428		99.609375
1429		91.796875
1430		99.609375
1431		87.890625
1432		95.703125
1433		83.984375
1434		91.796875
1435		80.078125
1436		89.843750
1437		76.171875
1438		85.937500
1439		74.218750
1440		80.078125
1441		70.312500
1442		76.171875
1443		66.406250
1444		72.265625
1445		62.500000
1446		70.312500
1447		58.593750
1448		66.406250
1449		54.687500
1450		62.500000
1451		48.828125
1452		58.593750
1453		44.921875
1454		54.687500
1455		41.015625
1456		50.781250
1457		39.062500
1458		44.921875
1459		35.156250
1460		41.015625
1461		29.296875
1462		37.109375
1463		25.390625
1464		33.203125
1465		21.484375
1466		29.296875
1467		15.625000
1468		25.390625
1469		11.718750
1470		21.484375
1471		5.859375
1472		17.578125
1473		3.906250
1474		11.718750
1475		0.000000
1476		5.859375
1477		-3.906250
1478		1.953125
1479		-11.718750
1480		-1.953125
1481		-15.625000
1482		-5.859375
1483		-19.531250
1484		-9.765625
1485		-23.437500
1486		-13.671875
1487		-27.343750
1488		-19.531250
1489		-33.203125
1490		-23.437500
1491		-35.156250
1492		-29.296875
1493		-39.062500
1494		-33.203125
1495		-44.921875
1496		-37.109375
1497		-50.781250
1498		-41.015625
1499		-54.687500
1500		-44.921875
1501		-58.593750
1502		-50.781250
1503		-62.500000
1504		-54.687500
1505		-68.359375
1506		-58.593750
1507		-70.312500
1508		-62.500000
1509		-74.218750
1510		-68.359375
1511		-80.078125
1512		-72.265625
1513		-83.984375
1514		-74.218750
1515		-85.937500
1516		-78.125000
1517		-91.796875
1518		-82.031250
1519		-95.703125
1520		-87.890625
1521		-99.609375
1522		-89.843750
1523		-101.562500
1524		-93.750000
1525		-105.468750
1526		-99.609375
1527		-109.375000
1528		-103.515625
1529		-113.281250
1530		-105.468750
1531		-117.187500
1532		-107.421875
1533		-121.093750
1534		-111.328125
1535		-125.000000
1536		-115.234375
1537		-126.953125
1538		-119.140625
1539		-128.906250
1540		-121.093750
1541		-130.859375
1542		-125.000000
1543		-134.765625
1544		-130.859375
1545		-138.671875
1546		-132.812500
1547		-142.578125
1548		-132.812500
1549		-144.531250
1550		-136.718750
1551		-146.484375
1552		-138.671875
1553		-148.437500
1554		-140.625000
1555		-152.343750
1556		-142.578125
1557		-152.343750
1558		-146.484375
1559		-154.296875
1560		-150.390625
1561		-156.250000
1562		-152.343750
1563		-160.156250
1564		-150.390625
1565		-162.109375
1566		-154.296875
1567		-162.109375
1568		-154.296875
1569		-164.062500
1570		-156.250000
1571		-166.015625
1572		-158.203125
1573		-166.015625
1574		-160.156250
1575		-166.015625
1576		-162.109375
1577		-166.015625
1578		-164.062500
1579		-169.921875
1580		-162.109375
1581		-169.921875
1582		-164.062500
1583		-169.921875
1584		-164.062500
1585		-171.875000
1586		-164.062500
1587		-171.875000
1588		-164.062500
1589		-171.875000
1590		-164.062500
1591		-169.921875
1592		-166.015625
1593		-167.968750
1594		-166.015625
1595		-169.921875
1596		-164.062500
1597		-169.921875
1598		-164.062500
1599		-169.921875
1600		-162.109375
1601		-167.968750
1602		-162.109375
1603		-167.968750
1604		-160.156250
1605		-166.015625
1606		-160.156250
1607		-166.015625
1608		-158.203125
1609		-162.109375
1610		-160.156250
1611		-162.109375
1612		-158.203125
1613		-162.109375
1614		-154.296875
1615		-160.156250
1616		-154.296875
1617		-158.203125
1618		-150.390625
1619		-156.250000
1620		-148.437500
1621		-154.296875
1622		-146.484375
1623		-152.343750
1624		-144.531250
1625		-150.390625
1626		-144.531250
1627		-146.484375
1628		-142.578125
1629		-144.531250
1630		-138.671875
1631		-142.578125
1632		-134.765625
1633		-140.625000
1634		-132.812500
1635		-136.718750
1636		-126.953125
1637		-132.812500
1638		-125.000000
1639		-130.859375
1640		-123.046875
1641		-126.953125
1642		-121.093750
1643		-123.046875
1644		-117.187500
1645		-119.140625
1646		-113.281250
1647		-117.187500
1648		-107.421875
1649		-113.281250
1650		-105.468750
1651		-109.375000
1652		-101.562500
1653		-107.421875
1654		-97.656250
1655		-101.562500
1656		-93.750000
1657		-99.609375
1658		-89.843750
1659		-93.750000
1660		-85.937500
1661		-89.843750
1662		-83.984375
1663		-83.984375
1664		-78.125000
1665		-83.984375
1666		-72.265625
1667		-78.125000
1668		-70.312500
1669		-74.218750
1670		-64.453125
1671		-70.312500
1672		-60.546875
1673		-64.453125
1674		-54.687500
1675		-60.546875
1676		-52.734375
1677		-54.687500
1678		-48.828125
1679		-50.781250
1680		-42.968750
1681		-48.828125
1682		-37.109375
1683		-42.968750
1684		-33.203125
1685		-37.109375
1686		-29.296875
1687		-33.203125
1688		-23.437500
1689		-29.296875
1690		-19.531250
1691		-25.390625
1692		-15.625000
1693		-17.578125
1694		-11.718750
1695		-13.671875
1696		-7.812500
1697		-9.765625
1698		-1.953125
1699		-7.812500
1700		3.906250
1701		0.000000
1702		7.812500
1703		1.953125
1704		11.718750
1705		7.812500
1706		15.625000
1707		11.718750
1708		21.484375
1709		15.625000
1710		23.437500
1711		21.484375
1712		27.343750
1713		25.390625
1714		33.203125
1715		29.296875
1716		37.109375
1717		33.203125
1718		42.968750
1719		37.109375
1720		44.921875
1721		41.015625
1722		50.781250
1723		44.921875
1724		54.687500
1725		48.828125
1726		56.640625
1727		54.687500
1728		60.546875
1729		58.593750
1730		66.406250
1731		60.546875
1732		70.312500
1733		64.453125
1734		72.265625
1735		68.359375
1736		76.171875
1737		70.312500
1738		80.078125
1739		76.171875
1740		83.984375
1741		80.078125
1742		87.890625
1743		83.984375
1744		89.843750
1745		87.890625
1746		93.750000
1747		89.843750
1748		97.656250
1749		93.750000
1750		101.562500
1751		95.703125
1752		103.515625
1753		97.656250
1754		107.421875
1755		103.515625
1756		109.375000
1757		105.468750
1758		113.281250
1759		107.421875
1760		113.281250
1761		113.281250
1762		117.187500
1763		115.234375
1764		121.093750
1765		115.234375
1766		123.046875
1767		119.140625
1768		126.953125
1769		121.093750
1770		128.906250
1771		123.046875
1772		130.859375
1773		125.000000
1774		132.812500
1775		126.953125
1776		134.765625
1777		130.859375
1778		134.765625
1779		132.812500
1780		136.718750
1781		134.765625
1782		140.625000
1783		134.765625
1784		142.578125
1785		138.671875
1786		144.531250
1787		138.671875
1788		146.484375
1789		140.625000
1790		148.437500
1791		142.578125
1792		148.437500
1793		142.578125
1794		150.390625
1795		146.484375
1796		150.390625
1797		148.437500
1798		152.343750
1799		146.484375
1800		156.250000
1801		148.437500
1802		156.250000
1803		150.390625
1804		156.250000
1805		150.390625
1806		158.203125
1807		150.390625
1808		158.203125
1809		152.343750
1810		158.203125
1811		154.296875
1812		158.203125
1813		156.250000
1814		158.203125
1815		154.296875
1816		160.156250
1817		154.296875
1818		160.156250
1819		154.296875
1820		162.109375
1821		154.296875
1822		162.109375
1823		154.296875
1824		162.109375
1825		154.296875
1826		162.109375
1827		154.296875
1828		160.156250
1829		156.250000
1830		160.156250
1831		154.296875
1832		160.156250
1833		154.296875
1834		162.109375
1835		154.296875
1836		162.109375
1837		152.343750
1838		160.156250
1839		152.343750
1840		160.156250
1841		152.343750
1842		160.156250
1843		152.343750
1844		158.203125
1845		152.343750
1846		156.250000
1847		150.390625
1848		156.250000
1849		148.437500
1850		156.250000
1851		148.437500
1852		154.296875
1853		146.484375
1854		154.296875
1855		144.531250
1856		152.343750
1857		144.531250
1858		150.390625
1859		142.578125
1860		150.390625
1861		142.578125
1862		146.484375
1863		140.625000
1864		144.531250
1865		136.718750
1866		144.531250
1867		136.718750
1868		142.578125
1869		134.765625
1870		140.625000
1871		132.812500
1872		140.625000
1873		128.906250
1874		136.718750
1875		126.953125
1876		136.718750
1877		126.953125
1878		132.812500
1879		125.000000
1880		128.906250
1881		121.093750
1882		126.953125
1883		117.187500
1884		126.953125
1885		115.234375
1886		123.046875
1887		113.281250
1888		121.093750
1889		111.328125
1890		117.187500
1891		107.421875
1892		115.234375
1893		105.468750
1894		113.281250
1895		103.515625
1896		107.421875
1897		99.609375
1898		105.468750
1899		93.750000
1900		103.515625
1901		91.796875
1902		99.609375
1903		87.890625
1904		95.703125
1905		85.937500
1906		91.796875
1907		80.078125
1908		89.843750
1909		78.125000
1910		85.937500
1911		76.171875
1912		82.031250
1913		72.265625
1914		76.171875
1915		66.406250
1916		74.218750
1917		62.500000
1918		70.312500
1919		58.593750
1920		66.406250
1921		54.687500
1922		64.453125
1923		50.781250
1924		58.593750
1925		46.875000
1926		54.687500
1927		42.968750
1928		50.781250
1929		39.062500
1930		44.921875
1931		35.156250
1932		41.015625
1933		31.250000
1934		39.062500
1935		25.390625
1936		35.156250
1937		21.484375
1938		29.296875
1939		17.578125
1940		25.390625
1941		13.671875
1942		21.484375
1943		7.812500
1944		15.625000
1945		5.859375
1946		11.718750
1947		0.000000
1948		5.859375
1949		-5.859375
1950		1.953125
1951		-9.765625
1952		0.000000
1953		-13.671875
1954		-3.906250
1955		-17.578125
1956		-9.765625
1957		-23.437500
1958		-13.671875
1959		-27.343750
1960		-19.531250
1961		-29.296875
1962		-21.484375
1963		-35.156250
1964		-29.296875
1965		-41.015625
1966		-33.203125
1967		-44.921875
1968		-35.156250
1969		-48.828125
1970		-39.062500
1971		-52.734375
1972		-44.921875
1973		-56.640625
1974		-48.828125
1975		-62.500000
1976		-52.734375
1977		-66.406250
1978		-56.640625
1979		-68.359375
1980		-62.500000
1981		-72.265625
1982		-68.359375
1983		-80.078125
1984		-68.359375
1985		-82.031250
1986		-74.218750
1987		-87.890625
1988		-78.125000
1989		-89.843750
1990		-82.031250
1991		-95.703125
1992		-85.937500
1993		-97.656250
1994		-89.843750
1995		-99.609375
1996		-93.750000
1997		-103.515625
1998		-99.609375
1999		-109.375000
2000		-103.515625
2001		-113.281250
2002		-105.468750
2003		-117.187500
2004		-107.421875
2005		-119.140625
2006		-111.328125
2007		-123.046875
2008		-115.234375
2009		-125.000000
2010		-117.187500
2011		-126.953125
2012		-121.093750
2013		-130.859375
2014		-125.000000
2015		-134.765625
2016		-128.906250
2017		-138.671875
2018		-128.906250
2019		-140.625000
2020		-132.812500
2021		-144.531250
2022		-134.765625
2023		-144.531250
2024		-138.671875
2025		-146.484375
2026		-140.625000
2027		-150.390625
2028		-142.578125
2029		-150.390625
2030		-146.484375
2031		-152.343750
2032		-148.437500
2033		-156.250000
2034		-150.390625
2035		-158.203125
2036		-150.390625
2037		-160.156250
2038		-152.343750
2039		-162.109375
2040		-154.296875
2041		-162.109375
2042		-156.250000
2043		-164.062500
2044		-156.250000
2045		-164.062500
2046		-158.203125
2047		-164.062500
2048		-162.109375
2049		-166.015625
2050		-162.109375
2051		-167.968750
2052		-160.156250
2053		-167.968750
2054		-162.109375
2055		-169.921875
2056		-162.109375
2057		-169.921875
2058		-162.109375
2059		-169.921875
2060		-162.109375
2061		-169.921875
2062		-162.109375
2063		-167.968750
2064		-164.062500
2065		-167.968750
2066		-164.062500
2067		-167.968750
2068		-162.109375
2069		-167.968750
2070		-162.109375
2071		-167.968750
2072		-162.109375
2073		-167.968750
2074		-160.156250
2075		-167.968750
2076		-160.156250
2077		-164.062500
2078		-158.203125
2079		-164.062500
2080		-158.203125
2081		-160.156250
2082		-158.203125
2083		-160.156250
2084		-154.296875
2085		-160.156250
2086		-152.343750
2087		-158.203125
2088		-152.343750
2089		-156.250000
2090		-148.437500
2091		-154.296875
2092		-146.484375
2093		-152.343750
2094		-144.531250
2095		-152.343750
2096		-144.531250
2097		-146.484375
2098		-142.578125
2099		-144.531250
2100		-138.671875
2101		-144.531250
2102		-134.765625
2103		-140.625000
2104		-132.812500
2105		-138.671875
2106		-128.906250
2107		-134.765625
2108		-126.953125
2109		-130.859375
2110		-123.046875
2111		-128.906250
2112		-119.140625
2113		-123.046875
2114		-119.140625
2115		-119.140625
2116		-115.234375
2117		-117.187500
2118		-109.375000
2119		-115.234375
2120		-107.421875
2121		-111.328125
2122		-101.562500
2123		-109.375000
2124		-99.609375
2125		-103.515625
2126		-95.703125
2127		-99.609375
2128		-91.796875
2129		-95.703125
2130		-89.843750
2131		-89.843750
2132		-83.984375
2133		-85.937500
2134		-80.078125
2135		-83.984375
2136		-74.218750
2137		-80.078125
2138		-70.312500
2139		-76.171875
2140		-66.406250
2141		-70.312500
2142		-62.500000
2143		-66.406250
2144		-56.640625
2145		-62.500000
2146		-54.687500
2147		-56.640625
2148		-50.781250
2149		-52.734375
2150		-46.875000
2151		-48.828125
2152		-39.062500
2153		-44.921875
2154		-37.109375
2155		-41.015625
2156		-29.296875
2157		-35.156250
2158		-27.343750
2159		-31.250000
2160		-21.484375
2161		-27.343750
2162		-17.578125
2163		-21.484375
2164		-13.671875
2165		-15.625000
2166		-9.765625
2167		-11.718750
2168		-3.906250
2169		-9.765625
2170		0.000000
2171		-3.906250
2172		3.906250
2173		0.000000
2174		9.765625
2175		3.906250
2176		13.671875
2177		7.812500
2178		17.578125
2179		13.671875
2180		21.484375
2181		19.531250
2182		25.390625
2183		23.437500
2184		29.296875
2185		27.343750
2186		35.156250
2187		31.250000
2188		39.062500
2189		35.156250
2190		44.921875
2191		39.062500
2192		46.875000
2193		42.968750
2194		52.734375
2195		46.875000
2196		56.640625
2197		52.734375
2198		58.593750
2199		56.640625
2200		62.500000
2201		60.546875
2202		68.359375
2203		62.500000
2204		70.312500
2205		66.406250
2206		74.218750
2207		68.359375
2208		78.125000
2209		74.218750
2210		82.031250
2211		76.171875
2212		85.937500
2213		80.078125
2214		87.890625
2215		85.937500
2216		91.796875
2217		89.843750
2218		95.703125
2219		89.843750
2220		99.609375
2221		93.750000
2222		101.562500
2223		95.703125
2224		105.468750
2225		101.562500
2226		109.375000
2227		103.515625
2228		111.328125
2229		105.468750
2230		113.281250
2231		111.328125
2232		115.234375
2233		113.281250
2234		119.140625
2235		115.234375
2236		123.046875
2237		117.187500
2238		125.000000
2239		119.140625
2240		128.906250
2241		121.093750
2242		130.859375
2243		125.000000
2244		132.812500
2245		126.953125
2246		134.765625
2247		128.906250
2248		134.765625
2249		132.812500
2250		136.718750
2251		134.765625
2252		140.625000
2253		134.765625
2254		144.531250
2255		136.718750
2256		144.531250
2257		138.671875
2258		146.484375
2259		140.625000
2260		146.484375
2261		142.578125
2262		148.437500
2263		144.531250
2264		150.390625
2265		146.484375
2266		150.390625
2267		148.437500
2268		150.390625
2269		146.484375
2270		154.296875
2271		148.437500
2272		156.250000
2273		148.437500
2274		156.250000
2275		150.390625
2276		156.250000
2277		150.390625
2278		158.203125
2279		152.343750
2280		160.156250
2281		154.296875
2282		158.203125
2283		156.250000
2284		158.203125
2285		154.296875
2286		160.156250
2287		154.296875
2288		162.109375
2289		154.296875
2290		162.109375
2291		154.296875
2292		162.109375
2293		154.296875
2294		162.109375
2295		156.250000
2296		162.109375
2297		156.250000
2298		162.109375
2299		158.203125
2300		160.156250
2301		156.250000
2302		160.156250
2303		154.296875
2304		162.109375
2305		154.296875
2306		162.109375
2307		154.296875
2308		162.109375
2309		154.296875
2310		160.156250
2311		152.343750
2312		160.156250
2313		152.343750
2314		158.203125
2315		154.296875
2316		156.250000
2317		152.343750
2318		156.250000
2319		150.390625
2320		156.250000
2321		148.437500
2322		154.296875
2323		146.484375
2324		154.296875
2325		146.484375
2326		154.296875
2327		144.531250
2328		150.390625
2329		142.578125
2330		150.390625
2331		142.578125
2332		150.390625
2333		142.578125
2334		146.484375
2335		138.671875
2336		144.531250
2337		136.718750
2338		144.531250
2339		134.765625
2340		142.578125
2341		132.812500
2342		140.625000
2343		130.859375
2344		138.671875
2345		128.906250
2346		136.718750
2347		126.953125
2348		134.765625
2349		126.953125
2350		130.859375
2351		123.046875
2352		128.906250
2353		119.140625
2354		126.953125
2355		117.187500
2356		125.000000
2357		113.281250
2358		123.046875
2359		111.328125
2360		119.140625
2361		107.421875
2362		117.187500
2363		107.421875
2364		113.281250
2365		103.515625
2366		111.328125
2367		101.562500
2368		105.468750
2369		95.703125
2370		103.515625
2371		93.750000
2372		101.562500
2373		89.843750
2374		97.656250
2375		85.937500
2376		95.703125
2377		82.031250
2378		91.796875
2379		80.078125
2380		87.890625
2381		78.125000
2382		83.984375
2383		74.218750
2384		80.078125
2385		68.359375
2386		76.171875
2387		64.453125
2388		74.218750
2389		60.546875
2390		68.359375
2391		58.593750
2392		64.453125
2393		52.734375
2394		62.500000
2395		48.828125
2396		56.640625
2397		44.921875
2398		54.687500
2399		42.968750
2400		48.828125
2401		39.062500
2402		42.968750
2403		31.250000
2404		41.015625
2405		27.343750
2406		37.109375
2407		23.437500
2408		33.203125
2409		19.531250
2410		29.296875
2411		13.671875
2412		23.437500
2413		11.718750
2414		19.531250
2415		7.812500
2416		15.625000
2417		3.906250
2418		9.765625
2419		-1.953125
2420		5.859375
2421		-5.859375
2422		1.953125
2423		-11.718750
2424		-1.953125
2425		-15.625000
2426		-5.859375
2427		-19.531250
2428		-9.765625
2429		-23.437500
2430		-15.625000
2431		-27.343750
2432		-19.531250
2433		-31.250000
2434		-25.390625
2435		-37.109375
2436		-29.296875
2437		-41.015625
2438		-33.203125
2439		-46.875000
2440		-37.109375
2441		-50.781250
2442		-41.015625
2443		-54.687500
2444		-44.921875
2445		-58.593750
2446		-50.781250
2447		-64.453125
2448		-54.687500
2449		-66.406250
2450		-58.593750
2451		-70.312500
2452		-64.453125
2453		-76.171875
2454		-68.359375
2455		-80.078125
2456		-72.265625
2457		-85.937500
2458		-76.171875
2459		-89.843750
2460		-80.078125
2461		-93.750000
2462		-83.984375
2463		-95.703125
2464		-87.890625
2465		-97.656250
2466		-91.796875
2467		-101.562500
2468		-97.656250
2469		-107.421875
2470		-99.609375
2471		-109.375000
2472		-101.562500
2473		-113.281250
2474		-105.468750
2475		-117.187500
2476		-109.375000
2477		-121.093750
2478		-113.281250
2479		-125.000000
2480		-115.234375
2481		-126.953125
2482		-119.140625
2483		-128.906250
2484		-123.046875
2485		-130.859375
2486		-126.953125
2487		-136.718750
2488		-128.906250
2489		-138.671875
2490		-130.859375
2491		-140.625000
2492		-134.765625
2493		-144.531250
2494		-136.718750
2495		-146.484375
2496		-138.671875
2497		-148.437500
2498		-140.625000
2499		-150.390625
2500		-144.531250
2501		-152.343750
2502		-148.437500
2503		-156.250000
2504		-148.437500
2505		-156.250000
2506		-150.390625
2507		-160.156250
2508		-152.343750
2509		-160.156250
2510		-154.296875
2511		-162.109375
2512		-154.296875
2513		-164.062500
2514		-156.250000
2515		-164.062500
2516		-156.250000
2517		-164.062500
2518		-160.156250
2519		-164.062500
2520		-162.109375
2521		-167.968750
2522		-162.109375
2523		-167.968750
2524		-162.109375
2525		-169.921875
2526		-162.109375
2527		-169.921875
2528		-162.109375
2529		-169.921875
2530		-164.062500
2531		-169.921875
2532		-164.062500
2533		-169.921875
2534		-164.062500
2535		-167.968750
2536		-164.062500
2537		-169.921875
2538		-162.109375
2539		-169.921875
2540		-162.109375
2541		-167.968750
2542		-162.109375
2543		-167.968750
2544		-160.156250
2545		-166.015625
2546		-160.156250
2547		-166.015625
2548		-158.203125
2549		-164.062500
2550		-158.203125
2551		-162.109375
2552		-158.203125
2553		-160.156250
2554		-156.250000
2555		-162.109375
2556		-154.296875
2557		-160.156250
2558		-152.343750
2559		-158.203125
2560		-150.390625
2561		-156.250000
2562		-148.437500
2563		-154.296875
2564		-146.484375
2565		-152.343750
2566		-144.531250
2567		-146.484375
2568		-142.578125
2569		-144.531250
2570		-140.625000
2571		-144.531250
2572		-136.718750
2573		-142.578125
2574		-134.765625
2575		-138.671875
2576		-132.812500
2577		-136.718750
2578		-128.906250
2579		-134.765625
2580		-125.000000
2581		-130.859375
2582		-121.093750
2583		-126.953125
2584		-121.093750
2585		-123.046875
2586		-117.187500
2587		-119.140625
2588		-113.281250
2589		-117.187500
2590		-109.375000
2591		-113.281250
2592		-105.468750
2593		-111.328125
2594		-101.562500
2595		-105.468750
2596		-97.656250
2597		-103.515625
2598		-93.750000
2599		-99.609375
2600		-91.796875
2601		-93.750000
2602		-87.890625
2603		-89.843750
2604		-83.984375
2605		-87.890625
2606		-78.125000
2607		-82.031250
2608		-74.218750
2609		-80.078125
2610		-70.312500
2611		-74.218750
2612		-66.406250
2613		-70.312500
2614		-60.546875
2615		-66.406250
2616		-56.640625
2617		-62.500000
2618		-52.734375
2619		-54.687500
2620		-48.828125
2621		-50.781250
2622		-42.968750
2623		-48.828125
2624		-39.062500
2625		-44.921875
2626		-33.203125
2627		-39.062500
2628		-29.296875
2629		-35.156250
2630		-23.437500
2631		-29.296875
2632		-19.531250
2633		-25.390625
2634		-17.578125
2635		-19.531250
2636		-13.671875
2637		-15.625000
2638		-7.812500
2639		-11.718750
2640		-1.953125
2641		-7.812500
2642		1.953125
2643		-3.906250
2644		5.859375
2645		3.906250
2646		9.765625
2647		5.859375
2648		15.625000
2649		11.718750
2650		19.531250
2651		15.625000
2652		21.484375
2653		21.484375
2654		27.343750
2655		23.437500
2656		33.203125
2657		27.343750
2658		37.109375
2659		31.250000
2660		41.015625
2661		37.109375
2662		44.921875
2663		39.062500
2664		48.828125
2665		44.921875
2666		52.734375
2667		48.828125
2668		54.687500
2669		54.687500
2670		58.593750
2671		58.593750
2672		64.453125
2673		60.546875
2674		68.359375
2675		62.500000
2676		72.265625
2677		68.359375
2678		76.171875
2679		70.312500
2680		80.078125
2681		74.218750
2682		83.984375
2683		78.125000
2684		85.937500
2685		83.984375
2686		87.890625
2687		87.890625
2688		91.796875
2689		89.843750
2690		95.703125
2691		91.796875
2692		99.609375
2693		95.703125
2694		103.515625
2695		97.656250
2696		107.421875
2697		99.609375
2698		109.375000
2699		105.468750
2700		113.281250
2701		107.421875
2702		113.281250
2703		111.328125
2704		115.234375
2705		113.281250
2706		121.093750
2707		115.234375
2708		123.046875
2709		117.187500
2710		125.000000
2711		121.093750
2712		128.906250
2713		123.046875
2714		130.859375
2715		125.000000
2716		132.812500
2717		126.953125
2718		134.765625
2719		130.859375
2720		134.765625
2721		132.812500
2722		138.671875
2723		132.812500
2724		140.625000
2725		134.765625
2726		142.578125
2727		138.671875
2728		144.531250
2729		138.671875
2730		146.484375
2731		140.625000
2732		148.437500
2733		142.578125
2734		148.437500
2735		146.484375
2736		148.437500
2737		146.484375
2738		150.390625
2739		146.484375
2740		154.296875
2741		148.437500
2742		154.296875
2743		148.437500
2744		156.250000
2745		150.390625
2746		156.250000
2747		150.390625
2748		156.250000
2749		150.390625
2750		158.203125
2751		152.343750
2752		158.203125
2753		154.296875
2754		158.203125
2755		154.296875
2756		160.156250
2757		154.296875
2758		160.156250
2759		154.296875
2760		162.109375
2761		154.296875
2762		162.109375
2763		154.296875
2764		162.109375
2765		156.250000
2766		162.109375
2767		154.296875
2768		162.109375
2769		156.250000
2770		160.156250
2771		156.250000
2772		160.156250
2773		154.296875
2774		162.109375
2775		154.296875
2776		162.109375
2777		154.296875
2778		162.109375
2779		154.296875
2780		160.156250
2781		152.343750
2782		160.156250
2783		152.343750
2784		160.156250
2785		152.343750
2786		158.203125
2787		152.343750
2788		156.250000
2789		150.390625
2790		156.250000
2791		148.437500
2792		156.250000
2793		148.437500
2794		154.296875
2795		146.484375
2796		154.296875
2797		144.531250
2798		152.343750
2799		144.531250
2800		152.343750
2801		144.531250
2802		150.390625
2803		142.578125
2804		146.484375
2805		140.625000
2806		144.531250
2807		138.671875
2808		144.531250
2809		136.718750
2810		142.578125
2811		134.765625
2812		142.578125
2813		132.812500
2814		138.671875
2815		130.859375
2816		136.718750
2817		126.953125
2818		136.718750
2819		126.953125
2820		130.859375
2821		125.000000
2822		128.906250
2823		123.046875
2824		128.906250
2825		119.140625
2826		126.953125
2827		115.234375
2828		125.000000
2829		113.281250
2830		121.093750
2831		109.375000
2832		119.140625
2833		107.421875
2834		115.234375
2835		105.468750
2836		113.281250
2837		103.515625
2838		107.421875
2839		97.656250
2840		105.468750
2841		95.703125
2842		103.515625
2843		91.796875
2844		99.609375
2845		87.890625
2846		97.656250
2847		83.984375
2848		93.750000
2849		82.031250
2850		89.843750
2851		78.125000
2852		87.890625
2853		76.171875
2854		82.031250
2855		72.265625
2856		78.125000
2857		66.406250
2858		74.218750
2859		62.500000
2860		70.312500
2861		58.593750
2862		68.359375
2863		54.687500
2864		62.500000
2865		50.781250
2866		58.593750
2867		46.875000
2868		56.640625
2869		44.921875
2870		50.781250
2871		41.015625
2872		46.875000
2873		35.156250
2874		41.015625
2875		29.296875
2876		39.062500
2877		27.343750
2878		35.156250
2879		21.484375
2880		31.250000
2881		17.578125
2882		25.390625
2883		13.671875
2884		21.484375
2885		9.765625
2886		17.578125
2887		5.859375
2888		11.718750
2889		0.000000
2890		7.812500
2891		-5.859375
2892		3.906250
2893		-9.765625
2894		0.000000
2895		-13.671875
2896		-3.906250
2897		-17.578125
2898		-7.812500
2899		-21.484375
2900		-13.671875
2901		-27.343750
2902		-17.578125
2903		-29.296875
2904		-23.437500
2905		-33.203125
2906		-27.343750
2907		-39.062500
2908		-33.203125
2909		-44.921875
2910		-35.156250
2911		-48.828125
2912		-39.062500
2913		-52.734375
2914		-42.968750
2915		-56.640625
2916		-48.828125
2917		-62.500000
2918		-52.734375
2919		-64.453125
2920		-58.593750
2921		-68.359375
2922		-62.500000
2923		-72.265625
2924		-66.406250
2925		-80.078125
2926		-68.359375
2927		-82.031250
2928		-74.218750
2929		-85.937500
2930		-78.125000
2931		-89.843750
2932		-82.031250
2933		-93.750000
2934		-85.937500
2935		-95.703125
2936		-87.890625
2937		-99.609375
2938		-93.750000
2939		-103.515625
2940		-97.656250
2941		-109.375000
2942		-101.562500
2943		-113.281250
2944		-103.515625
2945		-115.234375
2946		-107.421875
2947		-119.140625
2948		-111.328125
2949		-123.046875
2950		-113.281250
2951		-125.000000
2952		-117.187500
2953		-126.953125
2954		-121.093750
2955		-128.906250
2956		-125.000000
2957		-134.765625
2958		-128.906250
2959		-138.671875
2960		-128.906250
2961		-140.625000
2962		-132.812500
2963		-144.531250
2964		-134.765625
2965		-144.531250
2966		-138.671875
2967		-148.437500
2968		-140.625000
2969		-150.390625
2970		-142.578125
2971		-150.390625
2972		-146.484375
2973		-152.343750
2974		-148.437500
2975		-156.250000
2976		-150.390625
2977		-158.203125
2978		-150.390625
2979		-160.156250
2980		-152.343750
2981		-162.109375
2982		-154.296875
2983		-164.062500
2984		-156.250000
2985		-166.015625
2986		-158.203125
2987		-164.062500
2988		-160.156250
2989		-164.062500
2990		-162.109375
2991		-167.968750
2992		-160.156250
2993		-167.968750
2994		-162.109375
2995		-169.921875
2996		-162.109375
2997		-169.921875
2998		-162.109375
2999		-169.921875
3000		-164.062500
3001		-169.921875
3002		-164.062500
3003		-169.921875
3004		-164.062500
3005		-167.968750
3006		-166.015625
3007		-169.921875
3008		-164.062500
3009		-169.921875
3010		-164.062500
3011		-169.921875
3012		-162.109375
3013		-169.921875
3014		-162.109375
3015		-167.968750
3016		-162.109375
3017		-167.968750
3018		-160.156250
3019		-166.015625
3020		-160.156250
3021		-164.062500
3022		-160.156250
3023		-162.109375
3024		-158.203125
3025		-162.109375
3026		-156.250000
3027		-162.109375
3028		-154.296875
3029		-160.156250
3030		-152.343750
3031		-158.203125
3032		-150.390625
3033		-156.250000
3034		-148.437500
3035		-154.296875
3036		-146.484375
3037		-152.343750
3038		-146.484375
3039		-148.437500
3040		-144.531250
3041		-146.484375
3042		-138.671875
3043		-144.531250
3044		-136.718750
3045		-142.578125
3046		-134.765625
3047		-138.671875
3048		-132.812500
3049		-136.718750
3050		-128.906250
3051		-132.812500
3052		-125.000000
3053		-130.859375
3054		-123.046875
3055		-126.953125
3056		-121.093750
3057		-123.046875
3058		-117.187500
3059		-119.140625
3060		-113.281250
3061		-117.187500
3062		-109.375000
3063		-113.281250
3064		-105.468750
3065		-109.375000
3066		-103.515625
3067		-105.468750
3068		-97.656250
3069		-101.562500
3070		-93.750000
3071		-97.656250
3072		-91.796875
3073		-93.750000
3074		-87.890625
3075		-89.843750
3076		-82.031250
3077		-87.890625
3078		-76.171875
3079		-82.031250
3080		-72.265625
3081		-78.125000
3082		-68.359375
3083		-74.218750
3084		-64.453125
3085		-70.312500
3086		-60.546875
3087		-66.406250
3088		-58.593750
3089		-58.593750
3090		-52.734375
3091		-54.687500
3092		-48.828125
3093		-50.781250
3094		-42.968750
3095		-46.875000
3096		-39.062500
3097		-41.015625
3098		-33.203125
3099		-39.062500
3100		-29.296875
3101		-33.203125
3102		-25.390625
3103		-29.296875
3104		-19.531250
3105		-23.437500
3106		-17.578125
3107		-19.531250
3108		-13.671875
3109		-13.671875
3110		-7.812500
3111		-11.718750
3112		-1.953125
3113		-7.812500
3114		1.953125
3115		-3.906250
3116		5.859375
3117		1.953125
3118		11.718750
3119		5.859375
3120		15.625000
3121		11.718750
3122		17.578125
3123		17.578125
3124		23.437500
3125		21.484375
3126		29.296875
3127		23.437500
3128		33.203125
3129		29.296875
3130		37.109375
3131		33.203125
3132		41.015625
3133		35.156250
3134		44.921875
3135		39.062500
3136		50.781250
3137		44.921875
3138		52.734375
3139		50.781250
3140		54.687500
3141		54.687500
3142		60.546875
3143		58.593750
3144		64.453125
3145		60.546875
3146		68.359375
3147		64.453125
3148		72.265625
3149		66.406250
3150		76.171875
3151		72.265625
3152		80.078125
3153		76.171875
3154		83.984375
3155		80.078125
3156		85.937500
3157		83.984375
3158		89.843750
3159		87.890625
3160		93.750000
3161		87.890625
3162		97.656250
3163		91.796875
3164		101.562500
3165		95.703125
3166		103.515625
3167		99.609375
3168		107.421875
3169		101.562500
3170		109.375000
3171		103.515625
3172		111.328125
3173		109.375000
3174		113.281250
3175		111.328125
3176		117.187500
3177		111.328125
3178		121.093750
3179		115.234375
3180		123.046875
3181		117.187500
3182		126.953125
3183		119.140625
3184		128.906250
3185		121.093750
3186		130.859375
3187		125.000000
3188		132.812500
3189		128.906250
3190		132.812500
3191		130.859375
3192		134.765625
3193		130.859375
3194		138.671875
3195		132.812500
3196		140.625000
3197		134.765625
3198		142.578125
3199		136.718750
3200		144.531250
3201		138.671875
3202		146.484375
3203		138.671875
3204		148.437500
3205		140.625000
3206		148.437500
3207		144.531250
3208		148.437500
3209		146.484375
3210		150.390625
3211		144.531250
3212		152.343750
3213		146.484375
3214		154.296875
3215		146.484375
3216		154.296875
3217		148.437500
3218		156.250000
3219		148.437500
3220		156.250000
3221		150.390625
3222		156.250000
3223		154.296875
3224		156.250000
3225		154.296875
3226		158.203125
3227		152.343750
3228		158.203125
3229		152.343750
3230		160.156250
3231		154.296875
3232		160.156250
3233		154.296875
3234		160.156250
3235		154.296875
3236		160.156250
3237		154.296875
3238		160.156250
3239		154.296875
3240		160.156250
3241		156.250000
3242		158.203125
3243		154.296875
3244		160.156250
3245		154.296875
3246		160.156250
3247		154.296875
3248		160.156250
3249		152.343750
3250		160.156250
3251		152.343750
3252		160.156250
3253		150.390625
3254		158.203125
3255		152.343750
3256		158.203125
3257		152.343750
3258		156.250000
3259		150.390625
3260		154.296875
3261		148.437500
3262		156.250000
3263		148.437500
3264		154.296875
3265		146.484375
3266		154.296875
3267		146.484375
3268		152.343750
3269		144.531250
3270		152.343750
3271		142.578125
3272		150.390625
3273		144.531250
3274		146.484375
3275		142.578125
3276		144.531250
3277		138.671875
3278		144.531250
3279		136.718750
3280		144.531250
3281		134.765625
3282		142.578125
3283		132.812500
3284		140.625000
3285		130.859375
3286		138.671875
3287		128.906250
3288		136.718750
3289		128.906250
3290		134.765625
3291		126.953125
3292		130.859375
3293		123.046875
3294		128.906250
3295		119.140625
3296		126.953125
3297		117.187500
3298		125.000000
3299		113.281250
3300		123.046875
3301		111.328125
3302		119.140625
3303		107.421875
3304		117.187500
3305		105.468750
3306		113.281250
3307		103.515625
3308		109.375000
3309		101.562500
3310		105.468750
3311		95.703125
3312		103.515625
3313		93.750000
3314		101.562500
3315		89.843750
3316		99.609375
3317		85.937500
3318		95.703125
3319		82.031250
3320		91.796875
3321		80.078125
3322		87.890625
3323		78.125000
3324		83.984375
3325		72.265625
3326		78.125000
3327		68.359375
3328		76.171875
3329		64.453125
3330		72.265625
3331		60.546875
3332		68.359375
3333		56.640625
3334		64.453125
3335		52.734375
3336		62.500000
3337		46.875000
3338		56.640625
3339		46.875000
3340		52.734375
3341		42.968750
3342		46.875000
3343		37.109375
3344		42.968750
3345		33.203125
3346		41.015625
3347		29.296875
3348		37.109375
3349		23.437500
3350		31.250000
3351		19.531250
3352		27.343750
3353		15.625000
3354		25.390625
3355		9.765625
3356		19.531250
3357		7.812500
3358		13.671875
3359		3.906250
3360		9.765625
3361		-1.953125
3362		5.859375
3363		-5.859375
3364		1.953125
3365		-11.718750
3366		-1.953125
3367		-15.625000
3368		-7.812500
3369		-19.531250
3370		-9.765625
3371		-25.390625
3372		-15.625000
3373		-27.343750
3374		-19.531250
3375		-31.250000
3376		-25.390625
3377		-37.109375
3378		-31.250000
3379		-42.968750
3380		-33.203125
3381		-46.875000
3382		-37.109375
3383		-50.781250
3384		-41.015625
3385		-56.640625
3386		-46.875000
3387		-60.546875
3388		-50.781250
3389		-62.500000
3390		-54.687500
3391		-66.406250
3392		-60.546875
3393		-70.312500
3394		-64.453125
3395		-76.171875
3396		-68.359375
3397		-82.031250
3398		-72.265625
3399		-83.984375
3400		-74.218750
3401		-87.890625
3402		-80.078125
3403		-93.750000
3404		-83.984375
3405		-95.703125
3406		-87.890625
3407		-99.609375
3408		-91.796875
3409		-101.562500
3410		-95.703125
3411		-107.421875
3412		-101.562500
3413		-111.328125
3414		-103.515625
3415		-115.234375
3416		-105.468750
3417		-119.140625
3418		-109.375000
3419		-123.046875
3420		-113.281250
3421		-123.046875
3422		-117.187500
3423		-126.953125
3424		-119.140625
3425		-128.906250
3426		-125.000000
3427		-132.812500
3428		-126.953125
3429		-136.718750
3430		-128.906250
3431		-140.625000
3432		-130.859375
3433		-142.578125
3434		-134.765625
3435		-144.531250
3436		-136.718750
3437		-146.484375
3438		-138.671875
3439		-148.437500
3440		-142.578125
3441		-150.390625
3442		-146.484375
3443		-152.343750
3444		-148.437500
3445		-156.250000
3446		-150.390625
3447		-158.203125
3448		-150.390625
3449		-160.156250
3450		-152.343750
3451		-162.109375
3452		-154.296875
3453		-164.062500
3454		-156.250000
3455		-164.062500
3456		-156.250000
3457		-164.062500
3458		-158.203125
3459		-164.062500
3460		-162.109375
3461		-166.015625
3462		-162.109375
3463		-167.968750
3464		-162.109375
3465		-169.921875
3466		-162.109375
3467		-169.921875
3468		-164.062500
3469		-169.921875
3470		-164.062500
3471		-169.921875
3472		-164.062500
3473		-169.921875
3474		-164.062500
3475		-167.968750
3476		-166.015625
3477		-167.968750
3478		-166.015625
3479		-169.921875
3480		-164.062500
3481		-169.921875
3482		-164.062500
3483		-169.921875
3484		-164.062500
3485		-169.921875
3486		-162.109375
3487		-169.921875
3488		-162.109375
3489		-167.968750
3490		-162.109375
3491		-166.015625
3492		-160.156250
3493		-164.062500
3494		-160.156250
3495		-164.062500
3496		-158.203125
3497		-162.109375
3498		-156.250000
3499		-162.109375
3500		-154.296875
3501		-160.156250
3502		-152.343750
3503		-158.203125
3504		-150.390625
3505		-156.250000
3506		-148.437500
3507		-154.296875
3508		-146.484375
3509		-150.390625
3510		-146.484375
3511		-148.437500
3512		-144.531250
3513		-146.484375
3514		-140.625000
3515		-144.531250
3516		-136.718750
3517		-142.578125
3518		-134.765625
3519		-138.671875
3520		-130.859375
3521		-136.718750
3522		-128.906250
3523		-132.812500
3524		-125.000000
3525		-128.906250
3526		-123.046875
3527		-125.000000
3528		-119.140625
3529		-121.093750
3530		-115.234375
3531		-119.140625
3532		-111.328125
3533		-117.187500
3534		-107.421875
3535		-113.281250
3536		-105.468750
3537		-109.375000
3538		-99.609375
3539		-105.468750
3540		-95.703125
3541		-101.562500
3542		-93.750000
3543		-95.703125
3544		-89.843750
3545		-91.796875
3546		-85.937500
3547		-89.843750
3548		-80.078125
3549		-85.937500
3550		-76.171875
3551		-80.078125
3552		-72.265625
3553		-78.125000
3554		-68.359375
3555		-72.265625
3556		-64.453125
3557		-68.359375
3558		-60.546875
3559		-62.500000
3560		-56.640625
3561		-58.593750
3562		-52.734375
3563		-54.687500
3564		-46.875000
3565		-50.781250
3566		-41.015625
3567		-46.875000
3568		-37.109375
3569		-41.015625
3570		-31.250000
3571		-37.109375
3572		-29.296875
3573		-33.203125
3574		-23.437500
3575		-29.296875
3576		-21.484375
3577		-21.484375
3578		-15.625000
3579		-17.578125
3580		-9.765625
3581		-15.625000
3582		-5.859375
3583		-11.718750
3584		-1.953125
3585		-5.859375
3586		3.906250
3587		0.000000
3588		7.812500
3589		1.953125
3590		11.718750
3591		5.859375
3592		15.625000
3593		13.671875
3594		19.531250
3595		17.578125
3596		23.437500
3597		21.484375
3598		29.296875
3599		25.390625
3600		33.203125
3601		29.296875
3602		37.109375
3603		35.156250
3604		42.968750
3605		37.109375
3606		46.875000
3607		41.015625
3608		50.781250
3609		44.921875
3610		52.734375
3611		50.781250
3612		56.640625
3613		54.687500
3614		62.500000
3615		56.640625
3616		66.406250
3617		60.546875
3618		70.312500
3619		66.406250
3620		72.265625
3621		68.359375
3622		76.171875
3623		72.265625
3624		80.078125
3625		76.171875
3626		82.031250
3627		80.078125
3628		85.937500
3629		83.984375
3630		89.843750
3631		85.937500
3632		95.703125
3633		89.843750
3634		97.656250
3635		93.750000
3636		99.609375
3637		95.703125
3638		103.515625
3639		99.609375
3640		107.421875
3641		101.562500
3642		109.375000
3643		107.421875
3644		111.328125
3645		109.375000
3646		113.281250
3647		111.328125
3648		119.140625
3649		113.281250
3650		121.093750
3651		115.234375
3652		123.046875
3653		117.187500
3654		125.000000
3655		121.093750
3656		128.906250
3657		123.046875
3658		130.859375
3659		125.000000
3660		130.859375
3661		128.906250
3662		132.812500
3663		130.859375
3664		136.718750
3665		132.812500
3666		138.671875
3667		132.812500
3668		140.625000
3669		134.765625
3670		142.578125
3671		136.718750
3672		144.531250
3673		138.671875
3674		144.531250
3675		140.625000
3676		146.484375
3677		144.531250
3678		146.484375
3679		144.531250
3680		148.437500
3681		144.531250
3682		150.390625
3683		146.484375
3684		152.343750
3685		146.484375
3686		154.296875
3687		148.437500
3688		154.296875
3689		148.437500
3690		156.250000
3691		150.390625
3692		156.250000
3693		152.343750
3694		156.250000
3695		154.296875
3696		156.250000
3697		152.343750
3698		158.203125
3699		152.343750
3700		160.156250
3701		152.343750
3702		160.156250
3703		152.343750
3704		160.156250
3705		152.343750
3706		160.156250
3707		154.296875
3708		160.156250
3709		154.296875
3710		160.156250
3711		156.250000
3712		158.203125
3713		154.296875
3714		158.203125
3715		152.343750
3716		160.156250
3717		152.343750
3718		160.156250
3719		152.343750
3720		160.156250
3721		152.343750
3722		158.203125
3723		152.343750
3724		160.156250
3725		152.343750
3726		158.203125
3727		152.343750
3728		156.250000
3729		152.343750
3730		154.296875
3731		148.437500
3732		156.250000
3733		148.437500
3734		154.296875
3735		146.484375
3736		154.296875
3737		146.484375
3738		152.343750
3739		144.531250
3740		152.343750
3741		144.531250
3742		150.390625
3743		142.578125
3744		148.437500
3745		142.578125
3746		146.484375
3747		138.671875
3748		144.531250
3749		136.718750
3750		144.531250
3751		136.718750
3752		142.578125
3753		132.812500
3754		140.625000
3755		130.859375
3756		140.625000
3757		128.906250
3758		136.718750
3759		128.906250
3760		134.765625
3761		126.953125
3762		130.859375
3763		125.000000
3764		128.906250
3765		121.093750
3766		126.953125
3767		119.140625
3768		125.000000
3769		117.187500
3770		123.046875
3771		113.281250
3772		121.093750
3773		109.375000
3774		119.140625
3775		107.421875
3776		115.234375
3777		107.421875
3778		113.281250
3779		103.515625
3780		107.421875
3781		97.656250
3782		105.468750
3783		93.750000
3784		103.515625
3785		91.796875
3786		99.609375
3787		89.843750
3788		95.703125
3789		83.984375
3790		93.750000
3791		82.031250
3792		89.843750
3793		80.078125
3794		85.937500
3795		76.171875
3796		82.031250
3797		70.312500
3798		78.125000
3799		66.406250
3800		76.171875
3801		64.453125
3802		72.265625
3803		58.593750
3804		68.359375
3805		54.687500
3806		64.453125
3807		52.734375
3808		60.546875
3809		46.875000
3810		56.640625
3811		44.921875
3812		50.781250
3813		41.015625
3814		46.875000
3815		35.156250
3816		42.968750
3817		31.250000
3818		39.062500
3819		25.390625
3820		35.156250
3821		21.484375
3822		31.250000
3823		17.578125
3824		27.343750
3825		13.671875
3826		23.437500
3827		9.765625
3828		17.578125
3829		5.859375
3830		11.718750
3831		1.953125
3832		7.812500
3833		-3.906250
3834		5.859375
3835		-9.765625
3836		0.000000
3837		-13.671875
3838		-3.906250
3839		-17.578125
3840		-7.812500
3841		-21.484375
3842		-13.671875
3843		-25.390625
3844		-17.578125
3845		-29.296875
3846		-23.437500
3847		-33.203125
3848		-27.343750
3849		-39.062500
3850		-31.250000
3851		-44.921875
3852		-35.156250
3853		-48.828125
3854		-39.062500
3855		-52.734375
3856		-42.968750
3857		-56.640625
3858		-46.875000
3859		-60.546875
3860		-52.734375
3861		-64.453125
3862		-56.640625
3863		-68.359375
3864		-62.500000
3865		-74.218750
3866		-66.406250
3867		-76.171875
3868		-70.312500
3869		-80.078125
3870		-72.265625
3871		-85.937500
3872		-76.171875
3873		-89.843750
3874		-80.078125
3875		-93.750000
3876		-85.937500
3877		-95.703125
3878		-89.843750
3879		-99.609375
3880		-93.750000
3881		-105.468750
3882		-97.656250
3883		-109.375000
3884		-101.562500
3885		-111.328125
3886		-103.515625
3887		-115.234375
3888		-107.421875
3889		-117.187500
3890		-111.328125
3891		-123.046875
3892		-113.281250
3893		-125.000000
3894		-117.187500
3895		-126.953125
3896		-123.046875
3897		-128.906250
3898		-125.000000
3899		-134.765625
3900		-128.906250
3901		-136.718750
3902		-130.859375
3903		-138.671875
3904		-132.812500
3905		-142.578125
3906		-136.718750
3907		-144.531250
3908		-136.718750
3909		-148.437500
3910		-140.625000
3911		-148.437500
3912		-142.578125
3913		-150.390625
3914		-146.484375
3915		-152.343750
3916		-148.437500
3917		-158.203125
3918		-148.437500
3919		-160.156250
3920		-150.390625
3921		-160.156250
3922		-152.343750
3923		-162.109375
3924		-154.296875
3925		-164.062500
3926		-156.250000
3927		-164.062500
3928		-158.203125
3929		-164.062500
3930		-160.156250
3931		-166.015625
3932		-162.109375
3933		-167.968750
3934		-162.109375
3935		-169.921875
3936		-162.109375
3937		-169.921875
3938		-164.062500
3939		-169.921875
3940		-164.062500
3941		-169.921875
3942		-164.062500
3943		-171.875000
3944		-164.062500
3945		-169.921875
3946		-166.015625
3947		-167.968750
3948		-166.015625
3949		-171.875000
3950		-164.062500
3951		-169.921875
3952		-164.062500
3953		-169.921875
3954		-164.062500
3955		-169.921875
3956		-162.109375
3957		-169.921875
3958		-162.109375
3959		-167.968750
3960		-162.109375
3961		-167.968750
3962		-162.109375
3963		-164.062500
3964		-162.109375
3965		-164.062500
3966		-160.156250
3967		-164.062500
3968		-156.250000
3969		-162.109375
3970		-154.296875
3971		-160.156250
3972		-154.296875
3973		-158.203125
3974		-152.343750
3975		-158.203125
3976		-150.390625
3977		-156.250000
3978		-148.437500
3979		-152.343750
3980		-148.437500
3981		-150.390625
3982		-144.531250
3983		-148.437500
3984		-142.578125
3985		-146.484375
3986		-138.671875
3987		-144.531250
3988		-134.765625
3989		-140.625000
3990		-132.812500
3991		-138.671875
3992		-130.859375
3993		-136.718750
3994		-126.953125
3995		-132.812500
3996		-126.953125
3997		-128.906250
3998		-123.046875
3999		-125.000000
4000		-119.140625
4001		-123.046875
4002		-115.234375
4003		-119.140625
4004		-109.375000
4005		-115.234375
4006		-107.421875
4007		-111.328125
4008		-103.515625
4009		-109.375000
4010		-99.609375
4011		-105.468750
4012		-97.656250
4013		-99.609375
4014		-93.750000
4015		-95.703125
4016		-89.843750
4017		-91.796875
4018		-83.984375
4019		-87.890625
4020		-80.078125
4021		-85.937500
4022		-76.171875
4023		-80.078125
4024		-72.265625
4025		-76.171875
4026		-68.359375
4027		-72.265625
4028		-62.500000
4029		-68.359375
4030		-60.546875
4031		-62.500000
4032		-56.640625
4033		-56.640625
4034		-50.781250
4035		-54.687500
4036		-44.921875
4037		-50.781250
4038		-41.015625
4039		-46.875000
4040		-37.109375
4041		-39.062500
4042		-31.250000
4043		-37.109375
4044		-27.343750
4045		-33.203125
4046		-23.437500
4047		-25.390625
4048		-19.531250
4049		-21.484375
4050		-15.625000
4051		-17.578125
4052		-9.765625
4053		-15.625000
4054		-5.859375
4055		-9.765625
4056		0.000000
4057		-3.906250
4058		5.859375
4059		-1.953125
4060		7.812500
4061		3.906250
4062		13.671875
4063		9.765625
4064		15.625000
4065		13.671875
4066		19.531250
4067		17.578125
4068		25.390625
4069		21.484375
4070		29.296875
4071		25.390625
4072		35.156250
4073		29.296875
4074		39.062500
4075		33.203125
4076		42.968750
4077		37.109375
4078		46.875000
4079		42.968750
4080		48.828125
4081		46.875000
4082		52.734375
4083		50.781250
4084		58.593750
4085		52.734375
4086		62.500000
4087		58.593750
4088		66.406250
4089		62.500000
4090		70.312500
4091		66.406250
4092		74.218750
4093		68.359375
4094		78.125000
4095		74.218750
4096		80.078125
4097		78.125000
4098		83.984375
4099		82.031250
4100		85.937500
4101		83.984375
4102		91.796875
4103		85.937500
4104		95.703125
4105		89.843750
4106		97.656250
4107		93.750000
4108		101.562500
4109		95.703125
4110		103.515625
4111		97.656250
4112		107.421875
4113		101.562500
4114		109.375000
4115		107.421875
4116		111.328125
4117		109.375000
4118		115.234375
4119		109.375000
4120		119.140625
4121		113.281250
4122		121.093750
4123		117.187500
4124		125.000000
4125		119.140625
4126		126.953125
4127		121.093750
4128		128.906250
4129		123.046875
4130		130.859375
4131		126.953125
4132		130.859375
4133		128.906250
4134		132.812500
4135		128.906250
4136		136.718750
4137		130.859375
4138		138.671875
4139		134.765625
4140		140.625000
4141		136.718750
4142		142.578125
4143		136.718750
4144		144.531250
4145		138.671875
4146		146.484375
4147		142.578125
4148		146.484375
4149		144.531250
4150		146.484375
4151		144.531250
4152		150.390625
4153		144.531250
4154		152.343750
4155		146.484375
4156		152.343750
4157		146.484375
4158		154.296875
4159		148.437500
4160		154.296875
4161		148.437500
4162		156.250000
4163		150.390625
4164		156.250000
4165		152.343750
4166		156.250000
4167		152.343750
4168		156.250000
4169		152.343750
4170		160.156250
4171		152.343750
4172		158.203125
4173		152.343750
4174		160.156250
4175		152.343750
4176		160.156250
4177		152.343750
4178		160.156250
4179		154.296875
4180		160.156250
4181		156.250000
4182		158.203125
4183		156.250000
4184		158.203125
4185		154.296875
4186		160.156250
4187		154.296875
4188		160.156250
4189		152.343750
4190		160.156250
4191		152.343750
4192		160.156250
4193		152.343750
4194		158.203125
4195		152.343750
4196		158.203125
4197		152.343750
4198		158.203125
4199		152.343750
4200		156.250000
4201		148.437500
4202		156.250000
4203		148.437500
4204		156.250000
4205		148.437500
4206		156.250000
4207		146.484375
4208		154.296875
4209		146.484375
4210		152.343750
4211		144.531250
4212		152.343750
4213		144.531250
4214		150.390625
4215		142.578125
4216		146.484375
4217		142.578125
4218		144.531250
4219		138.671875
4220		144.531250
4221		136.718750
4222		144.531250
4223		134.765625
4224		142.578125
4225		132.812500
4226		138.671875
4227		132.812500
4228		138.671875
4229		128.906250
4230		136.718750
4231		128.906250
4232		134.765625
4233		126.953125
4234		130.859375
4235		123.046875
4236		128.906250
4237		119.140625
4238		128.906250
4239		117.187500
4240		125.000000
4241		113.281250
4242		123.046875
4243		111.328125
4244		119.140625
4245		109.375000
4246		117.187500
4247		107.421875
4248		113.281250
4249		105.468750
4250		109.375000
4251		101.562500
4252		107.421875
4253		97.656250
4254		105.468750
4255		93.750000
4256		101.562500
4257		89.843750
4258		99.609375
4259		85.937500
4260		95.703125
4261		83.984375
4262		91.796875
4263		80.078125
4264		87.890625
4265		78.125000
4266		83.984375
4267		74.218750
4268		80.078125
4269		70.312500
4270		76.171875
4271		66.406250
4272		74.218750
4273		62.500000
4274		70.312500
4275		56.640625
4276		66.406250
4277		52.734375
4278		62.500000
4279		48.828125
4280		58.593750
4281		46.875000
4282		54.687500
4283		42.968750
4284		48.828125
4285		37.109375
4286		44.921875
4287		33.203125
4288		42.968750
4289		29.296875
4290		37.109375
4291		23.437500
4292		33.203125
4293		21.484375
4294		29.296875
4295		15.625000
4296		25.390625
4297		13.671875
4298		21.484375
4299		9.765625
4300		13.671875
4301		3.906250
4302		9.765625
4303		-1.953125
4304		5.859375
4305		-5.859375
4306		3.906250
4307		-9.765625
4308		-1.953125
4309		-13.671875
4310		-5.859375
4311		-17.578125
4312		-9.765625
4313		-25.390625
4314		-15.625000
4315		-27.343750
4316		-19.531250
4317		-31.250000
4318		-25.390625
4319		-35.156250
4320		-29.296875
4321		-41.015625
4322		-31.250000
4323		-46.875000
4324		-37.109375
4325		-50.781250
4326		-39.062500
4327		-52.734375
4328		-44.921875
4329		-58.593750
4330		-48.828125
4331		-62.500000
4332		-52.734375
4333		-64.453125
4334		-60.546875
4335		-70.312500
4336		-64.453125
4337		-76.171875
4338		-66.406250
4339		-78.125000
4340		-70.312500
4341		-83.984375
4342		-74.218750
4343		-87.890625
4344		-78.125000
4345		-91.796875
4346		-83.984375
4347		-95.703125
4348		-85.937500
4349		-97.656250
4350		-91.796875
4351		-101.562500
4352		-95.703125
4353		-105.468750
4354		-99.609375
4355		-109.375000
4356		-101.562500
4357		-113.281250
4358		-105.468750
4359		-117.187500
4360		-109.375000
4361		-121.093750
4362		-113.281250
4363		-123.046875
4364		-115.234375
4365		-125.000000
4366		-119.140625
4367		-128.906250
4368		-123.046875
4369		-132.812500
4370		-126.953125
4371		-136.718750
4372		-126.953125
4373		-138.671875
4374		-130.859375
4375		-142.578125
4376		-134.765625
4377		-144.531250
4378		-136.718750
4379		-146.484375
4380		-138.671875
4381		-148.437500
4382		-142.578125
4383		-150.390625
4384		-146.484375
4385		-150.390625
4386		-148.437500
4387		-156.250000
4388		-148.437500
4389		-156.250000
4390		-150.390625
4391		-158.203125
4392		-152.343750
4393		-160.156250
4394		-154.296875
4395		-162.109375
4396		-154.296875
4397		-164.062500
4398		-156.250000
4399		-164.062500
4400		-158.203125
4401		-164.062500
4402		-162.109375
4403		-167.968750
4404		-160.156250
4405		-167.968750
4406		-162.109375
4407		-169.921875
4408		-162.109375
4409		-169.921875
4410		-164.062500
4411		-169.921875
4412		-164.062500
4413		-169.921875
4414		-164.062500
4415		-171.875000
4416		-164.062500
4417		-169.921875
4418		-166.015625
4419		-169.921875
4420		-166.015625
4421		-171.875000
4422		-164.062500
4423		-171.875000
4424		-164.062500
4425		-169.921875
4426		-164.062500
4427		-169.921875
4428		-164.062500
4429		-169.921875
4430		-162.109375
4431		-167.968750
4432		-162.109375
4433		-166.015625
4434		-162.109375
4435		-164.062500
4436		-162.109375
4437		-166.015625
4438		-158.203125
4439		-164.062500
4440		-156.250000
4441		-162.109375
4442		-154.296875
4443		-160.156250
4444		-152.343750
4445		-160.156250
4446		-152.343750
4447		-156.250000
4448		-150.390625
4449		-154.296875
4450		-148.437500
4451		-150.390625
4452		-146.484375
4453		-148.437500
4454		-144.531250
4455		-148.437500
4456		-140.625000
4457		-146.484375
4458		-138.671875
4459		-142.578125
4460		-134.765625
4461		-140.625000
4462		-132.812500
4463		-136.718750
4464		-128.906250
4465		-134.765625
4466		-126.953125
4467		-128.906250
4468		-125.000000
4469		-126.953125
4470		-121.093750
4471		-125.000000
4472		-117.187500
4473		-121.093750
4474		-113.281250
4475		-117.187500
4476		-109.375000
4477		-115.234375
4478		-105.468750
4479		-111.328125
4480		-101.562500
4481		-105.468750
4482		-97.656250
4483		-103.515625
4484		-95.703125
4485		-97.656250
4486		-91.796875
4487		-93.750000
4488		-85.937500
4489		-89.843750
4490		-82.031250
4491		-87.890625
4492		-78.125000
4493		-83.984375
4494		-74.218750
4495		-80.078125
4496		-70.312500
4497		-74.218750
4498		-66.406250
4499		-70.312500
4500		-62.500000
4501		-64.453125
4502		-58.593750
4503		-60.546875
4504		-52.734375
4505		-56.640625
4506		-46.875000
4507		-52.734375
4508		-44.921875
4509		-48.828125
4510		-39.062500
4511		-44.921875
4512		-33.203125
4513		-39.062500
4514		-31.250000
4515		-35.156250
4516		-25.390625
4517		-29.296875
4518		-23.437500
4519		-23.437500
4520		-17.578125
4521		-19.531250
4522		-13.671875
4523		-17.578125
4524		-7.812500
4525		-11.718750
4526		-1.953125
4527		-5.859375
4528		1.953125
4529		-1.953125
4530		5.859375
4531		0.000000
4532		9.765625
4533		5.859375
4534		13.671875
4535		11.718750
4536		17.578125
4537		15.625000
4538		21.484375
4539		17.578125
4540		27.343750
4541		23.437500
4542		33.203125
4543		29.296875
4544		37.109375
4545		31.250000
4546		41.015625
4547		35.156250
4548		44.921875
4549		39.062500
4550		46.875000
4551		44.921875
4552		50.781250
4553		48.828125
4554		54.687500
4555		52.734375
4556		60.546875
4557		56.640625
4558		64.453125
4559		60.546875
4560		68.359375
4561		62.500000
4562		72.265625
4563		66.406250
4564		76.171875
4565		70.312500
4566		80.078125
4567		76.171875
4568		82.031250
4569		80.078125
4570		83.984375
4571		83.984375
4572		89.843750
4573		85.937500
4574		93.750000
4575		87.890625
4576		95.703125
4577		89.843750
4578		99.609375
4579		95.703125
4580		103.515625
4581		97.656250
4582		105.468750
4583		99.609375
4584		107.421875
4585		105.468750
4586		109.375000
4587		107.421875
4588		113.281250
4589		109.375000
4590		117.187500
4591		111.328125
4592		119.140625
4593		113.281250
4594		123.046875
4595		117.187500
4596		125.000000
4597		119.140625
4598		126.953125
4599		121.093750
4600		128.906250
4601		125.000000
4602		128.906250
4603		126.953125
4604		130.859375
4605		128.906250
4606		134.765625
4607		130.859375
4608		138.671875
4609		132.812500
4610		140.625000
4611		132.812500
4612		140.625000
4613		136.718750
4614		142.578125
4615		136.718750
4616		144.531250
4617		138.671875
4618		144.531250
4619		142.578125
4620		146.484375
4621		144.531250
4622		148.437500
4623		142.578125
4624		150.390625
4625		144.531250
4626		152.343750
4627		146.484375
4628		152.343750
4629		146.484375
4630		154.296875
4631		148.437500
4632		154.296875
4633		148.437500
4634		156.250000
4635		152.343750
4636		154.296875
4637		152.343750
4638		156.250000
4639		150.390625
4640		158.203125
4641		152.343750
4642		158.203125
4643		152.343750
4644		158.203125
4645		152.343750
4646		160.156250
4647		152.343750
4648		160.156250
4649		152.343750
4650		160.156250
4651		154.296875
4652		160.156250
4653		156.250000
4654		158.203125
4655		154.296875
4656		160.156250
4657		152.343750
4658		160.156250
4659		152.343750
4660		160.156250
4661		152.343750
4662		160.156250
4663		152.343750
4664		160.156250
4665		152.343750
4666		158.203125
4667		152.343750
4668		158.203125
4669		152.343750
4670		156.250000
4671		152.343750
4672		154.296875
4673		148.437500
4674		156.250000
4675		148.437500
4676		156.250000
4677		146.484375
4678		154.296875
4679		146.484375
4680		154.296875
4681		144.531250
4682		152.343750
4683		144.531250
4684		150.390625
4685		144.531250
4686		146.484375
4687		142.578125
4688		146.484375
4689		138.671875
4690		144.531250
4691		136.718750
4692		144.531250
4693		136.718750
4694		142.578125
4695		134.765625
4696		140.625000
4697		132.812500
4698		138.671875
4699		128.906250
4700		136.718750
4701		128.906250
4702		134.765625
4703		126.953125
4704		130.859375
4705		123.046875
4706		128.906250
4707		121.093750
4708		128.906250
4709		119.140625
4710		125.000000
4711		117.187500
4712		123.046875
4713		113.281250
4714		121.093750
4715		109.375000
4716		117.187500
4717		107.421875
4718		115.234375
4719		105.468750
4720		111.328125
4721		103.515625
4722		107.421875
4723		97.656250
4724		105.468750
4725		95.703125
4726		101.562500
4727		91.796875
4728		99.609375
4729		87.890625
4730		95.703125
4731		83.984375
4732		93.750000
4733		82.031250
4734		89.843750
4735		80.078125
4736		85.937500
4737		76.171875
4738		82.031250
4739		72.265625
4740		78.125000
4741		66.406250
4742		74.218750
4743		62.500000
4744		70.312500
4745		58.593750
4746		66.406250
4747		54.687500
4748		62.500000
4749		52.734375
4750		58.593750
4751		48.828125
4752		54.687500
4753		44.921875
4754		50.781250
4755		41.015625
4756		46.875000
4757		35.156250
4758		42.968750
4759		29.296875
4760		39.062500
4761		25.390625
4762		35.156250
4763		21.484375
4764		29.296875
4765		17.578125
4766		27.343750
4767		13.671875
4768		21.484375
4769		9.765625
4770		15.625000
4771		5.859375
4772		11.718750
4773		0.000000
4774		7.812500
4775		-5.859375
4776		3.906250
4777		-9.765625
4778		0.000000
4779		-13.671875
4780		-3.906250
4781		-17.578125
4782		-7.812500
4783		-23.437500
4784		-13.671875
4785		-25.390625
4786		-17.578125
4787		-29.296875
4788		-23.437500
4789		-35.156250
4790		-27.343750
4791		-41.015625
4792		-31.250000
4793		-44.921875
4794		-35.156250
4795		-46.875000
4796		-39.062500
4797		-52.734375
4798		-42.968750
4799		-58.593750
4800		-48.828125
4801		-60.546875
4802		-52.734375
4803		-64.453125
4804		-58.593750
4805		-68.359375
4806		-62.500000
4807		-74.218750
4808		-66.406250
4809		-78.125000
4810		-70.312500
4811		-82.031250
4812		-72.265625
4813		-85.937500
4814		-76.171875
4815		-89.843750
4816		-82.031250
4817		-93.750000
4818		-83.984375
4819		-95.703125
4820		-87.890625
4821		-99.609375
4822		-93.750000
4823		-105.468750
4824		-97.656250
4825		-107.421875
4826		-99.609375
4827		-111.328125
4828		-103.515625
4829		-115.234375
4830		-107.421875
4831		-119.140625
4832		-111.328125
4833		-121.093750
4834		-113.281250
4835		-125.000000
4836		-117.187500
4837		-126.953125
4838		-121.093750
4839		-128.906250
4840		-125.000000
4841		-134.765625
4842		-126.953125
4843		-136.718750
4844		-128.906250
4845		-140.625000
4846		-132.812500
4847		-142.578125
4848		-134.765625
4849		-144.531250
4850		-136.718750
4851		-146.484375
4852		-138.671875
4853		-146.484375
4854		-142.578125
4855		-150.390625
4856		-146.484375
4857		-154.296875
4858		-146.484375
4859		-156.250000
4860		-148.437500
4861		-158.203125
4862		-150.390625
4863		-158.203125
4864		-152.343750
4865		-160.156250
4866		-152.343750
4867		-162.109375
4868		-154.296875
4869		-162.109375
4870		-156.250000
4871		-162.109375
4872		-160.156250
4873		-164.062500
4874		-160.156250
4875		-166.015625
4876		-160.156250
4877		-167.968750
4878		-160.156250
4879		-167.968750
4880		-160.156250
4881		-167.968750
4882		-162.109375
4883		-169.921875
4884		-162.109375
4885		-169.921875
4886		-162.109375
4887		-167.968750
4888		-164.062500
4889		-167.968750
4890		-164.062500
4891		-169.921875
4892		-162.109375
4893		-167.968750
4894		-162.109375
4895		-167.968750
4896		-162.109375
4897		-167.968750
4898		-160.156250
4899		-167.968750
4900		-160.156250
4901		-166.015625
4902		-160.156250
4903		-166.015625
4904		-160.156250
4905		-162.109375
4906		-160.156250
4907		-162.109375
4908		-158.203125
4909		-162.109375
4910		-154.296875
4911		-162.109375
4912		-154.296875
4913		-160.156250
4914		-152.343750
4915		-156.250000
4916		-150.390625
4917		-156.250000
4918		-148.437500
4919		-152.343750
4920		-146.484375
4921		-150.390625
4922		-144.531250
4923		-146.484375
4924		-142.578125
4925		-146.484375
4926		-138.671875
4927		-144.531250
4928		-136.718750
4929		-140.625000
4930		-132.812500
4931		-138.671875
4932		-130.859375
4933		-136.718750
4934		-126.953125
4935		-132.812500
4936		-125.000000
4937		-128.906250
4938		-123.046875
4939		-125.000000
4940		-121.093750
4941		-121.093750
4942		-115.234375
4943		-119.140625
4944		-111.328125
4945		-117.187500
4946		-109.375000
4947		-113.281250
4948		-105.468750
4949		-109.375000
4950		-101.562500
4951		-105.468750
4952		-97.656250
4953		-101.562500
4954		-95.703125
4955		-97.656250
4956		-91.796875
4957		-91.796875
4958		-85.937500
4959		-89.843750
4960		-82.031250
4961		-85.937500
4962		-78.125000
4963		-82.031250
4964		-74.218750
4965		-78.125000
4966		-68.359375
4967		-74.218750
4968		-64.453125
4969		-70.312500
4970		-60.546875
4971		-62.500000
4972		-58.593750
4973		-58.593750
4974		-52.734375
4975		-54.687500
4976		-46.875000
4977		-52.734375
4978		-44.921875
4979		-46.875000
4980		-37.109375
4981		-42.968750
4982		-33.203125
4983		-37.109375
4984		-29.296875
4985		-35.156250
4986		-25.390625
4987		-29.296875
4988		-21.484375
4989		-23.437500
4990		-17.578125
4991		-19.531250
4992		-11.718750
4993		-15.625000
4994		-7.812500
4995		-11.718750
4996		-1.953125
4997		-5.859375
4998		1.953125
4999		-1.953125
5000		5.859375
5001		1.953125
5002		9.765625
5003		5.859375
5004		13.671875
5005		11.718750
5006		17.578125
5007		17.578125
5008		21.484375
5009		19.531250
5010		27.343750
5011		23.437500
5012		33.203125
5013		29.296875
5014		37.109375
5015		31.250000
5016		41.015625
5017		37.109375
5018		44.921875
5019		41.015625
5020		48.828125
5021		44.921875
5022		52.734375
5023		50.781250
5024		54.687500
5025		52.734375
5026		60.546875
5027		56.640625
5028		64.453125
5029		60.546875
5030		68.359375
5031		62.500000
5032		72.265625
5033		68.359375
5034		76.171875
5035		72.265625
5036		80.078125
5037		76.171875
5038		82.031250
5039		80.078125
5040		83.984375
5041		83.984375
5042		89.843750
5043		87.890625
5044		93.750000
5045		89.843750
5046		95.703125
5047		91.796875
5048		99.609375
5049		95.703125
5050		103.515625
5051		99.609375
5052		105.468750
5053		101.562500
5054		107.421875
5055		105.468750
5056		109.375000
5057		109.375000
5058		113.281250
5059		111.328125
5060		115.234375
5061		111.328125
5062		119.140625
5063		115.234375
5064		123.046875
5065		117.187500
5066		125.000000
5067		121.093750
5068		126.953125
5069		123.046875
5070		130.859375
5071		125.000000
5072		130.859375
5073		128.906250
5074		132.812500
5075		130.859375
5076		136.718750
5077		132.812500
5078		138.671875
5079		132.812500
5080		140.625000
5081		134.765625
5082		142.578125
5083		138.671875
5084		142.578125
5085		140.625000
5086		144.531250
5087		142.578125
5088		146.484375
5089		142.578125
5090		146.484375
5091		144.531250
5092		148.437500
5093		144.531250
5094		150.390625
5095		146.484375
5096		152.343750
5097		146.484375
5098		152.343750
5099		148.437500
5100		154.296875
5101		150.390625
5102		154.296875
5103		150.390625
5104		154.296875
5105		152.343750
5106		156.250000
5107		154.296875
5108		156.250000
5109		152.343750
5110		158.203125
5111		154.296875
5112		158.203125
5113		154.296875
5114		160.156250
5115		154.296875
5116		160.156250
5117		156.250000
5118		160.156250
5119		156.250000
5120		160.156250
5121		156.250000
5122		160.156250
5123		156.250000
5124		160.156250
5125		156.250000
5126		160.156250
5127		156.250000
5128		160.156250
5129		156.250000
5130		160.156250
5131		154.296875
5132		160.156250
5133		154.296875
5134		160.156250
5135		154.296875
5136		158.203125
5137		152.343750
5138		158.203125
5139		154.296875
5140		156.250000
5141		152.343750
5142		156.250000
5143		152.343750
5144		156.250000
5145		150.390625
5146		154.296875
5147		150.390625
5148		154.296875
5149		148.437500
5150		152.343750
5151		148.437500
5152		152.343750
5153		146.484375
5154		150.390625
5155		144.531250
5156		150.390625
5157		144.531250
5158		146.484375
5159		142.578125
5160		146.484375
5161		140.625000
5162		144.531250
5163		138.671875
5164		142.578125
5165		136.718750
5166		140.625000
5167		134.765625
5168		140.625000
5169		132.812500
5170		138.671875
5171		130.859375
5172		134.765625
5173		128.906250
5174		132.812500
5175		126.953125
5176		130.859375
5177		125.000000
5178		128.906250
5179		121.093750
5180		126.953125
5181		119.140625
5182		125.000000
5183		117.187500
5184		121.093750
5185		115.234375
5186		119.140625
5187		111.328125
5188		117.187500
5189		109.375000
5190		113.281250
5191		105.468750
5192		111.328125
5193		103.515625
5194		107.421875
5195		99.609375
5196		105.468750
5197		95.703125
5198		101.562500
5199		91.796875
5200		97.656250
5201		89.843750
5202		95.703125
5203		85.937500
5204		91.796875
5205		82.031250
5206		87.890625
5207		78.125000
5208		83.984375
5209		74.218750
5210		80.078125
5211		72.265625
5212		78.125000
5213		68.359375
5214		74.218750
5215		64.453125
5216		70.312500
5217		60.546875
5218		66.406250
5219		56.640625
5220		62.500000
5221		50.781250
5222		58.593750
5223		48.828125
5224		52.734375
5225		44.921875
5226		50.781250
5227		39.062500
5228		44.921875
5229		35.156250
5230		41.015625
5231		31.250000
5232		37.109375
5233		27.343750
5234		33.203125
5235		23.437500
5236		29.296875
5237		19.531250
5238		23.437500
5239		13.671875
5240		19.531250
5241		9.765625
5242		15.625000
5243		3.906250
5244		11.718750
5245		0.000000
5246		7.812500
5247		-3.906250
5248		1.953125
5249		-7.812500
5250		-1.953125
5251		-13.671875
5252		-5.859375
5253		-15.625000
5254		-9.765625
5255		-21.484375
5256		-13.671875
5257		-25.390625
5258		-19.531250
5259		-29.296875
5260		-23.437500
5261		-35.156250
5262		-27.343750
5263		-39.062500
5264		-33.203125
5265		-42.968750
5266		-37.109375
5267		-46.875000
5268		-41.015625
5269		-52.734375
5270		-44.921875
5271		-56.640625
5272		-50.781250
5273		-60.546875
5274		-54.687500
5275		-64.453125
5276		-58.593750
5277		-68.359375
5278		-62.500000
5279		-72.265625
5280		-66.406250
5281		-76.171875
5282		-70.312500
5283		-82.031250
5284		-76.171875
5285		-83.984375
5286		-78.125000
5287		-87.890625
5288		-83.984375
5289		-91.796875
5290		-87.890625
5291		-95.703125
5292		-89.843750
5293		-99.609375
5294		-95.703125
5295		-103.515625
5296		-97.656250
5297		-107.421875
5298		-101.562500
5299		-111.328125
5300		-105.468750
5301		-115.234375
5302		-109.375000
5303		-117.187500
5304		-113.281250
5305		-123.046875
5306		-115.234375
5307		-125.000000
5308		-119.140625
5309		-126.953125
5310		-123.046875
5311		-130.859375
5312		-125.000000
5313		-132.812500
5314		-128.906250
5315		-136.718750
5316		-130.859375
5317		-138.671875
5318		-132.812500
5319		-140.625000
5320		-136.718750
5321		-144.531250
5322		-140.625000
5323		-146.484375
5324		-142.578125
5325		-148.437500
5326		-144.531250
5327		-152.343750
5328		-146.484375
5329		-154.296875
5330		-148.437500
5331		-154.296875
5332		-150.390625
5333		-156.250000
5334		-152.343750
5335		-158.203125
5336		-154.296875
5337		-158.203125
5338		-156.250000
5339		-160.156250
5340		-156.250000
5341		-162.109375
5342		-158.203125
5343		-162.109375
5344		-160.156250
5345		-164.062500
5346		-160.156250
5347		-166.015625
5348		-162.109375
5349		-166.015625
5350		-162.109375
5351		-166.015625
5352		-164.062500
5353		-167.968750
5354		-164.062500
5355		-167.968750
5356		-164.062500
5357		-167.968750
5358		-164.062500
5359		-167.968750
5360		-164.062500
5361		-167.968750
5362		-164.062500
5363		-167.968750
5364		-164.062500
5365		-167.968750
5366		-164.062500
5367		-167.968750
5368		-164.062500
5369		-166.015625
5370		-162.109375
5371		-166.015625
5372		-162.109375
5373		-166.015625
5374		-162.109375
5375		-164.062500
5376		-160.156250
5377		-162.109375
5378		-160.156250
5379		-162.109375
5380		-158.203125
5381		-160.156250
5382		-156.250000
5383		-160.156250
5384		-154.296875
5385		-156.250000
5386		-152.343750
5387		-154.296875
5388		-150.390625
5389		-152.343750
5390		-148.437500
5391		-152.343750
5392		-146.484375
5393		-148.437500
5394		-144.531250
5395		-146.484375
5396		-142.578125
5397		-144.531250
5398		-138.671875
5399		-142.578125
5400		-136.718750
5401		-138.671875
5402		-134.765625
5403		-136.718750
5404		-130.859375
5405		-132.812500
5406		-128.906250
5407		-130.859375
5408		-125.000000
5409		-126.953125
5410		-123.046875
5411		-123.046875
5412		-117.187500
5413		-121.093750
5414		-115.234375
5415		-117.187500
5416		-113.281250
5417		-113.281250
5418		-107.421875
5419		-111.328125
5420		-105.468750
5421		-107.421875
5422		-101.562500
5423		-103.515625
5424		-97.656250
5425		-99.609375
5426		-93.750000
5427		-95.703125
5428		-89.843750
5429		-91.796875
5430		-85.937500
5431		-87.890625
5432		-82.031250
5433		-83.984375
5434		-78.125000
5435		-80.078125
5436		-74.218750
5437		-76.171875
5438		-70.312500
5439		-70.312500
5440		-64.453125
5441		-66.406250
5442		-60.546875
5443		-62.500000
5444		-56.640625
5445		-58.593750
5446		-50.781250
5447		-52.734375
5448		-46.875000
5449		-48.828125
5450		-42.968750
5451		-44.921875
5452		-39.062500
5453		-41.015625
5454		-33.203125
5455		-35.156250
5456		-29.296875
5457		-31.250000
5458		-25.390625
5459		-25.390625
5460		-19.531250
5461		-21.484375
5462		-15.625000
5463		-19.531250
5464		-11.718750
5465		-13.671875
5466		-5.859375
5467		-7.812500
5468		-1.953125
5469		-3.906250
5470		1.953125
5471		0.000000
5472		5.859375
5473		3.906250
5474		11.718750
5475		7.812500
5476		15.625000
5477		13.671875
5478		19.531250
5479		17.578125
5480		23.437500
5481		21.484375
5482		29.296875
5483		27.343750
5484		31.250000
5485		31.250000
5486		37.109375
5487		35.156250
5488		41.015625
5489		39.062500
5490		44.921875
5491		42.968750
5492		48.828125
5493		46.875000
5494		52.734375
5495		50.781250
5496		58.593750
5497		54.687500
5498		60.546875
5499		58.593750
5500		64.453125
5501		62.500000
5502		68.359375
5503		66.406250
5504		72.265625
5505		70.312500
5506		76.171875
5507		74.218750
5508		80.078125
5509		78.125000
5510		82.031250
5511		82.031250
5512		85.937500
5513		83.984375
5514		89.843750
5515		85.937500
5516		93.750000
5517		91.796875
5518		97.656250
5519		93.750000
5520		99.609375
5521		95.703125
5522		103.515625
5523		99.609375
5524		105.468750
5525		103.515625
5526		107.421875
5527		107.421875
5528		111.328125
5529		109.375000
5530		115.234375
5531		111.328125
5532		117.187500
5533		113.281250
5534		121.093750
5535		117.187500
5536		123.046875
5537		119.140625
5538		125.000000
5539		121.093750
5540		126.953125
5541		123.046875
5542		128.906250
5543		126.953125
5544		130.859375
5545		128.906250
5546		132.812500
5547		130.859375
5548		136.718750
5549		132.812500
5550		138.671875
5551		134.765625
5552		140.625000
5553		136.718750
5554		142.578125
5555		138.671875
5556		142.578125
5557		140.625000
5558		146.484375
5559		140.625000
5560		144.531250
5561		144.531250
5562		146.484375
5563		144.531250
5564		150.390625
5565		144.531250
5566		150.390625
5567		146.484375
5568		152.343750
5569		148.437500
5570		152.343750
5571		148.437500
5572		154.296875
5573		150.390625
5574		154.296875
5575		150.390625
5576		154.296875
5577		152.343750
5578		154.296875
5579		152.343750
5580		156.250000
5581		154.296875
5582		156.250000
5583		154.296875
5584		158.203125
5585		154.296875
5586		156.250000
5587		154.296875
5588		158.203125
5589		154.296875
5590		158.203125
5591		154.296875
5592		158.203125
5593		156.250000
5594		158.203125
5595		156.250000
5596		158.203125
5597		154.296875
5598		158.203125
5599		156.250000
5600		158.203125
5601		156.250000
5602		158.203125
5603		154.296875
5604		158.203125
5605		154.296875
5606		156.250000
5607		154.296875
5608		156.250000
5609		152.343750
5610		156.250000
5611		152.343750
5612		156.250000
5613		152.343750
5614		154.296875
5615		150.390625
5616		154.296875
5617		150.390625
5618		152.343750
5619		148.437500
5620		152.343750
5621		148.437500
5622		150.390625
5623		146.484375
5624		150.390625
5625		144.531250
5626		148.437500
5627		144.531250
5628		146.484375
5629		142.578125
5630		146.484375
5631		140.625000
5632		144.531250
5633		138.671875
5634		142.578125
5635		136.718750
5636		140.625000
5637		134.765625
5638		138.671875
5639		132.812500
5640		136.718750
5641		130.859375
5642		134.765625
5643		128.906250
5644		132.812500
5645		126.953125
5646		130.859375
5647		125.000000
5648		128.906250
5649		123.046875
5650		126.953125
5651		119.140625
5652		123.046875
5653		117.187500
5654		121.093750
5655		115.234375
5656		119.140625
5657		111.328125
5658		115.234375
5659		109.375000
5660		113.281250
5661		105.468750
5662		111.328125
5663		103.515625
5664		107.421875
5665		99.609375
5666		105.468750
5667		95.703125
5668		101.562500
5669		93.750000
5670		97.656250
5671		89.843750
5672		95.703125
5673		85.937500
5674		91.796875
5675		83.984375
5676		87.890625
5677		80.078125
5678		83.984375
5679		76.171875
5680		82.031250
5681		70.312500
5682		80.078125
5683		66.406250
5684		74.218750
5685		62.500000
5686		70.312500
5687		60.546875
5688		66.406250
5689		56.640625
5690		62.500000
5691		52.734375
5692		58.593750
5693		48.828125
5694		54.687500
5695		44.921875
5696		50.781250
5697		37.109375
5698		46.875000
5699		33.203125
5700		44.921875
5701		29.296875
5702		41.015625
5703		27.343750
5704		37.109375
5705		23.437500
5706		29.296875
5707		19.531250
5708		25.390625
5709		15.625000
5710		19.531250
5711		9.765625
5712		15.625000
5713		5.859375
5714		11.718750
5715		1.953125
5716		9.765625
5717		-3.906250
5718		5.859375
5719		-9.765625
5720		1.953125
5721		-11.718750
5722		-5.859375
5723		-15.625000
5724		-9.765625
5725		-19.531250
5726		-15.625000
5727		-25.390625
5728		-19.531250
5729		-29.296875
5730		-23.437500
5731		-37.109375
5732		-27.343750
5733		-41.015625
5734		-29.296875
5735		-44.921875
5736		-35.156250
5737		-46.875000
5738		-41.015625
5739		-50.781250
5740		-44.921875
5741		-54.687500
5742		-50.781250
5743		-60.546875
5744		-54.687500
5745		-64.453125
5746		-58.593750
5747		-70.312500
5748		-62.500000
5749		-76.171875
5750		-62.500000
5751		-80.078125
5752		-68.359375
5753		-82.031250
5754		-72.265625
5755		-83.984375
5756		-78.125000
5757		-87.890625
5758		-83.984375
5759		-91.796875
5760		-85.937500
5761		-95.703125
5762		-91.796875
5763		-99.609375
5764		-95.703125
5765		-107.421875
5766		-95.703125
5767		-109.375000
5768		-99.609375
5769		-113.281250
5770		-103.515625
5771		-113.281250
5772		-109.375000
5773		-117.187500
5774		-113.281250
5775		-121.093750
5776		-115.234375
5777		-123.046875
5778		-119.140625
5779		-126.953125
5780		-123.046875
5781		-132.812500
5782		-123.046875
5783		-136.718750
5784		-125.000000
5785		-138.671875
5786		-128.906250
5787		-140.625000
5788		-130.859375
5789		-140.625000
5790		-136.718750
5791		-144.531250
5792		-140.625000
5793		-146.484375
5794		-142.578125
5795		-148.437500
5796		-144.531250
5797		-150.390625
5798		-146.484375
5799		-156.250000
5800		-146.484375
5801		-158.203125
5802		-148.437500
5803		-158.203125
5804		-150.390625
5805		-158.203125
5806		-154.296875
5807		-160.156250
5808		-156.250000
5809		-162.109375
5810		-158.203125
5811		-162.109375
5812		-160.156250
5813		-164.062500
5814		-160.156250
5815		-167.968750
5816		-158.203125
5817		-169.921875
5818		-160.156250
5819		-169.921875
5820		-162.109375
5821		-167.968750
5822		-164.062500
5823		-167.968750
5824		-166.015625
5825		-167.968750
5826		-166.015625
5827		-167.968750
5828		-166.015625
5829		-169.921875
5830		-166.015625
5831		-169.921875
5832		-166.015625
5833		-171.875000
5834		-164.062500
5835		-171.875000
5836		-164.062500
5837		-171.875000
5838		-162.109375
5839		-167.968750
5840		-166.015625
5841		-167.968750
5842		-164.062500
5843		-166.015625
5844		-164.062500
5845		-166.015625
5846		-162.109375
5847		-166.015625
5848		-162.109375
5849		-166.015625
5850		-156.250000
5851		-164.062500
5852		-156.250000
5853		-164.062500
5854		-154.296875
5855		-158.203125
5856		-156.250000
5857		-158.203125
5858		-154.296875
5859		-156.250000
5860		-152.343750
5861		-154.296875
5862		-150.390625
5863		-152.343750
5864		-148.437500
5865		-150.390625
5866		-146.484375
5867		-148.437500
5868		-140.625000
5869		-144.531250
5870		-136.718750
5871		-142.578125
5872		-138.671875
5873		-140.625000
5874		-134.765625
5875		-136.718750
5876		-132.812500
5877		-134.765625
5878		-128.906250
5879		-130.859375
5880		-126.953125
5881		-126.953125
5882		-123.046875
5883		-125.000000
5884		-119.140625
5885		-121.093750
5886		-115.234375
5887		-117.187500
5888		-113.281250
5889		-113.281250
5890		-109.375000
5891		-111.328125
5892		-105.468750
5893		-107.421875
5894		-101.562500
5895		-103.515625
5896		-97.656250
5897		-99.609375
5898		-93.750000
5899		-95.703125
5900		-89.843750
5901		-91.796875
5902		-85.937500
5903		-89.843750
5904		-80.078125
5905		-83.984375
5906		-78.125000
5907		-78.125000
5908		-74.218750
5909		-74.218750
5910		-68.359375
5911		-70.312500
5912		-64.453125
5913		-66.406250
5914		-60.546875
5915		-62.500000
5916		-56.640625
5917		-56.640625
5918		-50.781250
5919		-52.734375
5920		-46.875000
5921		-48.828125
5922		-42.968750
5923		-44.921875
5924		-39.062500
5925		-39.062500
5926		-33.203125
5927		-35.156250
5928		-29.296875
5929		-31.250000
5930		-25.390625
5931		-25.390625
5932		-19.531250
5933		-21.484375
5934		-15.625000
5935		-17.578125
5936		-11.718750
5937		-11.718750
5938		-5.859375
5939		-7.812500
5940		-1.953125
5941		-3.906250
5942		1.953125
5943		1.953125
5944		7.812500
5945		5.859375
5946		11.718750
5947		9.765625
5948		15.625000
5949		13.671875
5950		19.531250
5951		17.578125
5952		23.437500
5953		23.437500
5954		29.296875
5955		27.343750
5956		33.203125
5957		31.250000
5958		37.109375
5959		35.156250
5960		41.015625
5961		39.062500
5962		44.921875
5963		44.921875
5964		48.828125
5965		48.828125
5966		52.734375
5967		52.734375
5968		56.640625
5969		54.687500
5970		60.546875
5971		58.593750
5972		64.453125
5973		64.453125
5974		68.359375
5975		66.406250
5976		72.265625
5977		70.312500
5978		76.171875
5979		74.218750
5980		80.078125
5981		78.125000
5982		83.984375
5983		82.031250
5984		87.890625
5985		83.984375
5986		89.843750
5987		87.890625
5988		93.750000
5989		91.796875
5990		97.656250
5991		93.750000
5992		99.609375
5993		97.656250
5994		103.515625
5995		99.609375
5996		105.468750
5997		103.515625
5998		109.375000
5999		107.421875
6000		111.328125
6001		109.375000
6002		115.234375
6003		111.328125
6004		117.187500
6005		115.234375
6006		119.140625
6007		117.187500
6008		123.046875
6009		119.140625
6010		125.000000
6011		123.046875
6012		126.953125
6013		125.000000
6014		128.906250
6015		126.953125
6016		130.859375
6017		128.906250
6018		134.765625
6019		130.859375
6020		134.765625
6021		132.812500
6022		136.718750
6023		134.765625
6024		140.625000
6025		136.718750
6026		140.625000
6027		138.671875
6028		142.578125
6029		140.625000
6030		144.531250
6031		142.578125
6032		144.531250
6033		142.578125
6034		148.437500
6035		144.531250
6036		148.437500
6037		146.484375
6038		150.390625
6039		146.484375
6040		150.390625
6041		148.437500
6042		152.343750
6043		148.437500
6044		152.343750
6045		150.390625
6046		152.343750
6047		150.390625
6048		154.296875
6049		152.343750
6050		154.296875
6051		152.343750
6052		156.250000
6053		152.343750
6054		156.250000
6055		154.296875
6056		156.250000
6057		154.296875
6058		158.203125
6059		154.296875
6060		158.203125
6061		154.296875
6062		158.203125
6063		156.250000
6064		158.203125
6065		156.250000
6066		158.203125
6067		154.296875
6068		158.203125
6069		154.296875
6070		158.203125
6071		154.296875
6072		158.203125
6073		154.296875
6074		158.203125
6075		154.296875
6076		158.203125
6077		154.296875
6078		156.250000
6079		154.296875
6080		156.250000
6081		152.343750
6082		156.250000
6083		150.390625
6084		156.250000
6085		150.390625
6086		156.250000
6087		150.390625
6088		154.296875
6089		150.390625
6090		152.343750
6091		148.437500
6092		152.343750
6093		146.484375
6094		150.390625
6095		146.484375
6096		148.437500
6097		144.531250
6098		148.437500
6099		142.578125
6100		146.484375
6101		140.625000
6102		146.484375
6103		140.625000
6104		144.531250
6105		138.671875
6106		142.578125
6107		136.718750
6108		140.625000
6109		134.765625
6110		138.671875
6111		132.812500
6112		136.718750
6113		130.859375
6114		134.765625
6115		128.906250
6116		132.812500
6117		125.000000
6118		130.859375
6119		123.046875
6120		128.906250
6121		121.093750
6122		125.000000
6123		119.140625
6124		123.046875
6125		115.234375
6126		121.093750
6127		113.281250
6128		119.140625
6129		109.375000
6130		115.234375
6131		107.421875
6132		111.328125
6133		105.468750
6134		109.375000
6135		101.562500
6136		105.468750
6137		97.656250
6138		103.515625
6139		95.703125
6140		99.609375
6141		91.796875
6142		97.656250
6143		87.890625
6144		93.750000
6145		85.937500
6146		89.843750
6147		82.031250
6148		85.937500
6149		78.125000
6150		83.984375
6151		74.218750
6152		80.078125
6153		70.312500
6154		76.171875
6155		66.406250
6156		72.265625
6157		62.500000
6158		68.359375
6159		58.593750
6160		64.453125
6161		54.687500
6162		60.546875
6163		50.781250
6164		56.640625
6165		46.875000
6166		52.734375
6167		42.968750
6168		48.828125
6169		39.062500
6170		44.921875
6171		35.156250
6172		41.015625
6173		29.296875
6174		35.156250
6175		25.390625
6176		31.250000
6177		21.484375
6178		27.343750
6179		17.578125
6180		23.437500
6181		13.671875
6182		19.531250
6183		9.765625
6184		13.671875
6185		3.906250
6186		9.765625
6187		0.000000
6188		5.859375
6189		-3.906250
6190		1.953125
6191		-9.765625
6192		-1.953125
6193		-13.671875
6194		-7.812500
6195		-17.578125
6196		-11.718750
6197		-21.484375
6198		-15.625000
6199		-25.390625
6200		-21.484375
6201		-31.250000
6202		-25.390625
6203		-35.156250
6204		-29.296875
6205		-39.062500
6206		-33.203125
6207		-42.968750
6208		-39.062500
6209		-48.828125
6210		-42.968750
6211		-52.734375
6212		-46.875000
6213		-56.640625
6214		-50.781250
6215		-60.546875
6216		-54.687500
6217		-64.453125
6218		-60.546875
6219		-70.312500
6220		-64.453125
6221		-74.218750
6222		-68.359375
6223		-78.125000
6224		-72.265625
6225		-82.031250
6226		-76.171875
6227		-85.937500
6228		-80.078125
6229		-89.843750
6230		-83.984375
6231		-93.750000
6232		-87.890625
6233		-97.656250
6234		-91.796875
6235		-101.562500
6236		-95.703125
6237		-105.468750
6238		-99.609375
6239		-109.375000
6240		-103.515625
6241		-111.328125
6242		-107.421875
6243		-115.234375
6244		-111.328125
6245		-119.140625
6246		-113.281250
6247		-121.093750
6248		-117.187500
6249		-125.000000
6250		-121.093750
6251		-128.906250
6252		-123.046875
6253		-130.859375
6254		-126.953125
6255		-134.765625
6256		-130.859375
6257		-136.718750
6258		-132.812500
6259		-140.625000
6260		-134.765625
6261		-142.578125
6262		-138.671875
6263		-144.531250
6264		-140.625000
6265		-146.484375
6266		-142.578125
6267		-150.390625
6268		-146.484375
6269		-152.343750
6270		-148.437500
6271		-154.296875
6272		-150.390625
6273		-156.250000
6274		-152.343750
6275		-158.203125
6276		-154.296875
6277		-158.203125
6278		-156.250000
6279		-160.156250
6280		-158.203125
6281		-162.109375
6282		-158.203125
6283		-164.062500
6284		-160.156250
6285		-166.015625
6286		-162.109375
6287		-166.015625
6288		-162.109375
6289		-166.015625
6290		-164.062500
6291		-167.968750
6292		-164.062500
6293		-167.968750
6294		-166.015625
6295		-167.968750
6296		-166.015625
6297		-169.921875
6298		-166.015625
6299		-169.921875
6300		-166.015625
6301		-169.921875
6302		-166.015625
6303		-169.921875
6304		-166.015625
6305		-169.921875
6306		-166.015625
6307		-169.921875
6308		-166.015625
6309		-167.968750
6310		-166.015625
6311		-167.968750
6312		-166.015625
6313		-167.968750
6314		-164.062500
6315		-167.968750
6316		-164.062500
6317		-166.015625
6318		-164.062500
6319		-166.015625
6320		-160.156250
6321		-166.015625
6322		-160.156250
6323		-162.109375
6324		-160.156250
6325		-160.156250
6326		-158.203125
6327		-160.156250
6328		-156.250000
6329		-158.203125
6330		-154.296875
6331		-156.250000
6332		-152.343750
6333		-154.296875
6334		-150.390625
6335		-152.343750
6336		-148.437500
6337		-152.343750
6338		-144.531250
6339		-148.437500
6340		-142.578125
6341		-144.531250
6342		-140.625000
6343		-142.578125
6344		-138.671875
6345		-140.625000
6346		-134.765625
6347		-136.718750
6348		-132.812500
6349		-134.765625
6350		-128.906250
6351		-130.859375
6352		-126.953125
6353		-128.906250
6354		-123.046875
6355		-125.000000
6356		-119.140625
6357		-121.093750
6358		-117.187500
6359		-119.140625
6360		-113.281250
6361		-115.234375
6362		-109.375000
6363		-111.328125
6364		-105.468750
6365		-107.421875
6366		-101.562500
6367		-103.515625
6368		-97.656250
6369		-99.609375
6370		-91.796875
6371		-97.656250
6372		-87.890625
6373		-93.750000
6374		-85.937500
6375		-87.890625
6376		-82.031250
6377		-83.984375
6378		-78.125000
6379		-78.125000
6380		-74.218750
6381		-74.218750
6382		-70.312500
6383		-70.312500
6384		-64.453125
6385		-66.406250
6386		-60.546875
6387		-62.500000
6388		-54.687500
6389		-58.593750
6390		-50.781250
6391		-52.734375
6392		-46.875000
6393		-48.828125
6394		-42.968750
6395		-44.921875
6396		-39.062500
6397		-39.062500
6398		-33.203125
6399		-35.156250
6400		-29.296875
6401		-31.250000
6402		-25.390625
6403		-27.343750
6404		-17.578125
6405		-23.437500
6406		-13.671875
6407		-17.578125
6408		-11.718750
6409		-11.718750
6410		-7.812500
6411		-7.812500
6412		-1.953125
6413		-3.906250
6414		1.953125
6415		0.000000
6416		7.812500
6417		5.859375
6418		11.718750
6419		9.765625
6420		15.625000
6421		13.671875
6422		21.484375
6423		17.578125
6424		23.437500
6425		21.484375
6426		29.296875
6427		27.343750
6428		33.203125
6429		31.250000
6430		37.109375
6431		35.156250
6432		41.015625
6433		39.062500
6434		44.921875
6435		42.968750
6436		48.828125
6437		46.875000
6438		54.687500
6439		52.734375
6440		56.640625
6441		56.640625
6442		60.546875
6443		60.546875
6444		64.453125
6445		62.500000
6446		68.359375
6447		66.406250
6448		72.265625
6449		70.312500
6450		76.171875
6451		74.218750
6452		80.078125
6453		78.125000
6454		83.984375
6455		80.078125
6456		87.890625
6457		83.984375
6458		89.843750
6459		87.890625
6460		93.750000
6461		91.796875
6462		97.656250
6463		93.750000
6464		99.609375
6465		97.656250
6466		101.562500
6467		101.562500
6468		105.468750
6469		103.515625
6470		107.421875
6471		105.468750
6472		111.328125
6473		109.375000
6474		113.281250
6475		113.281250
6476		117.187500
6477		115.234375
6478		119.140625
6479		117.187500
6480		121.093750
6481		121.093750
6482		123.046875
6483		123.046875
6484		126.953125
6485		125.000000
6486		128.906250
6487		126.953125
6488		130.859375
6489		128.906250
6490		132.812500
6491		130.859375
6492		134.765625
6493		132.812500
6494		136.718750
6495		134.765625
6496		138.671875
6497		136.718750
6498		140.625000
6499		138.671875
6500		142.578125
6501		140.625000
6502		144.531250
6503		142.578125
6504		144.531250
6505		142.578125
6506		146.484375
6507		144.531250
6508		148.437500
6509		146.484375
6510		150.390625
6511		146.484375
6512		150.390625
6513		148.437500
6514		152.343750
6515		150.390625
6516		152.343750
6517		150.390625
6518		154.296875
6519		152.343750
6520		154.296875
6521		150.390625
6522		156.250000
6523		152.343750
6524		156.250000
6525		154.296875
6526		156.250000
6527		154.296875
6528		156.250000
6529		154.296875
6530		156.250000
6531		154.296875
6532		158.203125
6533		154.296875
6534		158.203125
6535		154.296875
6536		158.203125
6537		154.296875
6538		158.203125
6539		154.296875
6540		158.203125
6541		154.296875
6542		158.203125
6543		154.296875
6544		158.203125
6545		154.296875
6546		156.250000
6547		154.296875
6548		156.250000
6549		152.343750
6550		156.250000
6551		152.343750
6552		156.250000
6553		152.343750
6554		154.296875
6555		152.343750
6556		154.296875
6557		150.390625
6558		154.296875
6559		150.390625
6560		152.343750
6561		148.437500
6562		152.343750
6563		148.437500
6564		150.390625
6565		146.484375
6566		150.390625
6567		144.531250
6568		148.437500
6569		144.531250
6570		148.437500
6571		142.578125
6572		146.484375
6573		140.625000
6574		144.531250
6575		138.671875
6576		142.578125
6577		138.671875
6578		140.625000
6579		136.718750
6580		138.671875
6581		132.812500
6582		136.718750
6583		132.812500
6584		136.718750
6585		128.906250
6586		132.812500
6587		126.953125
6588		132.812500
6589		125.000000
6590		128.906250
6591		123.046875
6592		126.953125
6593		121.093750
6594		125.000000
6595		117.187500
6596		123.046875
6597		115.234375
6598		119.140625
6599		113.281250
6600		117.187500
6601		109.375000
6602		113.281250
6603		107.421875
6604		111.328125
6605		103.515625
6606		109.375000
6607		101.562500
6608		105.468750
6609		97.656250
6610		101.562500
6611		93.750000
6612		99.609375
6613		91.796875
6614		95.703125
6615		87.890625
6616		91.796875
6617		83.984375
6618		89.843750
6619		80.078125
6620		85.937500
6621		76.171875
6622		82.031250
6623		72.265625
6624		78.125000
6625		70.312500
6626		74.218750
6627		66.406250
6628		72.265625
6629		62.500000
6630		68.359375
6631		58.593750
6632		62.500000
6633		54.687500
6634		58.593750
6635		50.781250
6636		54.687500
6637		46.875000
6638		50.781250
6639		41.015625
6640		46.875000
6641		37.109375
6642		42.968750
6643		33.203125
6644		39.062500
6645		29.296875
6646		35.156250
6647		25.390625
6648		31.250000
6649		21.484375
6650		27.343750
6651		15.625000
6652		21.484375
6653		11.718750
6654		17.578125
6655		7.812500
6656		13.671875
6657		1.953125
6658		9.765625
6659		-1.953125
6660		3.906250
6661		-5.859375
6662		0.000000
6663		-9.765625
6664		-3.906250
6665		-13.671875
6666		-7.812500
6667		-19.531250
6668		-13.671875
6669		-23.437500
6670		-17.578125
6671		-27.343750
6672		-21.484375
6673		-31.250000
6674		-25.390625
6675		-37.109375
6676		-31.250000
6677		-41.015625
6678		-35.156250
6679		-44.921875
6680		-39.062500
6681		-50.781250
6682		-44.921875
6683		-54.687500
6684		-48.828125
6685		-58.593750
6686		-52.734375
6687		-62.500000
6688		-56.640625
6689		-66.406250
6690		-60.546875
6691		-70.312500
6692		-66.406250
6693		-76.171875
6694		-70.312500
6695		-78.125000
6696		-74.218750
6697		-82.031250
6698		-78.125000
6699		-87.890625
6700		-82.031250
6701		-89.843750
6702		-85.937500
6703		-95.703125
6704		-89.843750
6705		-99.609375
6706		-93.750000
6707		-101.562500
6708		-97.656250
6709		-105.468750
6710		-101.562500
6711		-109.375000
6712		-103.515625
6713		-113.281250
6714		-107.421875
6715		-117.187500
6716		-111.328125
6717		-119.140625
6718		-115.234375
6719		-123.046875
6720		-119.140625
6721		-126.953125
6722		-121.093750
6723		-128.906250
6724		-125.000000
6725		-132.812500
6726		-126.953125
6727		-134.765625
6728		-130.859375
6729		-136.718750
6730		-132.812500
6731		-140.625000
6732		-136.718750
6733		-142.578125
6734		-138.671875
6735		-144.531250
6736		-140.625000
6737		-148.437500
6738		-144.531250
6739		-150.390625
6740		-146.484375
6741		-152.343750
6742		-148.437500
6743		-154.296875
6744		-150.390625
6745		-156.250000
6746		-152.343750
6747		-158.203125
6748		-154.296875
6749		-160.156250
6750		-156.250000
6751		-162.109375
6752		-158.203125
6753		-162.109375
6754		-160.156250
6755		-164.062500
6756		-160.156250
6757		-164.062500
6758		-162.109375
6759		-166.015625
6760		-164.062500
6761		-166.015625
6762		-164.062500
6763		-167.968750
6764		-164.062500
6765		-167.968750
6766		-166.015625
6767		-167.968750
6768		-166.015625
6769		-169.921875
6770		-166.015625
6771		-169.921875
6772		-166.015625
6773		-169.921875
6774		-166.015625
6775		-169.921875
6776		-166.015625
6777		-169.921875
6778		-166.015625
6779		-167.968750
6780		-166.015625
6781		-167.968750
6782		-166.015625
6783		-167.968750
6784		-166.015625
6785		-167.968750
6786		-164.062500
6787		-166.015625
6788		-164.062500
6789		-166.015625
6790		-162.109375
6791		-164.062500
6792		-160.156250
6793		-164.062500
6794		-160.156250
6795		-162.109375
6796		-158.203125
6797		-160.156250
6798		-156.250000
6799		-158.203125
6800		-154.296875
6801		-156.250000
6802		-152.343750
6803		-154.296875
6804		-150.390625
6805		-152.343750
6806		-148.437500
6807		-150.390625
6808		-146.484375
6809		-148.437500
6810		-144.531250
6811		-144.531250
6812		-140.625000
6813		-142.578125
6814		-138.671875
6815		-140.625000
6816		-136.718750
6817		-136.718750
6818		-132.812500
6819		-134.765625
6820		-130.859375
6821		-130.859375
6822		-126.953125
6823		-128.906250
6824		-123.046875
6825		-125.000000
6826		-121.093750
6827		-121.093750
6828		-117.187500
6829		-119.140625
6830		-113.281250
6831		-115.234375
6832		-109.375000
6833		-111.328125
6834		-107.421875
6835		-107.421875
6836		-103.515625
6837		-103.515625
6838		-99.609375
6839		-99.609375
6840		-95.703125
6841		-97.656250
6842		-91.796875
6843		-91.796875
6844		-87.890625
6845		-87.890625
6846		-83.984375
6847		-83.984375
6848		-78.125000
6849		-80.078125
6850		-74.218750
6851		-76.171875
6852		-70.312500
6853		-72.265625
6854		-66.406250
6855		-66.406250
6856		-62.500000
6857		-62.500000
6858		-56.640625
6859		-58.593750
6860		-52.734375
6861		-54.687500
6862		-48.828125
6863		-50.781250
6864		-42.968750
6865		-46.875000
6866		-39.062500
6867		-41.015625
6868		-35.156250
6869		-37.109375
6870		-31.250000
6871		-31.250000
6872		-25.390625
6873		-27.343750
6874		-21.484375
6875		-23.437500
6876		-17.578125
6877		-17.578125
6878		-11.718750
6879		-13.671875
6880		-7.812500
6881		-9.765625
6882		-3.906250
6883		-3.906250
6884		0.000000
6885		0.000000
6886		5.859375
6887		3.906250
6888		9.765625
6889		7.812500
6890		13.671875
6891		13.671875
6892		19.531250
6893		17.578125
6894		23.437500
6895		21.484375
6896		27.343750
6897		25.390625
6898		31.250000
6899		29.296875
6900		35.156250
6901		35.156250
6902		39.062500
6903		39.062500
6904		44.921875
6905		42.968750
6906		48.828125
6907		46.875000
6908		52.734375
6909		50.781250
6910		56.640625
6911		54.687500
6912		60.546875
6913		58.593750
6914		64.453125
6915		62.500000
6916		68.359375
6917		66.406250
6918		72.265625
6919		68.359375
6920		74.218750
6921		74.218750
6922		78.125000
6923		78.125000
6924		82.031250
6925		80.078125
6926		85.937500
6927		83.984375
6928		89.843750
6929		87.890625
6930		91.796875
6931		91.796875
6932		95.703125
6933		93.750000
6934		99.609375
6935		97.656250
6936		101.562500
6937		101.562500
6938		105.468750
6939		103.515625
6940		107.421875
6941		107.421875
6942		111.328125
6943		109.375000
6944		113.281250
6945		111.328125
6946		117.187500
6947		115.234375
6948		119.140625
6949		117.187500
6950		121.093750
6951		119.140625
6952		125.000000
6953		123.046875
6954		126.953125
6955		125.000000
6956		128.906250
6957		126.953125
6958		130.859375
6959		128.906250
6960		132.812500
6961		130.859375
6962		134.765625
6963		132.812500
6964		136.718750
6965		134.765625
6966		138.671875
6967		136.718750
6968		140.625000
6969		138.671875
6970		142.578125
6971		140.625000
6972		144.531250
6973		142.578125
6974		146.484375
6975		144.531250
6976		146.484375
6977		144.531250
6978		148.437500
6979		146.484375
6980		150.390625
6981		148.437500
6982		152.343750
6983		148.437500
6984		152.343750
6985		150.390625
6986		152.343750
6987		150.390625
6988		154.296875
6989		152.343750
6990		154.296875
6991		152.343750
6992		156.250000
6993		154.296875
6994		156.250000
6995		154.296875
6996		156.250000
6997		156.250000
6998		158.203125
6999		156.250000
7000		158.203125
7001		156.250000
7002		158.203125
7003		156.250000
7004		160.156250
7005		156.250000
7006		158.203125
7007		156.250000
7008		158.203125
7009		156.250000
7010		158.203125
7011		156.250000
7012		158.203125
7013		156.250000
7014		160.156250
7015		156.250000
7016		158.203125
7017		156.250000
7018		158.203125
7019		156.250000
7020		158.203125
7021		154.296875
7022		158.203125
7023		154.296875
7024		158.203125
7025		154.296875
7026		156.250000
7027		152.343750
7028		156.250000
7029		152.343750
7030		156.250000
7031		150.390625
7032		154.296875
7033		150.390625
7034		154.296875
7035		148.437500
7036		152.343750
7037		148.437500
7038		150.390625
7039		146.484375
7040		150.390625
7041		146.484375
7042		148.437500
7043		144.531250
7044		146.484375
7045		142.578125
7046		146.484375
7047		140.625000
7048		144.531250
7049		138.671875
7050		142.578125
7051		136.718750
7052		140.625000
7053		134.765625
7054		138.671875
7055		132.812500
7056		136.718750
7057		130.859375
7058		134.765625
7059		128.906250
7060		132.812500
7061		126.953125
7062		130.859375
7063		125.000000
7064		128.906250
7065		121.093750
7066		125.000000
7067		119.140625
7068		123.046875
7069		117.187500
7070		121.093750
7071		113.281250
7072		117.187500
7073		111.328125
7074		115.234375
7075		107.421875
7076		113.281250
7077		105.468750
7078		109.375000
7079		101.562500
7080		105.468750
7081		97.656250
7082		103.515625
7083		95.703125
7084		99.609375
7085		91.796875
7086		95.703125
7087		87.890625
7088		93.750000
7089		85.937500
7090		89.843750
7091		82.031250
7092		85.937500
7093		78.125000
7094		82.031250
7095		74.218750
7096		78.125000
7097		70.312500
7098		76.171875
7099		66.406250
7100		72.265625
7101		62.500000
7102		68.359375
7103		58.593750
7104		64.453125
7105		54.687500
7106		60.546875
7107		50.781250
7108		56.640625
7109		46.875000
7110		52.734375
7111		42.968750
7112		48.828125
7113		37.109375
7114		42.968750
7115		33.203125
7116		39.062500
7117		29.296875
7118		35.156250
7119		25.390625
7120		31.250000
7121		21.484375
7122		27.343750
7123		17.578125
7124		21.484375
7125		11.718750
7126		17.578125
7127		7.812500
7128		13.671875
7129		3.906250
7130		9.765625
7131		-1.953125
7132		5.859375
7133		-5.859375
7134		0.000000
7135		-9.765625
7136		-3.906250
7137		-13.671875
7138		-7.812500
7139		-19.531250
7140		-13.671875
7141		-23.437500
7142		-17.578125
7143		-27.343750
7144		-21.484375
7145		-31.250000
7146		-25.390625
7147		-35.156250
7148		-31.250000
7149		-41.015625
7150		-35.156250
7151		-44.921875
7152		-39.062500
7153		-48.828125
7154		-42.968750
7155		-52.734375
7156		-48.828125
7157		-58.593750
7158		-52.734375
7159		-62.500000
7160		-56.640625
7161		-66.406250
7162		-60.546875
7163		-70.312500
7164		-64.453125
7165		-74.218750
7166		-68.359375
7167		-78.125000
7168		-72.265625
7169		-82.031250
7170		-76.171875
7171		-85.937500
7172		-82.031250
7173		-89.843750
7174		-85.937500
7175		-93.750000
7176		-87.890625
7177		-97.656250
7178		-93.750000
7179		-101.562500
7180		-95.703125
7181		-105.468750
7182		-99.609375
7183		-109.375000
7184		-103.515625
7185		-111.328125
7186		-107.421875
7187		-115.234375
7188		-111.328125
7189		-119.140625
7190		-113.281250
7191		-121.093750
7192		-117.187500
7193		-125.000000
7194		-121.093750
7195		-128.906250
7196		-123.046875
7197		-130.859375
7198		-126.953125
7199		-134.765625
7200		-128.906250
7201		-136.718750
7202		-132.812500
7203		-138.671875
7204		-134.765625
7205		-142.578125
7206		-136.718750
7207		-144.531250
7208		-140.625000
7209		-146.484375
7210		-142.578125
7211		-148.437500
7212		-144.531250
7213		-150.390625
7214		-146.484375
7215		-152.343750
7216		-148.437500
7217		-154.296875
7218		-150.390625
7219		-156.250000
7220		-152.343750
7221		-158.203125
7222		-154.296875
7223		-158.203125
7224		-156.250000
7225		-160.156250
7226		-156.250000
7227		-162.109375
7228		-158.203125
7229		-162.109375
7230		-160.156250
7231		-164.062500
7232		-160.156250
7233		-164.062500
7234		-162.109375
7235		-164.062500
7236		-162.109375
7237		-166.015625
7238		-162.109375
7239		-166.015625
7240		-164.062500
7241		-166.015625
7242		-164.062500
7243		-166.015625
7244		-164.062500
7245		-166.015625
7246		-164.062500
7247		-166.015625
7248		-164.062500
7249		-166.015625
7250		-162.109375
7251		-166.015625
7252		-162.109375
7253		-164.062500
7254		-162.109375
7255		-164.062500
7256		-162.109375
7257		-164.062500
7258		-160.156250
7259		-162.109375
7260		-158.203125
7261		-162.109375
7262		-158.203125
7263		-160.156250
7264		-158.203125
7265		-158.203125
7266		-156.250000
7267		-158.203125
7268		-154.296875
7269		-156.250000
7270		-152.343750
7271		-154.296875
7272		-150.390625
7273		-152.343750
7274		-148.437500
7275		-150.390625
7276		-146.484375
7277		-148.437500
7278		-144.531250
7279		-146.484375
7280		-142.578125
7281		-144.531250
7282		-140.625000
7283		-140.625000
7284		-136.718750
7285		-138.671875
7286		-134.765625
7287		-136.718750
7288		-132.812500
7289		-132.812500
7290		-128.906250
7291		-130.859375
7292		-125.000000
7293		-126.953125
7294		-123.046875
7295		-123.046875
7296		-119.140625
7297		-121.093750
7298		-115.234375
7299		-117.187500
7300		-113.281250
7301		-113.281250
7302		-109.375000
7303		-109.375000
7304		-105.468750
7305		-107.421875
7306		-101.562500
7307		-103.515625
7308		-97.656250
7309		-99.609375
7310		-93.750000
7311		-95.703125
7312		-89.843750
7313		-91.796875
7314		-85.937500
7315		-87.890625
7316		-82.031250
7317		-83.984375
7318		-78.125000
7319		-80.078125
7320		-74.218750
7321		-76.171875
7322		-70.312500
7323		-70.312500
7324		-66.406250
7325		-66.406250
7326		-60.546875
7327		-62.500000
7328		-54.687500
7329		-58.593750
7330		-52.734375
7331		-54.687500
7332		-46.875000
7333		-50.781250
7334		-42.968750
7335		-44.921875
7336		-39.062500
7337		-41.015625
7338		-35.156250
7339		-35.156250
7340		-29.296875
7341		-31.250000
7342		-25.390625
7343		-27.343750
7344		-21.484375
7345		-21.484375
7346		-17.578125
7347		-17.578125
7348		-11.718750
7349		-15.625000
7350		-7.812500
7351		-9.765625
7352		-3.906250
7353		-3.906250
7354		1.953125
7355		0.000000
7356		5.859375
7357		3.906250
7358		9.765625
7359		9.765625
7360		15.625000
7361		13.671875
7362		19.531250
7363		17.578125
7364		23.437500
7365		21.484375
7366		29.296875
7367		25.390625
7368		33.203125
7369		31.250000
7370		37.109375
7371		33.203125
7372		41.015625
7373		39.062500
7374		46.875000
7375		42.968750
7376		48.828125
7377		46.875000
7378		52.734375
7379		50.781250
7380		56.640625
7381		52.734375
7382		60.546875
7383		56.640625
7384		64.453125
7385		62.500000
7386		68.359375
7387		66.406250
7388		72.265625
7389		70.312500
7390		76.171875
7391		72.265625
7392		80.078125
7393		78.125000
7394		82.031250
7395		82.031250
7396		87.890625
7397		83.984375
7398		91.796875
7399		87.890625
7400		93.750000
7401		91.796875
7402		95.703125
7403		95.703125
7404		101.562500
7405		97.656250
7406		101.562500
7407		101.562500
7408		107.421875
7409		103.515625
7410		109.375000
7411		107.421875
7412		111.328125
7413		109.375000
7414		115.234375
7415		111.328125
7416		119.140625
7417		115.234375
7418		119.140625
7419		117.187500
7420		123.046875
7421		119.140625
7422		126.953125
7423		121.093750
7424		128.906250
7425		125.000000
7426		128.906250
7427		128.906250
7428		132.812500
7429		130.859375
7430		134.765625
7431		130.859375
7432		138.671875
7433		132.812500
7434		138.671875
7435		136.718750
7436		140.625000
7437		136.718750
7438		144.531250
7439		136.718750
7440		144.531250
7441		138.671875
7442		146.484375
7443		142.578125
7444		146.484375
7445		144.531250
7446		150.390625
7447		144.531250
7448		152.343750
7449		144.531250
7450		152.343750
7451		146.484375
7452		152.343750
7453		150.390625
7454		154.296875
7455		148.437500
7456		158.203125
7457		148.437500
7458		158.203125
7459		152.343750
7460		156.250000
7461		154.296875
7462		156.250000
7463		154.296875
7464		158.203125
7465		152.343750
7466		160.156250
7467		156.250000
7468		160.156250
7469		156.250000
7470		160.156250
7471		154.296875
7472		164.062500
7473		156.250000
7474		162.109375
7475		154.296875
7476		162.109375
7477		158.203125
7478		160.156250
7479		156.250000
7480		162.109375
7481		156.250000
7482		164.062500
7483		156.250000
7484		162.109375
7485		158.203125
7486		160.156250
7487		154.296875
7488		162.109375
7489		154.296875
7490		162.109375
7491		154.296875
7492		162.109375
7493		156.250000
7494		158.203125
7495		156.250000
7496		158.203125
7497		154.296875
7498		160.156250
7499		152.343750
7500		160.156250
7501		152.343750
7502		156.250000
7503		152.343750
7504		154.296875
7505		146.484375
7506		156.250000
7507		146.484375
7508		154.296875
7509		148.437500
7510		152.343750
7511		146.484375
7512		150.390625
7513		144.531250
7514		148.437500
7515		142.578125
7516		150.390625
7517		140.625000
7518		146.484375
7519		140.625000
7520		144.531250
7521		136.718750
7522		144.531250
7523		134.765625
7524		144.531250
7525		134.765625
7526		140.625000
7527		132.812500
7528		136.718750
7529		128.906250
7530		134.765625
7531		126.953125
7532		132.812500
7533		125.000000
7534		134.765625
7535		125.000000
7536		128.906250
7537		119.140625
7538		125.000000
7539		117.187500
7540		126.953125
7541		115.234375
7542		121.093750
7543		113.281250
7544		117.187500
7545		111.328125
7546		115.234375
7547		107.421875
7548		111.328125
7549		103.515625
7550		111.328125
7551		101.562500
7552		107.421875
7553		97.656250
7554		103.515625
7555		91.796875
7556		101.562500
7557		91.796875
7558		99.609375
7559		87.890625
7560		95.703125
7561		83.984375
7562		89.843750
7563		80.078125
7564		85.937500
7565		74.218750
7566		83.984375
7567		72.265625
7568		80.078125
7569		70.312500
7570		74.218750
7571		64.453125
7572		72.265625
7573		60.546875
7574		70.312500
7575		56.640625
7576		64.453125
7577		54.687500
7578		60.546875
7579		50.781250
7580		56.640625
7581		44.921875
7582		50.781250
7583		39.062500
7584		48.828125
7585		37.109375
7586		44.921875
7587		33.203125
7588		39.062500
7589		27.343750
7590		37.109375
7591		21.484375
7592		31.250000
7593		21.484375
7594		27.343750
7595		15.625000
7596		21.484375
7597		11.718750
7598		17.578125
7599		5.859375
7600		15.625000
7601		1.953125
7602		9.765625
7603		-1.953125
7604		3.906250
7605		-5.859375
7606		0.000000
7607		-9.765625
7608		-3.906250
7609		-13.671875
7610		-5.859375
7611		-19.531250
7612		-13.671875
7613		-23.437500
7614		-17.578125
7615		-27.343750
7616		-21.484375
7617		-33.203125
7618		-25.390625
7619		-35.156250
7620		-29.296875
7621		-41.015625
7622		-35.156250
7623		-44.921875
7624		-37.109375
7625		-48.828125
7626		-42.968750
7627		-54.687500
7628		-48.828125
7629		-58.593750
7630		-52.734375
7631		-62.500000
7632		-56.640625
7633		-66.406250
7634		-60.546875
7635		-70.312500
7636		-62.500000
7637		-74.218750
7638		-68.359375
7639		-78.125000
7640		-72.265625
7641		-82.031250
7642		-76.171875
7643		-85.937500
7644		-80.078125
7645		-89.843750
7646		-83.984375
7647		-93.750000
7648		-87.890625
7649		-97.656250
7650		-91.796875
7651		-101.562500
7652		-95.703125
7653		-105.468750
7654		-99.609375
7655		-109.375000
7656		-103.515625
7657		-111.328125
7658		-107.421875
7659		-115.234375
7660		-111.328125
7661		-119.140625
7662		-113.281250
7663		-121.093750
7664		-117.187500
7665		-125.000000
7666		-119.140625
7667		-128.906250
7668		-123.046875
7669		-130.859375
7670		-126.953125
7671		-132.812500
7672		-128.906250
7673		-136.718750
7674		-132.812500
7675		-138.671875
7676		-134.765625
7677		-140.625000
7678		-136.718750
7679		-144.531250
7680		-138.671875
7681		-146.484375
7682		-142.578125
7683		-148.437500
7684		-142.578125
7685		-152.343750
7686		-144.531250
7687		-154.296875
7688		-146.484375
7689		-154.296875
7690		-148.437500
7691		-156.250000
7692		-150.390625
7693		-158.203125
7694		-152.343750
7695		-158.203125
7696		-154.296875
7697		-160.156250
7698		-156.250000
7699		-162.109375
7700		-156.250000
7701		-162.109375
7702		-158.203125
7703		-164.062500
7704		-158.203125
7705		-166.015625
7706		-160.156250
7707		-166.015625
7708		-160.156250
7709		-166.015625
7710		-162.109375
7711		-166.015625
7712		-162.109375
7713		-166.015625
7714		-164.062500
7715		-167.968750
7716		-162.109375
7717		-166.015625
7718		-162.109375
7719		-166.015625
7720		-162.109375
7721		-166.015625
7722		-162.109375
7723		-166.015625
7724		-160.156250
7725		-166.015625
7726		-160.156250
7727		-164.062500
7728		-160.156250
7729		-164.062500
7730		-160.156250
7731		-162.109375
7732		-158.203125
7733		-162.109375
7734		-156.250000
7735		-160.156250
7736		-154.296875
7737		-160.156250
7738		-152.343750
7739		-158.203125
7740		-152.343750
7741		-156.250000
7742		-150.390625
7743		-154.296875
7744		-148.437500
7745		-152.343750
7746		-148.437500
7747		-150.390625
7748		-146.484375
7749		-148.437500
7750		-142.578125
7751		-146.484375
7752		-140.625000
7753		-142.578125
7754		-138.671875
7755		-142.578125
7756		-134.765625
7757		-138.671875
7758		-132.812500
7759		-136.718750
7760		-128.906250
7761		-132.812500
7762		-126.953125
7763		-128.906250
7764		-125.000000
7765		-126.953125
7766		-121.093750
7767		-123.046875
7768		-119.140625
7769		-121.093750
7770		-113.281250
7771		-117.187500
7772		-111.328125
7773		-113.281250
7774		-107.421875
7775		-109.375000
7776		-103.515625
7777		-105.468750
7778		-99.609375
7779		-101.562500
7780		-97.656250
7781		-97.656250
7782		-91.796875
7783		-95.703125
7784		-87.890625
7785		-91.796875
7786		-83.984375
7787		-85.937500
7788		-80.078125
7789		-83.984375
7790		-76.171875
7791		-78.125000
7792		-72.265625
7793		-74.218750
7794		-68.359375
7795		-70.312500
7796		-64.453125
7797		-66.406250
7798		-60.546875
7799		-60.546875
7800		-54.687500
7801		-58.593750
7802		-50.781250
7803		-52.734375
7804		-46.875000
7805		-48.828125
7806		-41.015625
7807		-42.968750
7808		-37.109375
7809		-39.062500
7810		-33.203125
7811		-35.156250
7812		-29.296875
7813		-29.296875
7814		-23.437500
7815		-25.390625
7816		-19.531250
7817		-21.484375
7818		-13.671875
7819		-15.625000
7820		-9.765625
7821		-11.718750
7822		-3.906250
7823		-7.812500
7824		-1.953125
7825		-3.906250
7826		1.953125
7827		1.953125
7828		7.812500
7829		5.859375
7830		11.718750
7831		9.765625
7832		15.625000
7833		13.671875
7834		19.531250
7835		19.531250
7836		25.390625
7837		23.437500
7838		29.296875
7839		25.390625
7840		33.203125
7841		31.250000
7842		37.109375
7843		35.156250
7844		42.968750
7845		39.062500
7846		44.921875
7847		44.921875
7848		48.828125
7849		48.828125
7850		54.687500
7851		52.734375
7852		58.593750
7853		56.640625
7854		62.500000
7855		60.546875
7856		66.406250
7857		62.500000
7858		70.312500
7859		68.359375
7860		74.218750
7861		72.265625
7862		76.171875
7863		74.218750
7864		80.078125
7865		78.125000
7866		83.984375
7867		82.031250
7868		87.890625
7869		85.937500
7870		89.843750
7871		87.890625
7872		93.750000
7873		91.796875
7874		97.656250
7875		95.703125
7876		99.609375
7877		97.656250
7878		103.515625
7879		101.562500
7880		105.468750
7881		105.468750
7882		109.375000
7883		107.421875
7884		113.281250
7885		109.375000
7886		115.234375
7887		113.281250
7888		117.187500
7889		115.234375
7890		121.093750
7891		119.140625
7892		123.046875
7893		121.093750
7894		125.000000
7895		123.046875
7896		126.953125
7897		126.953125
7898		130.859375
7899		128.906250
7900		132.812500
7901		130.859375
7902		134.765625
7903		132.812500
7904		136.718750
7905		134.765625
7906		140.625000
7907		136.718750
7908		140.625000
7909		138.671875
7910		142.578125
7911		140.625000
7912		144.531250
7913		142.578125
7914		144.531250
7915		144.531250
7916		148.437500
7917		144.531250
7918		148.437500
7919		146.484375
7920		150.390625
7921		146.484375
7922		152.343750
7923		148.437500
7924		152.343750
7925		150.390625
7926		154.296875
7927		150.390625
7928		154.296875
7929		150.390625
7930		154.296875
7931		152.343750
7932		156.250000
7933		154.296875
7934		158.203125
7935		154.296875
7936		158.203125
7937		156.250000
7938		158.203125
7939		156.250000
7940		158.203125
7941		156.250000
7942		160.156250
7943		156.250000
7944		160.156250
7945		156.250000
7946		160.156250
7947		158.203125
7948		160.156250
7949		158.203125
7950		160.156250
7951		156.250000
7952		160.156250
7953		158.203125
7954		160.156250
7955		158.203125
7956		160.156250
7957		156.250000
7958		160.156250
7959		156.250000
7960		160.156250
7961		156.250000
7962		160.156250
7963		156.250000
7964		160.156250
7965		156.250000
7966		158.203125
7967		154.296875
7968		158.203125
7969		154.296875
7970		158.203125
7971		152.343750
7972		156.250000
7973		152.343750
7974		156.250000
7975		150.390625
7976		154.296875
7977		150.390625
7978		154.296875
7979		148.437500
7980		152.343750
7981		148.437500
7982		150.390625
7983		146.484375
7984		150.390625
7985		144.531250
7986		148.437500
7987		142.578125
7988		148.437500
7989		142.578125
7990		146.484375
7991		140.625000
7992		144.531250
7993		138.671875
7994		142.578125
7995		134.765625
7996		140.625000
7997		134.765625
7998		138.671875
7999		132.812500
8000		136.718750
8001		128.906250
8002		134.765625
8003		128.906250
8004		132.812500
8005		125.000000
8006		130.859375
8007		123.046875
8008		126.953125
8009		121.093750
8010		125.000000
8011		119.140625
8012		123.046875
8013		115.234375
8014		121.093750
8015		113.281250
8016		117.187500
8017		109.375000
8018		113.281250
8019		107.421875
8020		111.328125
8021		103.515625
8022		109.375000
8023		101.562500
8024		105.468750
8025		97.656250
8026		103.515625
8027		93.750000
8028		99.609375
8029		89.843750
8030		95.703125
8031		87.890625
8032		91.796875
8033		83.984375
8034		87.890625
8035		80.078125
8036		85.937500
8037		76.171875
8038		82.031250
8039		72.265625
8040		78.125000
8041		68.359375
8042		74.218750
8043		64.453125
8044		70.312500
8045		60.546875
8046		66.406250
8047		56.640625
8048		62.500000
8049		52.734375
8050		58.593750
8051		48.828125
8052		54.687500
8053		44.921875
8054		50.781250
8055		41.015625
8056		46.875000
8057		35.156250
8058		42.968750
8059		33.203125
8060		39.062500
8061		27.343750
8062		35.156250
8063		23.437500
8064		29.296875
8065		19.531250
8066		25.390625
8067		15.625000
8068		21.484375
8069		9.765625
8070		15.625000
8071		5.859375
8072		11.718750
8073		1.953125
8074		7.812500
8075		-1.953125
8076		3.906250
8077		-7.812500
8078		-1.953125
8079		-11.718750
8080		-5.859375
8081		-15.625000
8082		-9.765625
8083		-19.531250
8084		-13.671875
8085		-25.390625
8086		-19.531250
8087		-29.296875
8088		-23.437500
8089		-33.203125
8090		-27.343750
8091		-37.109375
8092		-31.250000
8093		-42.968750
8094		-37.109375
8095		-46.875000
8096		-41.015625
8097		-50.781250
8098		-44.921875
8099		-54.687500
8100		-48.828125
8101		-60.546875
8102		-54.687500
8103		-62.500000
8104		-58.593750
8105		-68.359375
8106		-62.500000
8107		-72.265625
8108		-66.406250
8109		-76.171875
8110		-70.312500
8111		-80.078125
8112		-74.218750
8113		-83.984375
8114		-78.125000
8115		-87.890625
8116		-82.031250
8117		-91.796875
8118		-85.937500
8119		-95.703125
8120		-89.843750
8121		-99.609375
8122		-93.750000
8123		-103.515625
8124		-97.656250
8125		-107.421875
8126		-101.562500
8127		-109.375000
8128		-105.468750
8129		-113.281250
8130		-109.375000
8131		-117.187500
8132		-111.328125
8133		-121.093750
8134		-115.234375
8135		-123.046875
8136		-119.140625
8137		-126.953125
8138		-121.093750
8139		-130.859375
8140		-125.000000
8141		-132.812500
8142		-126.953125
8143		-134.765625
8144		-130.859375
8145		-138.671875
8146		-132.812500
8147		-140.625000
8148		-136.718750
8149		-142.578125
8150		-138.671875
8151		-146.484375
8152		-140.625000
8153		-148.437500
8154		-144.531250
8155		-150.390625
8156		-146.484375
8157		-152.343750
8158		-148.437500
8159		-154.296875
8160		-150.390625
8161		-156.250000
8162		-152.343750
8163		-158.203125
8164		-152.343750
8165		-158.203125
8166		-154.296875
8167		-160.156250
8168		-156.250000
8169		-162.109375
8170		-158.203125
8171		-164.062500
8172		-158.203125
8173		-164.062500
8174		-160.156250
8175		-164.062500
8176		-162.109375
8177		-166.015625
8178		-162.109375
8179		-166.015625
8180		-164.062500
8181		-166.015625
8182		-162.109375
8183		-167.968750
8184		-164.062500
8185		-167.968750
8186		-164.062500
8187		-167.968750
8188		-164.062500
8189		-167.968750
8190		-164.062500
8191		-167.968750
8192		-164.062500
8193		-167.968750
8194		-164.062500
8195		-166.015625
8196		-162.109375
8197		-166.015625
8198		-162.109375
8199		-166.015625
8200		-162.109375
8201		-164.062500
8202		-162.109375
8203		-164.062500
8204		-160.156250
8205		-162.109375
8206		-158.203125
8207		-162.109375
8208		-158.203125
8209		-160.156250
8210		-156.250000
8211		-158.203125
8212		-154.296875
8213		-158.203125
8214		-152.343750
8215		-156.250000
8216		-152.343750
8217		-154.296875
8218		-150.390625
8219		-152.343750
8220		-146.484375
8221		-150.390625
8222		-144.531250
8223		-146.484375
8224		-142.578125
8225		-144.531250
8226		-140.625000
8227		-142.578125
8228		-138.671875
8229		-138.671875
8230		-134.765625
8231		-136.718750
8232		-132.812500
8233		-134.765625
8234		-128.906250
8235		-130.859375
8236		-126.953125
8237		-128.906250
8238		-123.046875
8239		-125.000000
8240		-121.093750
8241		-121.093750
8242		-117.187500
8243		-119.140625
8244		-113.281250
8245		-115.234375
8246		-109.375000
8247		-111.328125
8248		-105.468750
8249		-107.421875
8250		-103.515625
8251		-103.515625
8252		-99.609375
8253		-101.562500
8254		-95.703125
8255		-95.703125
8256		-89.843750
8257		-91.796875
8258		-85.937500
8259		-87.890625
8260		-82.031250
8261		-83.984375
8262		-78.125000
8263		-80.078125
8264		-74.218750
8265		-76.171875
8266		-70.312500
8267		-72.265625
8268		-66.406250
8269		-68.359375
8270		-60.546875
8271		-62.500000
8272		-56.640625
8273		-58.593750
8274		-52.734375
8275		-54.687500
8276		-48.828125
8277		-48.828125
8278		-42.968750
8279		-44.921875
8280		-39.062500
8281		-41.015625
8282		-35.156250
8283		-37.109375
8284		-29.296875
8285		-31.250000
8286		-25.390625
8287		-27.343750
8288		-21.484375
8289		-23.437500
8290		-17.578125
8291		-19.531250
8292		-11.718750
8293		-13.671875
8294		-7.812500
8295		-9.765625
8296		-3.906250
8297		-5.859375
8298		1.953125
8299		-1.953125
8300		5.859375
8301		3.906250
8302		9.765625
8303		9.765625
8304		15.625000
8305		11.718750
8306		21.484375
8307		15.625000
8308		23.437500
8309		21.484375
8310		27.343750
8311		25.390625
8312		31.250000
8313		29.296875
8314		37.109375
8315		35.156250
8316		39.062500
8317		39.062500
8318		44.921875
8319		42.968750
8320		48.828125
8321		44.921875
8322		54.687500
8323		48.828125
8324		56.640625
8325		54.687500
8326		60.546875
8327		58.593750
8328		64.453125
8329		62.500000
8330		68.359375
8331		66.406250
8332		72.265625
8333		70.312500
8334		74.218750
8335		74.218750
8336		78.125000
8337		78.125000
8338		83.984375
8339		80.078125
8340		85.937500
8341		83.984375
8342		89.843750
8343		85.937500
8344		93.750000
8345		89.843750
8346		97.656250
8347		93.750000
8348		99.609375
8349		95.703125
8350		101.562500
8351		99.609375
8352		105.468750
8353		103.515625
8354		109.375000
8355		105.468750
8356		111.328125
8357		107.421875
8358		115.234375
8359		111.328125
8360		117.187500
8361		115.234375
8362		119.140625
8363		115.234375
8364		123.046875
8365		117.187500
8366		125.000000
8367		123.046875
8368		126.953125
8369		125.000000
8370		128.906250
8371		125.000000
8372		132.812500
8373		126.953125
8374		134.765625
8375		130.859375
8376		136.718750
8377		132.812500
8378		138.671875
8379		134.765625
8380		140.625000
8381		134.765625
8382		142.578125
8383		138.671875
8384		142.578125
8385		140.625000
8386		144.531250
8387		142.578125
8388		146.484375
8389		140.625000
8390		148.437500
8391		144.531250
8392		150.390625
8393		144.531250
8394		152.343750
8395		146.484375
8396		152.343750
8397		146.484375
8398		154.296875
8399		148.437500
8400		154.296875
8401		150.390625
8402		154.296875
8403		152.343750
8404		154.296875
8405		150.390625
8406		158.203125
8407		152.343750
8408		158.203125
8409		152.343750
8410		158.203125
8411		152.343750
8412		158.203125
8413		152.343750
8414		160.156250
8415		152.343750
8416		160.156250
8417		154.296875
8418		158.203125
8419		156.250000
8420		158.203125
8421		154.296875
8422		160.156250
8423		154.296875
8424		160.156250
8425		154.296875
8426		160.156250
8427		154.296875
8428		160.156250
8429		154.296875
8430		160.156250
8431		154.296875
8432		160.156250
8433		152.343750
8434		160.156250
8435		154.296875
8436		156.250000
8437		152.343750
8438		158.203125
8439		150.390625
8440		158.203125
8441		150.390625
8442		156.250000
8443		150.390625
8444		156.250000
8445		148.437500
8446		154.296875
8447		148.437500
8448		154.296875
8449		146.484375
8450		154.296875
8451		146.484375
8452		150.390625
8453		146.484375
8454		148.437500
8455		142.578125
8456		150.390625
8457		140.625000
8458		148.437500
8459		138.671875
8460		146.484375
8461		138.671875
8462		144.531250
8463		136.718750
8464		144.531250
8465		134.765625
8466		142.578125
8467		134.765625
8468		138.671875
8469		132.812500
8470		136.718750
8471		128.906250
8472		134.765625
8473		126.953125
8474		132.812500
8475		123.046875
8476		130.859375
8477		121.093750
8478		128.906250
8479		119.140625
8480		126.953125
8481		115.234375
8482		123.046875
8483		115.234375
8484		121.093750
8485		113.281250
8486		117.187500
8487		109.375000
8488		113.281250
8489		105.468750
8490		113.281250
8491		101.562500
8492		109.375000
8493		97.656250
8494		107.421875
8495		95.703125
8496		103.515625
8497		91.796875
8498		101.562500
8499		89.843750
8500		97.656250
8501		87.890625
8502		93.750000
8503		83.984375
8504		89.843750
8505		78.125000
8506		85.937500
8507		74.218750
8508		83.984375
8509		70.312500
8510		80.078125
8511		66.406250
8512		76.171875
8513		62.500000
8514		72.265625
8515		60.546875
8516		68.359375
8517		56.640625
8518		64.453125
8519		52.734375
8520		58.593750
8521		46.875000
8522		54.687500
8523		44.921875
8524		50.781250
8525		41.015625
8526		48.828125
8527		35.156250
8528		42.968750
8529		33.203125
8530		39.062500
8531		27.343750
8532		35.156250
8533		23.437500
8534		31.250000
8535		19.531250
8536		25.390625
8537		15.625000
8538		21.484375
8539		9.765625
8540		17.578125
8541		3.906250
8542		13.671875
8543		1.953125
8544		9.765625
8545		-3.906250
8546		5.859375
8547		-7.812500
8548		0.000000
8549		-13.671875
8550		-3.906250
8551		-15.625000
8552		-7.812500
8553		-19.531250
8554		-13.671875
8555		-25.390625
8556		-17.578125
8557		-31.250000
8558		-21.484375
8559		-33.203125
8560		-27.343750
8561		-39.062500
8562		-29.296875
8563		-42.968750
8564		-35.156250
8565		-48.828125
8566		-39.062500
8567		-50.781250
8568		-42.968750
8569		-54.687500
8570		-48.828125
8571		-58.593750
8572		-52.734375
8573		-66.406250
8574		-56.640625
8575		-68.359375
8576		-60.546875
8577		-74.218750
8578		-64.453125
8579		-78.125000
8580		-68.359375
8581		-82.031250
8582		-74.218750
8583		-85.937500
8584		-76.171875
8585		-87.890625
8586		-82.031250
8587		-91.796875
8588		-85.937500
8589		-95.703125
8590		-89.843750
8591		-101.562500
8592		-91.796875
8593		-105.468750
8594		-95.703125
8595		-109.375000
8596		-101.562500
8597		-111.328125
8598		-103.515625
8599		-115.234375
8600		-107.421875
8601		-117.187500
8602		-109.375000
8603		-121.093750
8604		-115.234375
8605		-125.000000
8606		-119.140625
8607		-128.906250
8608		-121.093750
8609		-132.812500
8610		-123.046875
8611		-134.765625
8612		-126.953125
8613		-138.671875
8614		-130.859375
8615		-140.625000
8616		-132.812500
8617		-142.578125
8618		-136.718750
8619		-144.531250
8620		-140.625000
8621		-146.484375
8622		-142.578125
8623		-152.343750
8624		-144.531250
8625		-154.296875
8626		-146.484375
8627		-156.250000
8628		-146.484375
8629		-156.250000
8630		-148.437500
8631		-158.203125
8632		-152.343750
8633		-162.109375
8634		-154.296875
8635		-160.156250
8636		-156.250000
8637		-162.109375
8638		-158.203125
8639		-164.062500
8640		-158.203125
8641		-166.015625
8642		-160.156250
8643		-167.968750
8644		-162.109375
8645		-169.921875
8646		-162.109375
8647		-169.921875
8648		-162.109375
8649		-169.921875
8650		-164.062500
8651		-171.875000
8652		-164.062500
8653		-169.921875
8654		-167.968750
8655		-169.921875
8656		-167.968750
8657		-171.875000
8658		-166.015625
8659		-171.875000
8660		-166.015625
8661		-171.875000
8662		-166.015625
8663		-171.875000
8664		-166.015625
8665		-171.875000
8666		-166.015625
8667		-171.875000
8668		-164.062500
8669		-169.921875
8670		-166.015625
8671		-167.968750
8672		-166.015625
8673		-169.921875
8674		-162.109375
8675		-167.968750
8676		-162.109375
8677		-167.968750
8678		-160.156250
8679		-166.015625
8680		-158.203125
8681		-164.062500
8682		-158.203125
8683		-162.109375
8684		-156.250000
8685		-162.109375
8686		-156.250000
8687		-158.203125
8688		-154.296875
8689		-156.250000
8690		-150.390625
8691		-156.250000
8692		-148.437500
8693		-152.343750
8694		-144.531250
8695		-150.390625
8696		-142.578125
8697		-148.437500
8698		-140.625000
8699		-146.484375
8700		-138.671875
8701		-142.578125
8702		-136.718750
8703		-138.671875
8704		-134.765625
8705		-136.718750
8706		-130.859375
8707		-132.812500
8708		-126.953125
8709		-130.859375
8710		-123.046875
8711		-126.953125
8712		-121.093750
8713		-125.000000
8714		-115.234375
8715		-121.093750
8716		-113.281250
8717		-117.187500
8718		-109.375000
8719		-115.234375
8720		-107.421875
8721		-109.375000
8722		-103.515625
8723		-105.468750
8724		-97.656250
8725		-101.562500
8726		-93.750000
8727		-99.609375
8728		-89.843750
8729		-95.703125
8730		-85.937500
8731		-91.796875
8732		-82.031250
8733		-85.937500
8734		-78.125000
8735		-83.984375
8736		-76.171875
8737		-76.171875
8738		-70.312500
8739		-72.265625
8740		-66.406250
8741		-70.312500
8742		-60.546875
8743		-66.406250
8744		-56.640625
8745		-60.546875
8746		-52.734375
8747		-54.687500
8748		-46.875000
8749		-52.734375
8750		-44.921875
8751		-46.875000
8752		-39.062500
8753		-42.968750
8754		-35.156250
8755		-37.109375
8756		-31.250000
8757		-33.203125
8758		-25.390625
8759		-29.296875
8760		-19.531250
8761		-25.390625
8762		-15.625000
8763		-19.531250
8764		-11.718750
8765		-15.625000
8766		-7.812500
8767		-9.765625
8768		-1.953125
8769		-5.859375
8770		1.953125
8771		0.000000
8772		5.859375
8773		3.906250
8774		9.765625
8775		7.812500
8776		15.625000
8777		11.718750
8778		19.531250
8779		15.625000
8780		25.390625
8781		17.578125
8782		29.296875
8783		23.437500
8784		33.203125
8785		29.296875
8786		37.109375
8787		33.203125
8788		39.062500
8789		39.062500
8790		44.921875
8791		41.015625
8792		50.781250
8793		44.921875
8794		54.687500
8795		48.828125
8796		56.640625
8797		50.781250
8798		60.546875
8799		56.640625
8800		66.406250
8801		62.500000
8802		70.312500
8803		64.453125
8804		72.265625
8805		70.312500
8806		76.171875
8807		74.218750
8808		80.078125
8809		76.171875
8810		83.984375
8811		78.125000
8812		85.937500
8813		82.031250
8814		89.843750
8815		85.937500
8816		93.750000
8817		89.843750
8818		97.656250
8819		91.796875
8820		99.609375
8821		97.656250
8822		101.562500
8823		99.609375
8824		103.515625
8825		101.562500
8826		107.421875
8827		103.515625
8828		111.328125
8829		107.421875
8830		115.234375
8831		109.375000
8832		117.187500
8833		113.281250
8834		121.093750
8835		115.234375
8836		123.046875
8837		117.187500
8838		123.046875
8839		121.093750
8840		125.000000
8841		123.046875
8842		128.906250
8843		123.046875
8844		130.859375
8845		126.953125
8846		134.765625
8847		128.906250
8848		134.765625
8849		130.859375
8850		136.718750
8851		132.812500
8852		138.671875
8853		134.765625
8854		140.625000
8855		136.718750
8856		140.625000
8857		138.671875
8858		142.578125
8859		138.671875
8860		146.484375
8861		140.625000
8862		148.437500
8863		142.578125
8864		148.437500
8865		142.578125
8866		150.390625
8867		144.531250
8868		152.343750
8869		144.531250
8870		152.343750
8871		148.437500
8872		152.343750
8873		150.390625
8874		152.343750
8875		148.437500
8876		154.296875
8877		148.437500
8878		156.250000
8879		150.390625
8880		156.250000
8881		150.390625
8882		156.250000
8883		150.390625
8884		158.203125
8885		150.390625
8886		158.203125
8887		152.343750
8888		158.203125
8889		154.296875
8890		156.250000
8891		152.343750
8892		160.156250
8893		152.343750
8894		158.203125
8895		152.343750
8896		158.203125
8897		152.343750
8898		158.203125
8899		152.343750
8900		158.203125
8901		150.390625
8902		158.203125
8903		152.343750
8904		158.203125
8905		152.343750
8906		156.250000
8907		152.343750
8908		154.296875
8909		150.390625
8910		156.250000
8911		148.437500
8912		156.250000
8913		148.437500
8914		154.296875
8915		146.484375
8916		154.296875
8917		146.484375
8918		152.343750
8919		144.531250
8920		152.343750
8921		146.484375
8922		150.390625
8923		144.531250
8924		148.437500
8925		142.578125
8926		148.437500
8927		140.625000
8928		146.484375
8929		138.671875
8930		146.484375
8931		136.718750
8932		142.578125
8933		136.718750
8934		142.578125
8935		132.812500
8936		140.625000
8937		132.812500
8938		138.671875
8939		130.859375
8940		134.765625
8941		128.906250
8942		132.812500
8943		125.000000
8944		132.812500
8945		123.046875
8946		130.859375
8947		121.093750
8948		128.906250
8949		117.187500
8950		126.953125
8951		115.234375
8952		123.046875
8953		113.281250
8954		119.140625
8955		111.328125
8956		115.234375
8957		109.375000
8958		113.281250
8959		105.468750
8960		111.328125
8961		99.609375
8962		109.375000
8963		97.656250
8964		107.421875
8965		95.703125
8966		103.515625
8967		91.796875
8968		99.609375
8969		87.890625
8970		97.656250
8971		87.890625
8972		93.750000
8973		83.984375
8974		87.890625
8975		78.125000
8976		85.937500
8977		74.218750
8978		82.031250
8979		72.265625
8980		80.078125
8981		66.406250
8982		76.171875
8983		62.500000
8984		72.265625
8985		60.546875
8986		68.359375
8987		56.640625
8988		64.453125
8989		52.734375
8990		58.593750
8991		48.828125
8992		54.687500
8993		42.968750
8994		50.781250
8995		41.015625
8996		48.828125
8997		35.156250
8998		42.968750
8999		31.250000
9000		39.062500
9001		27.343750
9002		37.109375
9003		21.484375
9004		33.203125
9005		19.531250
9006		27.343750
9007		15.625000
9008		21.484375
9009		9.765625
9010		17.578125
9011		3.906250
9012		13.671875
9013		1.953125
9014		9.765625
9015		-1.953125
9016		5.859375
9017		-7.812500
9018		1.953125
9019		-13.671875
9020		-1.953125
9021		-15.625000
9022		-7.812500
9023		-19.531250
9024		-13.671875
9025		-23.437500
9026		-17.578125
9027		-31.250000
9028		-21.484375
9029		-35.156250
9030		-25.390625
9031		-39.062500
9032		-29.296875
9033		-42.968750
9034		-33.203125
9035		-46.875000
9036		-39.062500
9037		-50.781250
9038		-42.968750
9039		-54.687500
9040		-46.875000
9041		-58.593750
9042		-52.734375
9043		-66.406250
9044		-56.640625
9045		-68.359375
9046		-60.546875
9047		-74.218750
9048		-64.453125
9049		-78.125000
9050		-68.359375
9051		-82.031250
9052		-74.218750
9053		-83.984375
9054		-76.171875
9055		-87.890625
9056		-80.078125
9057		-91.796875
9058		-85.937500
9059		-95.703125
9060		-89.843750
9061		-99.609375
9062		-93.750000
9063		-105.468750
9064		-95.703125
9065		-109.375000
9066		-99.609375
9067		-111.328125
9068		-103.515625
9069		-115.234375
9070		-107.421875
9071		-119.140625
9072		-111.328125
9073		-121.093750
9074		-115.234375
9075		-123.046875
9076		-119.140625
9077		-128.906250
9078		-121.093750
9079		-130.859375
9080		-123.046875
9081		-134.765625
9082		-126.953125
9083		-138.671875
9084		-128.906250
9085		-140.625000
9086		-132.812500
9087		-142.578125
9088		-136.718750
9089		-144.531250
9090		-140.625000
9091		-146.484375
9092		-142.578125
9093		-150.390625
9094		-144.531250
9095		-152.343750
9096		-146.484375
9097		-156.250000
9098		-148.437500
9099		-158.203125
9100		-150.390625
9101		-160.156250
9102		-152.343750
9103		-162.109375
9104		-154.296875
9105		-162.109375
9106		-156.250000
9107		-162.109375
9108		-158.203125
9109		-164.062500
9110		-160.156250
9111		-166.015625
9112		-160.156250
9113		-167.968750
9114		-160.156250
9115		-169.921875
9116		-162.109375
9117		-169.921875
9118		-164.062500
9119		-171.875000
9120		-164.062500
9121		-171.875000
9122		-164.062500
9123		-169.921875
9124		-166.015625
9125		-169.921875
9126		-167.968750
9127		-171.875000
9128		-166.015625
9129		-171.875000
9130		-166.015625
9131		-173.828125
9132		-166.015625
9133		-171.875000
9134		-166.015625
9135		-171.875000
9136		-166.015625
9137		-171.875000
9138		-164.062500
9139		-171.875000
9140		-164.062500
9141		-167.968750
9142		-166.015625
9143		-167.968750
9144		-162.109375
9145		-169.921875
9146		-162.109375
9147		-167.968750
9148		-160.156250
9149		-166.015625
9150		-160.156250
9151		-166.015625
9152		-158.203125
9153		-164.062500
9154		-156.250000
9155		-162.109375
9156		-156.250000
9157		-158.203125
9158		-154.296875
9159		-156.250000
9160		-152.343750
9161		-156.250000
9162		-148.437500
9163		-154.296875
9164		-146.484375
9165		-152.343750
9166		-144.531250
9167		-150.390625
9168		-142.578125
9169		-146.484375
9170		-140.625000
9171		-144.531250
9172		-136.718750
9173		-140.625000
9174		-136.718750
9175		-138.671875
9176		-132.812500
9177		-134.765625
9178		-128.906250
9179		-132.812500
9180		-125.000000
9181		-130.859375
9182		-121.093750
9183		-126.953125
9184		-117.187500
9185		-125.000000
9186		-115.234375
9187		-119.140625
9188		-111.328125
9189		-115.234375
9190		-109.375000
9191		-111.328125
9192		-105.468750
9193		-107.421875
9194		-101.562500
9195		-105.468750
9196		-95.703125
9197		-101.562500
9198		-93.750000
9199		-97.656250
9200		-87.890625
9201		-93.750000
9202		-83.984375
9203		-89.843750
9204		-80.078125
9205		-85.937500
9206		-76.171875
9207		-80.078125
9208		-74.218750
9209		-74.218750
9210		-70.312500
9211		-70.312500
9212		-62.500000
9213		-68.359375
9214		-58.593750
9215		-64.453125
9216		-54.687500
9217		-58.593750
9218		-50.781250
9219		-54.687500
9220		-46.875000
9221		-50.781250
9222		-41.015625
9223		-46.875000
9224		-39.062500
9225		-39.062500
9226		-33.203125
9227		-35.156250
9228		-27.343750
9229		-33.203125
9230		-23.437500
9231		-29.296875
9232		-17.578125
9233		-21.484375
9234		-13.671875
9235		-19.531250
9236		-9.765625
9237		-13.671875
9238		-5.859375
9239		-9.765625
9240		-1.953125
9241		-3.906250
9242		1.953125
9243		0.000000
9244		5.859375
9245		3.906250
9246		13.671875
9247		7.812500
9248		17.578125
9249		13.671875
9250		21.484375
9251		17.578125
9252		25.390625
9253		21.484375
9254		29.296875
9255		25.390625
9256		35.156250
9257		29.296875
9258		37.109375
9259		35.156250
9260		41.015625
9261		39.062500
9262		46.875000
9263		42.968750
9264		50.781250
9265		46.875000
9266		54.687500
9267		48.828125
9268		58.593750
9269		54.687500
9270		62.500000
9271		58.593750
9272		66.406250
9273		62.500000
9274		68.359375
9275		66.406250
9276		72.265625
9277		70.312500
9278		76.171875
9279		72.265625
9280		80.078125
9281		76.171875
9282		83.984375
9283		80.078125
9284		87.890625
9285		83.984375
9286		91.796875
9287		85.937500
9288		95.703125
9289		89.843750
9290		97.656250
9291		93.750000
9292		99.609375
9293		97.656250
9294		103.515625
9295		99.609375
9296		107.421875
9297		103.515625
9298		111.328125
9299		105.468750
9300		113.281250
9301		107.421875
9302		117.187500
9303		109.375000
9304		117.187500
9305		113.281250
9306		121.093750
9307		117.187500
9308		121.093750
9309		121.093750
9310		125.000000
9311		121.093750
9312		126.953125
9313		123.046875
9314		130.859375
9315		125.000000
9316		132.812500
9317		128.906250
9318		134.765625
9319		128.906250
9320		136.718750
9321		130.859375
9322		138.671875
9323		132.812500
9324		140.625000
9325		136.718750
9326		140.625000
9327		138.671875
9328		142.578125
9329		138.671875
9330		146.484375
9331		140.625000
9332		148.437500
9333		142.578125
9334		148.437500
9335		142.578125
9336		150.390625
9337		144.531250
9338		150.390625
9339		144.531250
9340		152.343750
9341		146.484375
9342		152.343750
9343		150.390625
9344		152.343750
9345		148.437500
9346		156.250000
9347		148.437500
9348		156.250000
9349		150.390625
9350		156.250000
9351		150.390625
9352		158.203125
9353		150.390625
9354		158.203125
9355		152.343750
9356		158.203125
9357		152.343750
9358		158.203125
9359		154.296875
9360		158.203125
9361		154.296875
9362		158.203125
9363		154.296875
9364		158.203125
9365		154.296875
9366		160.156250
9367		154.296875
9368		158.203125
9369		154.296875
9370		158.203125
9371		152.343750
9372		158.203125
9373		154.296875
9374		158.203125
9375		152.343750
9376		158.203125
9377		154.296875
9378		156.250000
9379		150.390625
9380		158.203125
9381		150.390625
9382		158.203125
9383		150.390625
9384		156.250000
9385		148.437500
9386		156.250000
9387		148.437500
9388		156.250000
9389		146.484375
9390		154.296875
9391		146.484375
9392		152.343750
9393		146.484375
9394		150.390625
9395		146.484375
9396		148.437500
9397		142.578125
9398		150.390625
9399		140.625000
9400		148.437500
9401		138.671875
9402		146.484375
9403		136.718750
9404		144.531250
9405		136.718750
9406		142.578125
9407		134.765625
9408		140.625000
9409		134.765625
9410		138.671875
9411		130.859375
9412		136.718750
9413		126.953125
9414		134.765625
9415		125.000000
9416		134.765625
9417		125.000000
9418		130.859375
9419		121.093750
9420		128.906250
9421		117.187500
9422		126.953125
9423		115.234375
9424		125.000000
9425		115.234375
9426		121.093750
9427		113.281250
9428		117.187500
9429		107.421875
9430		115.234375
9431		105.468750
9432		111.328125
9433		103.515625
9434		109.375000
9435		99.609375
9436		107.421875
9437		97.656250
9438		103.515625
9439		91.796875
9440		101.562500
9441		89.843750
9442		97.656250
9443		87.890625
9444		91.796875
9445		83.984375
9446		89.843750
9447		78.125000
9448		85.937500
9449		76.171875
9450		83.984375
9451		70.312500
9452		80.078125
9453		68.359375
9454		76.171875
9455		64.453125
9456		72.265625
9457		60.546875
9458		68.359375
9459		58.593750
9460		64.453125
9461		54.687500
9462		58.593750
9463		48.828125
9464		54.687500
9465		42.968750
9466		52.734375
9467		39.062500
9468		48.828125
9469		35.156250
9470		44.921875
9471		33.203125
9472		39.062500
9473		27.343750
9474		37.109375
9475		25.390625
9476		31.250000
9477		19.531250
9478		25.390625
9479		15.625000
9480		21.484375
9481		9.765625
9482		19.531250
9483		5.859375
9484		15.625000
9485		1.953125
9486		9.765625
9487		-3.906250
9488		5.859375
9489		-7.812500
9490		1.953125
9491		-11.718750
9492		-3.906250
9493		-15.625000
9494		-9.765625
9495		-19.531250
9496		-13.671875
9497		-25.390625
9498		-17.578125
9499		-29.296875
9500		-21.484375
9501		-33.203125
9502		-25.390625
9503		-39.062500
9504		-29.296875
9505		-42.968750
9506		-33.203125
9507		-48.828125
9508		-37.109375
9509		-50.781250
9510		-42.968750
9511		-54.687500
9512		-48.828125
9513		-60.546875
9514		-52.734375
9515		-66.406250
9516		-56.640625
9517		-68.359375
9518		-60.546875
9519		-72.265625
9520		-62.500000
9521		-78.125000
9522		-68.359375
9523		-82.031250
9524		-72.265625
9525		-83.984375
9526		-76.171875
9527		-87.890625
9528		-82.031250
9529		-91.796875
9530		-85.937500
9531		-97.656250
9532		-89.843750
9533		-101.562500
9534		-89.843750
9535		-105.468750
9536		-95.703125
9537		-107.421875
9538		-99.609375
9539		-113.281250
9540		-103.515625
9541		-115.234375
9542		-107.421875
9543		-117.187500
9544		-111.328125
9545		-119.140625
9546		-115.234375
9547		-125.000000
9548		-119.140625
9549		-128.906250
9550		-119.140625
9551		-132.812500
9552		-123.046875
9553		-134.765625
9554		-126.953125
9555		-138.671875
9556		-130.859375
9557		-140.625000
9558		-132.812500
9559		-140.625000
9560		-136.718750
9561		-144.531250
9562		-138.671875
9563		-146.484375
9564		-142.578125
9565		-150.390625
9566		-142.578125
9567		-152.343750
9568		-144.531250
9569		-156.250000
9570		-146.484375
9571		-156.250000
9572		-148.437500
9573		-158.203125
9574		-152.343750
9575		-160.156250
9576		-154.296875
9577		-160.156250
9578		-156.250000
9579		-162.109375
9580		-158.203125
9581		-166.015625
9582		-158.203125
9583		-166.015625
9584		-160.156250
9585		-167.968750
9586		-160.156250
9587		-167.968750
9588		-162.109375
9589		-169.921875
9590		-162.109375
9591		-169.921875
9592		-164.062500
9593		-169.921875
9594		-164.062500
9595		-169.921875
9596		-166.015625
9597		-171.875000
9598		-164.062500
9599		-171.875000
9600		-166.015625
9601		-171.875000
9602		-164.062500
9603		-171.875000
9604		-166.015625
9605		-171.875000
9606		-166.015625
9607		-171.875000
9608		-164.062500
9609		-171.875000
9610		-164.062500
9611		-167.968750
9612		-166.015625
9613		-167.968750
9614		-164.062500
9615		-167.968750
9616		-162.109375
9617		-167.968750
9618		-162.109375
9619		-166.015625
9620		-160.156250
9621		-166.015625
9622		-158.203125
9623		-164.062500
9624		-156.250000
9625		-162.109375
9626		-156.250000
9627		-160.156250
9628		-156.250000
9629		-156.250000
9630		-154.296875
9631		-156.250000
9632		-150.390625
9633		-156.250000
9634		-148.437500
9635		-152.343750
9636		-146.484375
9637		-150.390625
9638		-144.531250
9639		-148.437500
9640		-140.625000
9641		-146.484375
9642		-136.718750
9643		-144.531250
9644		-136.718750
9645		-138.671875
9646		-134.765625
9647		-136.718750
9648		-130.859375
9649		-134.765625
9650		-125.000000
9651		-132.812500
9652		-123.046875
9653		-128.906250
9654		-121.093750
9655		-125.000000
9656		-117.187500
9657		-121.093750
9658		-113.281250
9659		-119.140625
9660		-109.375000
9661		-115.234375
9662		-107.421875
9663		-109.375000
9664		-103.515625
9665		-105.468750
9666		-99.609375
9667		-103.515625
9668		-95.703125
9669		-99.609375
9670		-89.843750
9671		-95.703125
9672		-85.937500
9673		-91.796875
9674		-82.031250
9675		-87.890625
9676		-78.125000
9677		-83.984375
9678		-76.171875
9679		-78.125000
9680		-72.265625
9681		-72.265625
9682		-64.453125
9683		-70.312500
9684		-62.500000
9685		-66.406250
9686		-56.640625
9687		-62.500000
9688		-52.734375
9689		-56.640625
9690		-46.875000
9691		-52.734375
9692		-42.968750
9693		-48.828125
9694		-39.062500
9695		-42.968750
9696		-35.156250
9697		-37.109375
9698		-31.250000
9699		-33.203125
9700		-25.390625
9701		-29.296875
9702		-21.484375
9703		-25.390625
9704		-17.578125
9705		-21.484375
9706		-11.718750
9707		-17.578125
9708		-7.812500
9709		-11.718750
9710		-1.953125
9711		-5.859375
9712		0.000000
9713		-1.953125
9714		3.906250
9715		3.906250
9716		9.765625
9717		5.859375
9718		15.625000
9719		11.718750
9720		19.531250
9721		13.671875
9722		23.437500
9723		19.531250
9724		27.343750
9725		23.437500
9726		33.203125
9727		27.343750
9728		35.156250
9729		33.203125
9730		39.062500
9731		37.109375
9732		42.968750
9733		39.062500
9734		48.828125
9735		44.921875
9736		52.734375
9737		46.875000
9738		56.640625
9739		52.734375
9740		60.546875
9741		56.640625
9742		64.453125
9743		60.546875
9744		68.359375
9745		64.453125
9746		70.312500
9747		68.359375
9748		74.218750
9749		72.265625
9750		80.078125
9751		74.218750
9752		82.031250
9753		78.125000
9754		85.937500
9755		82.031250
9756		89.843750
9757		85.937500
9758		93.750000
9759		87.890625
9760		95.703125
9761		91.796875
9762		97.656250
9763		95.703125
9764		101.562500
9765		99.609375
9766		105.468750
9767		99.609375
9768		109.375000
9769		103.515625
9770		111.328125
9771		105.468750
9772		115.234375
9773		109.375000
9774		117.187500
9775		111.328125
9776		119.140625
9777		115.234375
9778		121.093750
9779		119.140625
9780		123.046875
9781		121.093750
9782		125.000000
9783		123.046875
9784		128.906250
9785		123.046875
9786		132.812500
9787		126.953125
9788		132.812500
9789		128.906250
9790		136.718750
9791		130.859375
9792		138.671875
9793		132.812500
9794		138.671875
9795		134.765625
9796		140.625000
9797		138.671875
9798		142.578125
9799		138.671875
9800		146.484375
9801		140.625000
9802		146.484375
9803		140.625000
9804		148.437500
9805		142.578125
9806		150.390625
9807		142.578125
9808		152.343750
9809		144.531250
9810		152.343750
9811		146.484375
9812		152.343750
9813		148.437500
9814		152.343750
9815		150.390625
9816		154.296875
9817		148.437500
9818		156.250000
9819		150.390625
9820		156.250000
9821		150.390625
9822		158.203125
9823		152.343750
9824		158.203125
9825		150.390625
9826		158.203125
9827		152.343750
9828		160.156250
9829		154.296875
9830		158.203125
9831		156.250000
9832		158.203125
9833		154.296875
9834		160.156250
9835		152.343750
9836		160.156250
9837		154.296875
9838		160.156250
9839		152.343750
9840		160.156250
9841		154.296875
9842		160.156250
9843		152.343750
9844		160.156250
9845		152.343750
9846		160.156250
9847		154.296875
9848		156.250000
9849		152.343750
9850		158.203125
9851		152.343750
9852		158.203125
9853		150.390625
9854		158.203125
9855		150.390625
9856		156.250000
9857		148.437500
9858		156.250000
9859		148.437500
9860		154.296875
9861		146.484375
9862		154.296875
9863		148.437500
9864		150.390625
9865		146.484375
9866		150.390625
9867		142.578125
9868		150.390625
9869		142.578125
9870		148.437500
9871		140.625000
9872		146.484375
9873		138.671875
9874		146.484375
9875		136.718750
9876		144.531250
9877		136.718750
9878		142.578125
9879		134.765625
9880		140.625000
9881		134.765625
9882		136.718750
9883		128.906250
9884		134.765625
9885		128.906250
9886		134.765625
9887		125.000000
9888		132.812500
9889		123.046875
9890		130.859375
9891		121.093750
9892		128.906250
9893		117.187500
9894		125.000000
9895		115.234375
9896		123.046875
9897		115.234375
9898		119.140625
9899		111.328125
9900		117.187500
9901		107.421875
9902		115.234375
9903		103.515625
9904		111.328125
9905		101.562500
9906		109.375000
9907		97.656250
9908		105.468750
9909		95.703125
9910		103.515625
9911		91.796875
9912		99.609375
9913		89.843750
9914		97.656250
9915		87.890625
9916		91.796875
9917		80.078125
9918		87.890625
9919		78.125000
9920		85.937500
9921		74.218750
9922		82.031250
9923		72.265625
9924		80.078125
9925		66.406250
9926		76.171875
9927		64.453125
9928		72.265625
9929		60.546875
9930		68.359375
9931		56.640625
9932		62.500000
9933		50.781250
9934		58.593750
9935		46.875000
9936		56.640625
9937		42.968750
9938		50.781250
9939		39.062500
9940		46.875000
9941		35.156250
9942		42.968750
9943		31.250000
9944		39.062500
9945		25.390625
9946		35.156250
9947		23.437500
9948		29.296875
9949		19.531250
9950		25.390625
9951		13.671875
9952		21.484375
9953		7.812500
9954		17.578125
9955		3.906250
9956		13.671875
9957		0.000000
9958		9.765625
9959		-5.859375
9960		3.906250
9961		-7.812500
9962		0.000000
9963		-11.718750
9964		-3.906250
9965		-15.625000
9966		-9.765625
9967		-21.484375
9968		-13.671875
9969		-25.390625
9970		-17.578125
9971		-29.296875
9972		-21.484375
9973		-35.156250
9974		-25.390625
9975		-39.062500
9976		-31.250000
9977		-42.968750
9978		-35.156250
9979		-48.828125
9980		-39.062500
9981		-50.781250
9982		-44.921875
9983		-54.687500
9984		-48.828125
9985		-62.500000
9986		-52.734375
9987		-66.406250
9988		-56.640625
9989		-70.312500
9990		-60.546875
9991		-74.218750
9992		-66.406250
9993		-78.125000
9994		-70.312500
9995		-82.031250
9996		-72.265625
9997		-85.937500
9998		-78.125000
9999		-87.890625
10000		-83.984375
