Channel              :		CH1
Frequency            :		1.061kHz
Period               :		0.942ms
PK-PK                :		296.9mV
Probe attenuation    :		1X
Voltage per ADC value:		0.122070mV
Time interval        :		2.00000us

index		CH1_Voltage(mV)
1		93.750000
2		93.750000
3		82.031250
4		91.796875
5		80.078125
6		87.890625
7		78.125000
8		83.984375
9		76.171875
10		80.078125
11		72.265625
12		80.078125
13		68.359375
14		76.171875
15		64.453125
16		72.265625
17		62.500000
18		70.312500
19		58.593750
20		66.406250
21		54.687500
22		64.453125
23		52.734375
24		60.546875
25		50.781250
26		54.687500
27		44.921875
28		50.781250
29		41.015625
30		48.828125
31		37.109375
32		44.921875
33		35.156250
34		42.968750
35		31.250000
36		39.062500
37		27.343750
38		35.156250
39		25.390625
40		33.203125
41		21.484375
42		25.390625
43		17.578125
44		23.437500
45		11.718750
46		19.531250
47		7.812500
48		15.625000
49		3.906250
50		11.718750
51		0.000000
52		9.765625
53		-3.906250
54		3.906250
55		-7.812500
56		1.953125
57		-9.765625
58		-3.906250
59		-13.671875
60		-7.812500
61		-19.531250
62		-11.718750
63		-23.437500
64		-13.671875
65		-27.343750
66		-17.578125
67		-31.250000
68		-21.484375
69		-35.156250
70		-27.343750
71		-39.062500
72		-29.296875
73		-41.015625
74		-35.156250
75		-44.921875
76		-39.062500
77		-50.781250
78		-42.968750
79		-54.687500
80		-46.875000
81		-58.593750
82		-48.828125
83		-60.546875
84		-52.734375
85		-66.406250
86		-56.640625
87		-68.359375
88		-60.546875
89		-72.265625
90		-64.453125
91		-74.218750
92		-68.359375
93		-78.125000
94		-72.265625
95		-83.984375
96		-76.171875
97		-87.890625
98		-78.125000
99		-89.843750
100		-82.031250
101		-93.750000
102		-83.984375
103		-95.703125
104		-87.890625
105		-99.609375
106		-91.796875
107		-101.562500
108		-93.750000
109		-103.515625
110		-99.609375
111		-107.421875
112		-101.562500
113		-111.328125
114		-103.515625
115		-115.234375
116		-107.421875
117		-117.187500
118		-109.375000
119		-119.140625
120		-111.328125
121		-121.093750
122		-115.234375
123		-123.046875
124		-119.140625
125		-125.000000
126		-121.093750
127		-126.953125
128		-123.046875
129		-132.812500
130		-125.000000
131		-134.765625
132		-126.953125
133		-134.765625
134		-128.906250
135		-138.671875
136		-130.859375
137		-140.625000
138		-132.812500
139		-142.578125
140		-134.765625
141		-140.625000
142		-136.718750
143		-142.578125
144		-138.671875
145		-146.484375
146		-140.625000
147		-146.484375
148		-140.625000
149		-148.437500
150		-142.578125
151		-148.437500
152		-142.578125
153		-150.390625
154		-144.531250
155		-152.343750
156		-144.531250
157		-152.343750
158		-144.531250
159		-150.390625
160		-148.437500
161		-152.343750
162		-148.437500
163		-154.296875
164		-146.484375
165		-154.296875
166		-146.484375
167		-154.296875
168		-148.437500
169		-154.296875
170		-148.437500
171		-154.296875
172		-148.437500
173		-154.296875
174		-146.484375
175		-152.343750
176		-148.437500
177		-150.390625
178		-148.437500
179		-152.343750
180		-146.484375
181		-152.343750
182		-144.531250
183		-152.343750
184		-144.531250
185		-150.390625
186		-142.578125
187		-150.390625
188		-142.578125
189		-148.437500
190		-140.625000
191		-146.484375
192		-140.625000
193		-144.531250
194		-140.625000
195		-142.578125
196		-136.718750
197		-142.578125
198		-134.765625
199		-140.625000
200		-134.765625
201		-138.671875
202		-130.859375
203		-136.718750
204		-130.859375
205		-134.765625
206		-126.953125
207		-132.812500
208		-126.953125
209		-128.906250
210		-125.000000
211		-126.953125
212		-123.046875
213		-126.953125
214		-119.140625
215		-123.046875
216		-117.187500
217		-121.093750
218		-113.281250
219		-117.187500
220		-109.375000
221		-115.234375
222		-107.421875
223		-111.328125
224		-105.468750
225		-109.375000
226		-103.515625
227		-105.468750
228		-99.609375
229		-101.562500
230		-95.703125
231		-99.609375
232		-91.796875
233		-97.656250
234		-89.843750
235		-93.750000
236		-85.937500
237		-89.843750
238		-82.031250
239		-87.890625
240		-78.125000
241		-83.984375
242		-76.171875
243		-78.125000
244		-74.218750
245		-74.218750
246		-68.359375
247		-72.265625
248		-64.453125
249		-68.359375
250		-60.546875
251		-66.406250
252		-56.640625
253		-62.500000
254		-52.734375
255		-58.593750
256		-48.828125
257		-52.734375
258		-44.921875
259		-48.828125
260		-42.968750
261		-44.921875
262		-39.062500
263		-41.015625
264		-33.203125
265		-37.109375
266		-29.296875
267		-33.203125
268		-25.390625
269		-29.296875
270		-23.437500
271		-27.343750
272		-17.578125
273		-21.484375
274		-13.671875
275		-17.578125
276		-11.718750
277		-13.671875
278		-7.812500
279		-9.765625
280		-1.953125
281		-5.859375
282		1.953125
283		-1.953125
284		5.859375
285		0.000000
286		9.765625
287		3.906250
288		13.671875
289		9.765625
290		17.578125
291		11.718750
292		19.531250
293		17.578125
294		23.437500
295		21.484375
296		27.343750
297		23.437500
298		33.203125
299		27.343750
300		37.109375
301		31.250000
302		39.062500
303		35.156250
304		42.968750
305		39.062500
306		46.875000
307		41.015625
308		48.828125
309		44.921875
310		52.734375
311		50.781250
312		54.687500
313		54.687500
314		60.546875
315		54.687500
316		64.453125
317		58.593750
318		68.359375
319		62.500000
320		70.312500
321		64.453125
322		74.218750
323		68.359375
324		76.171875
325		72.265625
326		78.125000
327		76.171875
328		82.031250
329		78.125000
330		85.937500
331		80.078125
332		87.890625
333		82.031250
334		91.796875
335		85.937500
336		93.750000
337		87.890625
338		95.703125
339		91.796875
340		99.609375
341		93.750000
342		99.609375
343		97.656250
344		101.562500
345		99.609375
346		103.515625
347		101.562500
348		109.375000
349		103.515625
350		111.328125
351		105.468750
352		113.281250
353		107.421875
354		113.281250
355		109.375000
356		117.187500
357		111.328125
358		119.140625
359		113.281250
360		119.140625
361		117.187500
362		119.140625
363		117.187500
364		123.046875
365		119.140625
366		125.000000
367		119.140625
368		126.953125
369		121.093750
370		128.906250
371		123.046875
372		128.906250
373		123.046875
374		130.859375
375		125.000000
376		130.859375
377		126.953125
378		130.859375
379		128.906250
380		130.859375
381		128.906250
382		134.765625
383		128.906250
384		136.718750
385		128.906250
386		136.718750
387		130.859375
388		136.718750
389		130.859375
390		138.671875
391		132.812500
392		138.671875
393		132.812500
394		138.671875
395		134.765625
396		136.718750
397		132.812500
398		140.625000
399		132.812500
400		140.625000
401		132.812500
402		140.625000
403		132.812500
404		140.625000
405		134.765625
406		140.625000
407		132.812500
408		140.625000
409		132.812500
410		138.671875
411		134.765625
412		138.671875
413		134.765625
414		138.671875
415		132.812500
416		138.671875
417		132.812500
418		138.671875
419		130.859375
420		138.671875
421		130.859375
422		136.718750
423		130.859375
424		136.718750
425		128.906250
426		136.718750
427		130.859375
428		132.812500
429		128.906250
430		132.812500
431		126.953125
432		132.812500
433		125.000000
434		132.812500
435		125.000000
436		130.859375
437		123.046875
438		130.859375
439		123.046875
440		128.906250
441		121.093750
442		126.953125
443		119.140625
444		125.000000
445		119.140625
446		123.046875
447		115.234375
448		121.093750
449		113.281250
450		121.093750
451		111.328125
452		119.140625
453		109.375000
454		117.187500
455		107.421875
456		115.234375
457		105.468750
458		113.281250
459		103.515625
460		111.328125
461		103.515625
462		107.421875
463		101.562500
464		105.468750
465		97.656250
466		103.515625
467		95.703125
468		101.562500
469		91.796875
470		99.609375
471		87.890625
472		95.703125
473		85.937500
474		93.750000
475		82.031250
476		91.796875
477		82.031250
478		87.890625
479		78.125000
480		83.984375
481		74.218750
482		80.078125
483		70.312500
484		80.078125
485		68.359375
486		76.171875
487		66.406250
488		74.218750
489		62.500000
490		70.312500
491		58.593750
492		66.406250
493		56.640625
494		64.453125
495		52.734375
496		58.593750
497		50.781250
498		54.687500
499		44.921875
500		52.734375
501		41.015625
502		50.781250
503		37.109375
504		46.875000
505		35.156250
506		42.968750
507		29.296875
508		39.062500
509		27.343750
510		35.156250
511		25.390625
512		31.250000
513		21.484375
514		25.390625
515		13.671875
516		21.484375
517		11.718750
518		19.531250
519		7.812500
520		17.578125
521		3.906250
522		13.671875
523		0.000000
524		7.812500
525		-3.906250
526		3.906250
527		-5.859375
528		0.000000
529		-9.765625
530		-3.906250
531		-15.625000
532		-7.812500
533		-19.531250
534		-9.765625
535		-23.437500
536		-15.625000
537		-27.343750
538		-17.578125
539		-31.250000
540		-23.437500
541		-35.156250
542		-27.343750
543		-39.062500
544		-31.250000
545		-41.015625
546		-35.156250
547		-44.921875
548		-39.062500
549		-50.781250
550		-41.015625
551		-52.734375
552		-44.921875
553		-58.593750
554		-50.781250
555		-62.500000
556		-52.734375
557		-66.406250
558		-56.640625
559		-68.359375
560		-60.546875
561		-70.312500
562		-64.453125
563		-74.218750
564		-70.312500
565		-80.078125
566		-72.265625
567		-83.984375
568		-74.218750
569		-85.937500
570		-78.125000
571		-91.796875
572		-82.031250
573		-93.750000
574		-83.984375
575		-95.703125
576		-87.890625
577		-99.609375
578		-91.796875
579		-101.562500
580		-95.703125
581		-103.515625
582		-99.609375
583		-109.375000
584		-101.562500
585		-111.328125
586		-103.515625
587		-113.281250
588		-107.421875
589		-117.187500
590		-109.375000
591		-119.140625
592		-111.328125
593		-123.046875
594		-113.281250
595		-123.046875
596		-117.187500
597		-125.000000
598		-121.093750
599		-128.906250
600		-121.093750
601		-132.812500
602		-123.046875
603		-132.812500
604		-126.953125
605		-134.765625
606		-126.953125
607		-136.718750
608		-130.859375
609		-138.671875
610		-132.812500
611		-140.625000
612		-134.765625
613		-140.625000
614		-136.718750
615		-144.531250
616		-138.671875
617		-144.531250
618		-138.671875
619		-146.484375
620		-140.625000
621		-148.437500
622		-140.625000
623		-148.437500
624		-142.578125
625		-150.390625
626		-142.578125
627		-150.390625
628		-144.531250
629		-148.437500
630		-146.484375
631		-150.390625
632		-146.484375
633		-152.343750
634		-146.484375
635		-152.343750
636		-146.484375
637		-154.296875
638		-146.484375
639		-154.296875
640		-146.484375
641		-152.343750
642		-146.484375
643		-152.343750
644		-146.484375
645		-152.343750
646		-146.484375
647		-150.390625
648		-148.437500
649		-152.343750
650		-144.531250
651		-152.343750
652		-144.531250
653		-150.390625
654		-144.531250
655		-150.390625
656		-142.578125
657		-150.390625
658		-142.578125
659		-148.437500
660		-140.625000
661		-146.484375
662		-140.625000
663		-144.531250
664		-140.625000
665		-142.578125
666		-138.671875
667		-142.578125
668		-136.718750
669		-140.625000
670		-134.765625
671		-140.625000
672		-132.812500
673		-138.671875
674		-130.859375
675		-134.765625
676		-128.906250
677		-132.812500
678		-125.000000
679		-130.859375
680		-125.000000
681		-126.953125
682		-123.046875
683		-126.953125
684		-119.140625
685		-125.000000
686		-117.187500
687		-121.093750
688		-113.281250
689		-119.140625
690		-111.328125
691		-117.187500
692		-107.421875
693		-113.281250
694		-105.468750
695		-111.328125
696		-103.515625
697		-105.468750
698		-101.562500
699		-103.515625
700		-97.656250
701		-101.562500
702		-93.750000
703		-97.656250
704		-89.843750
705		-93.750000
706		-85.937500
707		-91.796875
708		-83.984375
709		-87.890625
710		-80.078125
711		-85.937500
712		-76.171875
713		-80.078125
714		-74.218750
715		-76.171875
716		-70.312500
717		-74.218750
718		-66.406250
719		-72.265625
720		-60.546875
721		-66.406250
722		-58.593750
723		-62.500000
724		-54.687500
725		-58.593750
726		-50.781250
727		-56.640625
728		-46.875000
729		-52.734375
730		-44.921875
731		-46.875000
732		-41.015625
733		-42.968750
734		-35.156250
735		-41.015625
736		-31.250000
737		-37.109375
738		-27.343750
739		-33.203125
740		-23.437500
741		-27.343750
742		-19.531250
743		-23.437500
744		-15.625000
745		-19.531250
746		-11.718750
747		-13.671875
748		-9.765625
749		-9.765625
750		-5.859375
751		-7.812500
752		0.000000
753		-3.906250
754		3.906250
755		0.000000
756		7.812500
757		3.906250
758		13.671875
759		7.812500
760		15.625000
761		11.718750
762		19.531250
763		15.625000
764		21.484375
765		21.484375
766		25.390625
767		23.437500
768		31.250000
769		27.343750
770		35.156250
771		31.250000
772		39.062500
773		33.203125
774		41.015625
775		37.109375
776		44.921875
777		41.015625
778		48.828125
779		44.921875
780		50.781250
781		48.828125
782		54.687500
783		52.734375
784		60.546875
785		54.687500
786		62.500000
787		58.593750
788		66.406250
789		60.546875
790		68.359375
791		64.453125
792		72.265625
793		66.406250
794		76.171875
795		70.312500
796		78.125000
797		74.218750
798		80.078125
799		78.125000
800		82.031250
801		80.078125
802		87.890625
803		82.031250
804		89.843750
805		85.937500
806		91.796875
807		87.890625
808		95.703125
809		89.843750
810		97.656250
811		91.796875
812		99.609375
813		93.750000
814		101.562500
815		99.609375
816		103.515625
817		101.562500
818		107.421875
819		101.562500
820		109.375000
821		103.515625
822		111.328125
823		107.421875
824		113.281250
825		109.375000
826		115.234375
827		109.375000
828		117.187500
829		111.328125
830		119.140625
831		115.234375
832		119.140625
833		117.187500
834		121.093750
835		117.187500
836		125.000000
837		119.140625
838		126.953125
839		119.140625
840		126.953125
841		123.046875
842		128.906250
843		123.046875
844		130.859375
845		125.000000
846		130.859375
847		125.000000
848		130.859375
849		128.906250
850		130.859375
851		128.906250
852		134.765625
853		128.906250
854		134.765625
855		128.906250
856		136.718750
857		128.906250
858		136.718750
859		130.859375
860		138.671875
861		130.859375
862		138.671875
863		130.859375
864		138.671875
865		134.765625
866		136.718750
867		134.765625
868		138.671875
869		132.812500
870		140.625000
871		132.812500
872		140.625000
873		132.812500
874		140.625000
875		134.765625
876		140.625000
877		132.812500
878		140.625000
879		132.812500
880		140.625000
881		134.765625
882		138.671875
883		134.765625
884		136.718750
885		132.812500
886		138.671875
887		132.812500
888		138.671875
889		130.859375
890		138.671875
891		130.859375
892		138.671875
893		130.859375
894		136.718750
895		128.906250
896		136.718750
897		128.906250
898		136.718750
899		130.859375
900		132.812500
901		126.953125
902		132.812500
903		125.000000
904		132.812500
905		125.000000
906		132.812500
907		123.046875
908		130.859375
909		123.046875
910		128.906250
911		121.093750
912		128.906250
913		119.140625
914		126.953125
915		119.140625
916		123.046875
917		119.140625
918		121.093750
919		113.281250
920		121.093750
921		113.281250
922		119.140625
923		109.375000
924		119.140625
925		109.375000
926		115.234375
927		107.421875
928		113.281250
929		105.468750
930		111.328125
931		103.515625
932		109.375000
933		101.562500
934		105.468750
935		99.609375
936		103.515625
937		95.703125
938		103.515625
939		91.796875
940		101.562500
941		89.843750
942		97.656250
943		87.890625
944		95.703125
945		83.984375
946		91.796875
947		83.984375
948		89.843750
949		82.031250
950		85.937500
951		78.125000
952		82.031250
953		74.218750
954		82.031250
955		70.312500
956		78.125000
957		66.406250
958		76.171875
959		64.453125
960		72.265625
961		60.546875
962		68.359375
963		56.640625
964		64.453125
965		54.687500
966		60.546875
967		52.734375
968		56.640625
969		46.875000
970		54.687500
971		44.921875
972		50.781250
973		39.062500
974		48.828125
975		35.156250
976		44.921875
977		31.250000
978		42.968750
979		29.296875
980		37.109375
981		27.343750
982		33.203125
983		23.437500
984		27.343750
985		17.578125
986		25.390625
987		13.671875
988		21.484375
989		9.765625
990		19.531250
991		5.859375
992		13.671875
993		1.953125
994		11.718750
995		-1.953125
996		7.812500
997		-5.859375
998		1.953125
999		-7.812500
1000		-1.953125
1001		-11.718750
1002		-5.859375
1003		-17.578125
1004		-7.812500
1005		-21.484375
1006		-11.718750
1007		-25.390625
1008		-15.625000
1009		-27.343750
1010		-21.484375
1011		-33.203125
1012		-23.437500
1013		-37.109375
1014		-27.343750
1015		-39.062500
1016		-31.250000
1017		-42.968750
1018		-37.109375
1019		-48.828125
1020		-41.015625
1021		-52.734375
1022		-42.968750
1023		-54.687500
1024		-46.875000
1025		-58.593750
1026		-50.781250
1027		-62.500000
1028		-54.687500
1029		-66.406250
1030		-58.593750
1031		-68.359375
1032		-62.500000
1033		-72.265625
1034		-66.406250
1035		-76.171875
1036		-70.312500
1037		-82.031250
1038		-72.265625
1039		-83.984375
1040		-76.171875
1041		-87.890625
1042		-80.078125
1043		-91.796875
1044		-83.984375
1045		-93.750000
1046		-85.937500
1047		-97.656250
1048		-89.843750
1049		-99.609375
1050		-93.750000
1051		-101.562500
1052		-97.656250
1053		-107.421875
1054		-99.609375
1055		-109.375000
1056		-101.562500
1057		-113.281250
1058		-105.468750
1059		-115.234375
1060		-107.421875
1061		-119.140625
1062		-111.328125
1063		-121.093750
1064		-113.281250
1065		-121.093750
1066		-115.234375
1067		-123.046875
1068		-119.140625
1069		-128.906250
1070		-121.093750
1071		-130.859375
1072		-123.046875
1073		-132.812500
1074		-125.000000
1075		-134.765625
1076		-126.953125
1077		-136.718750
1078		-128.906250
1079		-138.671875
1080		-130.859375
1081		-140.625000
1082		-132.812500
1083		-140.625000
1084		-136.718750
1085		-142.578125
1086		-138.671875
1087		-146.484375
1088		-138.671875
1089		-146.484375
1090		-140.625000
1091		-148.437500
1092		-140.625000
1093		-148.437500
1094		-142.578125
1095		-150.390625
1096		-142.578125
1097		-152.343750
1098		-144.531250
1099		-152.343750
1100		-146.484375
1101		-150.390625
1102		-148.437500
1103		-152.343750
1104		-146.484375
1105		-154.296875
1106		-146.484375
1107		-154.296875
1108		-148.437500
1109		-154.296875
1110		-148.437500
1111		-154.296875
1112		-148.437500
1113		-154.296875
1114		-148.437500
1115		-154.296875
1116		-148.437500
1117		-152.343750
1118		-150.390625
1119		-152.343750
1120		-148.437500
1121		-154.296875
1122		-146.484375
1123		-152.343750
1124		-146.484375
1125		-152.343750
1126		-144.531250
1127		-150.390625
1128		-144.531250
1129		-150.390625
1130		-142.578125
1131		-148.437500
1132		-142.578125
1133		-146.484375
1134		-142.578125
1135		-144.531250
1136		-140.625000
1137		-144.531250
1138		-138.671875
1139		-144.531250
1140		-136.718750
1141		-142.578125
1142		-134.765625
1143		-140.625000
1144		-132.812500
1145		-138.671875
1146		-130.859375
1147		-136.718750
1148		-128.906250
1149		-134.765625
1150		-128.906250
1151		-130.859375
1152		-126.953125
1153		-128.906250
1154		-123.046875
1155		-128.906250
1156		-121.093750
1157		-125.000000
1158		-117.187500
1159		-123.046875
1160		-113.281250
1161		-119.140625
1162		-111.328125
1163		-117.187500
1164		-109.375000
1165		-115.234375
1166		-107.421875
1167		-109.375000
1168		-105.468750
1169		-107.421875
1170		-101.562500
1171		-105.468750
1172		-95.703125
1173		-103.515625
1174		-93.750000
1175		-99.609375
1176		-91.796875
1177		-95.703125
1178		-87.890625
1179		-93.750000
1180		-83.984375
1181		-89.843750
1182		-82.031250
1183		-85.937500
1184		-78.125000
1185		-80.078125
1186		-76.171875
1187		-78.125000
1188		-70.312500
1189		-76.171875
1190		-66.406250
1191		-70.312500
1192		-62.500000
1193		-68.359375
1194		-58.593750
1195		-64.453125
1196		-54.687500
1197		-60.546875
1198		-52.734375
1199		-56.640625
1200		-48.828125
1201		-50.781250
1202		-44.921875
1203		-46.875000
1204		-41.015625
1205		-44.921875
1206		-35.156250
1207		-41.015625
1208		-31.250000
1209		-35.156250
1210		-27.343750
1211		-31.250000
1212		-23.437500
1213		-29.296875
1214		-19.531250
1215		-25.390625
1216		-15.625000
1217		-19.531250
1218		-13.671875
1219		-15.625000
1220		-9.765625
1221		-11.718750
1222		-5.859375
1223		-9.765625
1224		0.000000
1225		-3.906250
1226		1.953125
1227		-1.953125
1228		7.812500
1229		1.953125
1230		11.718750
1231		5.859375
1232		15.625000
1233		9.765625
1234		17.578125
1235		15.625000
1236		21.484375
1237		19.531250
1238		27.343750
1239		21.484375
1240		31.250000
1241		27.343750
1242		35.156250
1243		29.296875
1244		37.109375
1245		33.203125
1246		41.015625
1247		35.156250
1248		44.921875
1249		39.062500
1250		48.828125
1251		44.921875
1252		50.781250
1253		48.828125
1254		52.734375
1255		50.781250
1256		58.593750
1257		52.734375
1258		62.500000
1259		56.640625
1260		64.453125
1261		60.546875
1262		68.359375
1263		64.453125
1264		72.265625
1265		66.406250
1266		74.218750
1267		68.359375
1268		76.171875
1269		74.218750
1270		80.078125
1271		78.125000
1272		83.984375
1273		78.125000
1274		85.937500
1275		82.031250
1276		89.843750
1277		83.984375
1278		93.750000
1279		85.937500
1280		95.703125
1281		89.843750
1282		97.656250
1283		91.796875
1284		99.609375
1285		95.703125
1286		99.609375
1287		99.609375
1288		101.562500
1289		99.609375
1290		107.421875
1291		101.562500
1292		109.375000
1293		103.515625
1294		111.328125
1295		105.468750
1296		113.281250
1297		107.421875
1298		115.234375
1299		109.375000
1300		117.187500
1301		113.281250
1302		117.187500
1303		115.234375
1304		119.140625
1305		115.234375
1306		123.046875
1307		117.187500
1308		125.000000
1309		119.140625
1310		125.000000
1311		121.093750
1312		126.953125
1313		121.093750
1314		128.906250
1315		121.093750
1316		128.906250
1317		123.046875
1318		130.859375
1319		126.953125
1320		130.859375
1321		126.953125
1322		132.812500
1323		126.953125
1324		132.812500
1325		126.953125
1326		134.765625
1327		128.906250
1328		134.765625
1329		128.906250
1330		136.718750
1331		128.906250
1332		136.718750
1333		130.859375
1334		136.718750
1335		132.812500
1336		136.718750
1337		134.765625
1338		136.718750
1339		130.859375
1340		138.671875
1341		132.812500
1342		138.671875
1343		132.812500
1344		138.671875
1345		132.812500
1346		140.625000
1347		132.812500
1348		138.671875
1349		132.812500
1350		138.671875
1351		132.812500
1352		138.671875
1353		134.765625
1354		136.718750
1355		132.812500
1356		138.671875
1357		132.812500
1358		138.671875
1359		130.859375
1360		138.671875
1361		130.859375
1362		138.671875
1363		130.859375
1364		136.718750
1365		128.906250
1366		136.718750
1367		128.906250
1368		134.765625
1369		130.859375
1370		132.812500
1371		128.906250
1372		132.812500
1373		125.000000
1374		132.812500
1375		125.000000
1376		130.859375
1377		123.046875
1378		130.859375
1379		123.046875
1380		128.906250
1381		121.093750
1382		128.906250
1383		121.093750
1384		126.953125
1385		121.093750
1386		125.000000
1387		119.140625
1388		121.093750
1389		115.234375
1390		121.093750
1391		113.281250
1392		121.093750
1393		111.328125
1394		119.140625
1395		109.375000
1396		117.187500
1397		107.421875
1398		115.234375
1399		105.468750
1400		113.281250
1401		105.468750
1402		111.328125
1403		103.515625
1404		107.421875
1405		99.609375
1406		105.468750
1407		95.703125
1408		103.515625
1409		93.750000
1410		101.562500
1411		91.796875
1412		99.609375
1413		87.890625
1414		97.656250
1415		85.937500
1416		93.750000
1417		83.984375
1418		91.796875
1419		82.031250
1420		87.890625
1421		80.078125
1422		83.984375
1423		74.218750
1424		82.031250
1425		72.265625
1426		80.078125
1427		68.359375
1428		78.125000
1429		66.406250
1430		74.218750
1431		62.500000
1432		70.312500
1433		60.546875
1434		66.406250
1435		56.640625
1436		64.453125
1437		54.687500
1438		58.593750
1439		46.875000
1440		54.687500
1441		46.875000
1442		52.734375
1443		41.015625
1444		50.781250
1445		37.109375
1446		46.875000
1447		35.156250
1448		42.968750
1449		31.250000
1450		39.062500
1451		27.343750
1452		35.156250
1453		25.390625
1454		31.250000
1455		21.484375
1456		27.343750
1457		17.578125
1458		23.437500
1459		11.718750
1460		21.484375
1461		7.812500
1462		15.625000
1463		3.906250
1464		11.718750
1465		0.000000
1466		7.812500
1467		-3.906250
1468		5.859375
1469		-5.859375
1470		0.000000
1471		-9.765625
1472		-3.906250
1473		-15.625000
1474		-7.812500
1475		-19.531250
1476		-9.765625
1477		-23.437500
1478		-13.671875
1479		-27.343750
1480		-17.578125
1481		-31.250000
1482		-21.484375
1483		-35.156250
1484		-27.343750
1485		-37.109375
1486		-29.296875
1487		-41.015625
1488		-35.156250
1489		-46.875000
1490		-39.062500
1491		-50.781250
1492		-42.968750
1493		-54.687500
1494		-44.921875
1495		-56.640625
1496		-48.828125
1497		-62.500000
1498		-52.734375
1499		-66.406250
1500		-56.640625
1501		-68.359375
1502		-60.546875
1503		-70.312500
1504		-66.406250
1505		-74.218750
1506		-70.312500
1507		-80.078125
1508		-72.265625
1509		-83.984375
1510		-74.218750
1511		-85.937500
1512		-78.125000
1513		-89.843750
1514		-82.031250
1515		-93.750000
1516		-83.984375
1517		-97.656250
1518		-87.890625
1519		-97.656250
1520		-91.796875
1521		-101.562500
1522		-95.703125
1523		-105.468750
1524		-99.609375
1525		-109.375000
1526		-101.562500
1527		-113.281250
1528		-103.515625
1529		-115.234375
1530		-107.421875
1531		-117.187500
1532		-109.375000
1533		-119.140625
1534		-111.328125
1535		-123.046875
1536		-115.234375
1537		-123.046875
1538		-119.140625
1539		-125.000000
1540		-121.093750
1541		-130.859375
1542		-123.046875
1543		-132.812500
1544		-125.000000
1545		-134.765625
1546		-126.953125
1547		-136.718750
1548		-128.906250
1549		-138.671875
1550		-130.859375
1551		-140.625000
1552		-132.812500
1553		-140.625000
1554		-134.765625
1555		-142.578125
1556		-138.671875
1557		-144.531250
1558		-138.671875
1559		-148.437500
1560		-138.671875
1561		-148.437500
1562		-140.625000
1563		-150.390625
1564		-142.578125
1565		-150.390625
1566		-144.531250
1567		-152.343750
1568		-144.531250
1569		-152.343750
1570		-146.484375
1571		-150.390625
1572		-148.437500
1573		-154.296875
1574		-148.437500
1575		-154.296875
1576		-148.437500
1577		-154.296875
1578		-148.437500
1579		-154.296875
1580		-148.437500
1581		-154.296875
1582		-148.437500
1583		-156.250000
1584		-148.437500
1585		-156.250000
1586		-148.437500
1587		-152.343750
1588		-150.390625
1589		-152.343750
1590		-150.390625
1591		-154.296875
1592		-148.437500
1593		-154.296875
1594		-148.437500
1595		-154.296875
1596		-146.484375
1597		-152.343750
1598		-146.484375
1599		-152.343750
1600		-144.531250
1601		-150.390625
1602		-144.531250
1603		-148.437500
1604		-142.578125
1605		-146.484375
1606		-142.578125
1607		-146.484375
1608		-140.625000
1609		-146.484375
1610		-138.671875
1611		-144.531250
1612		-136.718750
1613		-142.578125
1614		-134.765625
1615		-140.625000
1616		-132.812500
1617		-140.625000
1618		-130.859375
1619		-136.718750
1620		-128.906250
1621		-132.812500
1622		-128.906250
1623		-130.859375
1624		-126.953125
1625		-130.859375
1626		-123.046875
1627		-126.953125
1628		-121.093750
1629		-126.953125
1630		-117.187500
1631		-121.093750
1632		-115.234375
1633		-121.093750
1634		-111.328125
1635		-117.187500
1636		-109.375000
1637		-115.234375
1638		-107.421875
1639		-109.375000
1640		-105.468750
1641		-107.421875
1642		-99.609375
1643		-105.468750
1644		-97.656250
1645		-103.515625
1646		-93.750000
1647		-99.609375
1648		-89.843750
1649		-95.703125
1650		-87.890625
1651		-91.796875
1652		-83.984375
1653		-87.890625
1654		-82.031250
1655		-83.984375
1656		-78.125000
1657		-80.078125
1658		-74.218750
1659		-78.125000
1660		-68.359375
1661		-74.218750
1662		-66.406250
1663		-70.312500
1664		-62.500000
1665		-66.406250
1666		-58.593750
1667		-62.500000
1668		-54.687500
1669		-58.593750
1670		-50.781250
1671		-52.734375
1672		-48.828125
1673		-48.828125
1674		-42.968750
1675		-44.921875
1676		-39.062500
1677		-42.968750
1678		-35.156250
1679		-39.062500
1680		-31.250000
1681		-37.109375
1682		-27.343750
1683		-33.203125
1684		-23.437500
1685		-27.343750
1686		-19.531250
1687		-23.437500
1688		-17.578125
1689		-17.578125
1690		-13.671875
1691		-13.671875
1692		-7.812500
1693		-11.718750
1694		-3.906250
1695		-7.812500
1696		0.000000
1697		-3.906250
1698		3.906250
1699		0.000000
1700		7.812500
1701		3.906250
1702		13.671875
1703		7.812500
1704		15.625000
1705		13.671875
1706		17.578125
1707		17.578125
1708		21.484375
1709		19.531250
1710		27.343750
1711		23.437500
1712		31.250000
1713		27.343750
1714		35.156250
1715		29.296875
1716		39.062500
1717		33.203125
1718		42.968750
1719		37.109375
1720		46.875000
1721		41.015625
1722		48.828125
1723		46.875000
1724		50.781250
1725		50.781250
1726		56.640625
1727		50.781250
1728		58.593750
1729		54.687500
1730		62.500000
1731		58.593750
1732		66.406250
1733		60.546875
1734		70.312500
1735		64.453125
1736		74.218750
1737		66.406250
1738		74.218750
1739		72.265625
1740		76.171875
1741		76.171875
1742		80.078125
1743		76.171875
1744		85.937500
1745		80.078125
1746		87.890625
1747		82.031250
1748		89.843750
1749		83.984375
1750		91.796875
1751		87.890625
1752		95.703125
1753		89.843750
1754		97.656250
1755		93.750000
1756		99.609375
1757		97.656250
1758		101.562500
1759		99.609375
1760		103.515625
1761		99.609375
1762		105.468750
1763		101.562500
1764		109.375000
1765		103.515625
1766		111.328125
1767		105.468750
1768		113.281250
1769		107.421875
1770		115.234375
1771		109.375000
1772		115.234375
1773		113.281250
1774		117.187500
1775		115.234375
1776		119.140625
1777		115.234375
1778		123.046875
1779		117.187500
1780		123.046875
1781		119.140625
1782		125.000000
1783		119.140625
1784		126.953125
1785		121.093750
1786		128.906250
1787		123.046875
1788		128.906250
1789		125.000000
1790		128.906250
1791		126.953125
1792		128.906250
1793		126.953125
1794		132.812500
1795		128.906250
1796		132.812500
1797		128.906250
1798		134.765625
1799		128.906250
1800		134.765625
1801		130.859375
1802		134.765625
1803		130.859375
1804		134.765625
1805		130.859375
1806		136.718750
1807		132.812500
1808		136.718750
1809		132.812500
1810		138.671875
1811		130.859375
1812		138.671875
1813		132.812500
1814		138.671875
1815		132.812500
1816		138.671875
1817		132.812500
1818		138.671875
1819		132.812500
1820		138.671875
1821		132.812500
1822		138.671875
1823		134.765625
1824		136.718750
1825		134.765625
1826		136.718750
1827		130.859375
1828		138.671875
1829		130.859375
1830		136.718750
1831		130.859375
1832		136.718750
1833		130.859375
1834		136.718750
1835		130.859375
1836		136.718750
1837		128.906250
1838		136.718750
1839		130.859375
1840		132.812500
1841		128.906250
1842		132.812500
1843		126.953125
1844		132.812500
1845		125.000000
1846		132.812500
1847		125.000000
1848		130.859375
1849		123.046875
1850		128.906250
1851		121.093750
1852		128.906250
1853		119.140625
1854		126.953125
1855		119.140625
1856		125.000000
1857		119.140625
1858		123.046875
1859		117.187500
1860		121.093750
1861		113.281250
1862		121.093750
1863		111.328125
1864		119.140625
1865		109.375000
1866		117.187500
1867		107.421875
1868		115.234375
1869		105.468750
1870		113.281250
1871		105.468750
1872		111.328125
1873		103.515625
1874		107.421875
1875		101.562500
1876		105.468750
1877		97.656250
1878		103.515625
1879		93.750000
1880		103.515625
1881		93.750000
1882		99.609375
1883		89.843750
1884		97.656250
1885		87.890625
1886		95.703125
1887		83.984375
1888		93.750000
1889		83.984375
1890		89.843750
1891		80.078125
1892		83.984375
1893		78.125000
1894		82.031250
1895		74.218750
1896		80.078125
1897		70.312500
1898		78.125000
1899		66.406250
1900		74.218750
1901		64.453125
1902		72.265625
1903		60.546875
1904		68.359375
1905		58.593750
1906		64.453125
1907		54.687500
1908		60.546875
1909		52.734375
1910		56.640625
1911		46.875000
1912		54.687500
1913		42.968750
1914		50.781250
1915		39.062500
1916		48.828125
1917		35.156250
1918		44.921875
1919		33.203125
1920		41.015625
1921		29.296875
1922		37.109375
1923		27.343750
1924		33.203125
1925		23.437500
1926		27.343750
1927		17.578125
1928		25.390625
1929		13.671875
1930		21.484375
1931		9.765625
1932		19.531250
1933		5.859375
1934		15.625000
1935		1.953125
1936		11.718750
1937		-1.953125
1938		7.812500
1939		-3.906250
1940		3.906250
1941		-7.812500
1942		-1.953125
1943		-11.718750
1944		-5.859375
1945		-17.578125
1946		-7.812500
1947		-19.531250
1948		-11.718750
1949		-25.390625
1950		-15.625000
1951		-29.296875
1952		-19.531250
1953		-33.203125
1954		-23.437500
1955		-35.156250
1956		-29.296875
1957		-39.062500
1958		-33.203125
1959		-42.968750
1960		-37.109375
1961		-48.828125
1962		-41.015625
1963		-50.781250
1964		-42.968750
1965		-56.640625
1966		-46.875000
1967		-60.546875
1968		-50.781250
1969		-62.500000
1970		-54.687500
1971		-66.406250
1972		-58.593750
1973		-68.359375
1974		-60.546875
1975		-72.265625
1976		-66.406250
1977		-78.125000
1978		-70.312500
1979		-80.078125
1980		-72.265625
1981		-83.984375
1982		-76.171875
1983		-87.890625
1984		-80.078125
1985		-91.796875
1986		-83.984375
1987		-95.703125
1988		-85.937500
1989		-97.656250
1990		-89.843750
1991		-99.609375
1992		-93.750000
1993		-101.562500
1994		-97.656250
1995		-107.421875
1996		-99.609375
1997		-109.375000
1998		-101.562500
1999		-113.281250
2000		-105.468750
2001		-115.234375
2002		-107.421875
2003		-119.140625
2004		-109.375000
2005		-121.093750
2006		-113.281250
2007		-121.093750
2008		-117.187500
2009		-125.000000
2010		-119.140625
2011		-128.906250
2012		-121.093750
2013		-130.859375
2014		-123.046875
2015		-132.812500
2016		-125.000000
2017		-134.765625
2018		-126.953125
2019		-136.718750
2020		-130.859375
2021		-138.671875
2022		-132.812500
2023		-138.671875
2024		-132.812500
2025		-140.625000
2026		-136.718750
2027		-142.578125
2028		-138.671875
2029		-144.531250
2030		-138.671875
2031		-146.484375
2032		-140.625000
2033		-148.437500
2034		-140.625000
2035		-150.390625
2036		-142.578125
2037		-150.390625
2038		-142.578125
2039		-152.343750
2040		-144.531250
2041		-150.390625
2042		-146.484375
2043		-150.390625
2044		-148.437500
2045		-152.343750
2046		-146.484375
2047		-154.296875
2048		-146.484375
2049		-154.296875
2050		-148.437500
2051		-154.296875
2052		-148.437500
2053		-154.296875
2054		-148.437500
2055		-154.296875
2056		-148.437500
2057		-154.296875
2058		-148.437500
2059		-152.343750
2060		-150.390625
2061		-154.296875
2062		-146.484375
2063		-154.296875
2064		-146.484375
2065		-152.343750
2066		-146.484375
2067		-152.343750
2068		-146.484375
2069		-152.343750
2070		-144.531250
2071		-150.390625
2072		-144.531250
2073		-150.390625
2074		-142.578125
2075		-146.484375
2076		-142.578125
2077		-144.531250
2078		-142.578125
2079		-146.484375
2080		-138.671875
2081		-144.531250
2082		-136.718750
2083		-142.578125
2084		-136.718750
2085		-140.625000
2086		-134.765625
2087		-138.671875
2088		-130.859375
2089		-136.718750
2090		-128.906250
2091		-134.765625
2092		-128.906250
2093		-130.859375
2094		-126.953125
2095		-128.906250
2096		-123.046875
2097		-128.906250
2098		-121.093750
2099		-125.000000
2100		-117.187500
2101		-123.046875
2102		-115.234375
2103		-121.093750
2104		-113.281250
2105		-117.187500
2106		-111.328125
2107		-115.234375
2108		-109.375000
2109		-109.375000
2110		-105.468750
2111		-107.421875
2112		-101.562500
2113		-105.468750
2114		-97.656250
2115		-103.515625
2116		-95.703125
2117		-99.609375
2118		-91.796875
2119		-95.703125
2120		-87.890625
2121		-93.750000
2122		-83.984375
2123		-89.843750
2124		-82.031250
2125		-83.984375
2126		-78.125000
2127		-80.078125
2128		-76.171875
2129		-78.125000
2130		-70.312500
2131		-76.171875
2132		-68.359375
2133		-72.265625
2134		-62.500000
2135		-68.359375
2136		-58.593750
2137		-64.453125
2138		-56.640625
2139		-60.546875
2140		-52.734375
2141		-56.640625
2142		-48.828125
2143		-50.781250
2144		-44.921875
2145		-46.875000
2146		-41.015625
2147		-44.921875
2148		-35.156250
2149		-41.015625
2150		-33.203125
2151		-37.109375
2152		-29.296875
2153		-33.203125
2154		-25.390625
2155		-29.296875
2156		-21.484375
2157		-25.390625
2158		-17.578125
2159		-19.531250
2160		-13.671875
2161		-15.625000
2162		-9.765625
2163		-11.718750
2164		-3.906250
2165		-9.765625
2166		-1.953125
2167		-5.859375
2168		3.906250
2169		-1.953125
2170		7.812500
2171		1.953125
2172		11.718750
2173		5.859375
2174		15.625000
2175		9.765625
2176		17.578125
2177		15.625000
2178		21.484375
2179		19.531250
2180		27.343750
2181		21.484375
2182		29.296875
2183		25.390625
2184		33.203125
2185		29.296875
2186		37.109375
2187		33.203125
2188		41.015625
2189		35.156250
2190		44.921875
2191		39.062500
2192		46.875000
2193		44.921875
2194		50.781250
2195		48.828125
2196		54.687500
2197		50.781250
2198		58.593750
2199		52.734375
2200		60.546875
2201		56.640625
2202		64.453125
2203		60.546875
2204		68.359375
2205		62.500000
2206		70.312500
2207		66.406250
2208		74.218750
2209		70.312500
2210		76.171875
2211		74.218750
2212		80.078125
2213		76.171875
2214		83.984375
2215		78.125000
2216		85.937500
2217		82.031250
2218		89.843750
2219		83.984375
2220		91.796875
2221		87.890625
2222		93.750000
2223		89.843750
2224		97.656250
2225		91.796875
2226		97.656250
2227		95.703125
2228		101.562500
2229		99.609375
2230		103.515625
2231		99.609375
2232		107.421875
2233		101.562500
2234		109.375000
2235		103.515625
2236		111.328125
2237		107.421875
2238		113.281250
2239		107.421875
2240		115.234375
2241		109.375000
2242		117.187500
2243		113.281250
2244		117.187500
2245		115.234375
2246		119.140625
2247		115.234375
2248		123.046875
2249		117.187500
2250		125.000000
2251		117.187500
2252		125.000000
2253		121.093750
2254		126.953125
2255		121.093750
2256		128.906250
2257		123.046875
2258		130.859375
2259		123.046875
2260		128.906250
2261		126.953125
2262		130.859375
2263		126.953125
2264		132.812500
2265		126.953125
2266		134.765625
2267		128.906250
2268		134.765625
2269		128.906250
2270		134.765625
2271		130.859375
2272		136.718750
2273		130.859375
2274		138.671875
2275		132.812500
2276		138.671875
2277		134.765625
2278		136.718750
2279		134.765625
2280		138.671875
2281		132.812500
2282		140.625000
2283		132.812500
2284		140.625000
2285		132.812500
2286		140.625000
2287		134.765625
2288		140.625000
2289		132.812500
2290		140.625000
2291		132.812500
2292		140.625000
2293		134.765625
2294		138.671875
2295		134.765625
2296		138.671875
2297		132.812500
2298		138.671875
2299		132.812500
2300		140.625000
2301		132.812500
2302		138.671875
2303		132.812500
2304		138.671875
2305		130.859375
2306		138.671875
2307		130.859375
2308		138.671875
2309		130.859375
2310		136.718750
2311		130.859375
2312		134.765625
2313		128.906250
2314		132.812500
2315		126.953125
2316		134.765625
2317		126.953125
2318		132.812500
2319		125.000000
2320		132.812500
2321		125.000000
2322		130.859375
2323		123.046875
2324		128.906250
2325		121.093750
2326		126.953125
2327		121.093750
2328		125.000000
2329		119.140625
2330		123.046875
2331		117.187500
2332		123.046875
2333		115.234375
2334		123.046875
2335		113.281250
2336		121.093750
2337		111.328125
2338		119.140625
2339		109.375000
2340		117.187500
2341		107.421875
2342		115.234375
2343		105.468750
2344		113.281250
2345		103.515625
2346		109.375000
2347		101.562500
2348		107.421875
2349		99.609375
2350		105.468750
2351		95.703125
2352		103.515625
2353		93.750000
2354		101.562500
2355		91.796875
2356		99.609375
2357		87.890625
2358		95.703125
2359		85.937500
2360		93.750000
2361		83.984375
2362		89.843750
2363		82.031250
2364		85.937500
2365		78.125000
2366		83.984375
2367		74.218750
2368		82.031250
2369		70.312500
2370		78.125000
2371		66.406250
2372		76.171875
2373		64.453125
2374		72.265625
2375		60.546875
2376		70.312500
2377		58.593750
2378		64.453125
2379		56.640625
2380		60.546875
2381		50.781250
2382		58.593750
2383		48.828125
2384		56.640625
2385		42.968750
2386		52.734375
2387		39.062500
2388		48.828125
2389		37.109375
2390		44.921875
2391		33.203125
2392		41.015625
2393		31.250000
2394		39.062500
2395		27.343750
2396		33.203125
2397		23.437500
2398		29.296875
2399		17.578125
2400		27.343750
2401		13.671875
2402		23.437500
2403		11.718750
2404		19.531250
2405		7.812500
2406		15.625000
2407		1.953125
2408		11.718750
2409		0.000000
2410		7.812500
2411		-1.953125
2412		1.953125
2413		-5.859375
2414		-1.953125
2415		-13.671875
2416		-3.906250
2417		-17.578125
2418		-7.812500
2419		-21.484375
2420		-9.765625
2421		-23.437500
2422		-15.625000
2423		-27.343750
2424		-19.531250
2425		-31.250000
2426		-23.437500
2427		-33.203125
2428		-25.390625
2429		-37.109375
2430		-33.203125
2431		-41.015625
2432		-37.109375
2433		-46.875000
2434		-39.062500
2435		-50.781250
2436		-41.015625
2437		-54.687500
2438		-46.875000
2439		-58.593750
2440		-50.781250
2441		-62.500000
2442		-52.734375
2443		-64.453125
2444		-56.640625
2445		-68.359375
2446		-62.500000
2447		-72.265625
2448		-66.406250
2449		-76.171875
2450		-68.359375
2451		-80.078125
2452		-72.265625
2453		-83.984375
2454		-76.171875
2455		-87.890625
2456		-80.078125
2457		-89.843750
2458		-82.031250
2459		-93.750000
2460		-85.937500
2461		-95.703125
2462		-89.843750
2463		-97.656250
2464		-93.750000
2465		-103.515625
2466		-97.656250
2467		-105.468750
2468		-97.656250
2469		-107.421875
2470		-101.562500
2471		-111.328125
2472		-103.515625
2473		-115.234375
2474		-107.421875
2475		-117.187500
2476		-109.375000
2477		-119.140625
2478		-113.281250
2479		-121.093750
2480		-117.187500
2481		-125.000000
2482		-119.140625
2483		-126.953125
2484		-121.093750
2485		-128.906250
2486		-123.046875
2487		-130.859375
2488		-125.000000
2489		-134.765625
2490		-126.953125
2491		-136.718750
2492		-128.906250
2493		-138.671875
2494		-130.859375
2495		-138.671875
2496		-134.765625
2497		-140.625000
2498		-136.718750
2499		-142.578125
2500		-136.718750
2501		-144.531250
2502		-138.671875
2503		-146.484375
2504		-138.671875
2505		-148.437500
2506		-140.625000
2507		-148.437500
2508		-142.578125
2509		-150.390625
2510		-142.578125
2511		-150.390625
2512		-144.531250
2513		-150.390625
2514		-146.484375
2515		-152.343750
2516		-146.484375
2517		-152.343750
2518		-146.484375
2519		-154.296875
2520		-146.484375
2521		-154.296875
2522		-146.484375
2523		-154.296875
2524		-146.484375
2525		-154.296875
2526		-148.437500
2527		-154.296875
2528		-146.484375
2529		-152.343750
2530		-148.437500
2531		-152.343750
2532		-148.437500
2533		-152.343750
2534		-146.484375
2535		-152.343750
2536		-146.484375
2537		-152.343750
2538		-146.484375
2539		-152.343750
2540		-144.531250
2541		-150.390625
2542		-144.531250
2543		-150.390625
2544		-142.578125
2545		-146.484375
2546		-142.578125
2547		-144.531250
2548		-142.578125
2549		-144.531250
2550		-138.671875
2551		-144.531250
2552		-138.671875
2553		-144.531250
2554		-136.718750
2555		-142.578125
2556		-134.765625
2557		-140.625000
2558		-132.812500
2559		-136.718750
2560		-130.859375
2561		-136.718750
2562		-128.906250
2563		-132.812500
2564		-128.906250
2565		-130.859375
2566		-125.000000
2567		-128.906250
2568		-123.046875
2569		-126.953125
2570		-119.140625
2571		-125.000000
2572		-117.187500
2573		-123.046875
2574		-113.281250
2575		-119.140625
2576		-111.328125
2577		-117.187500
2578		-109.375000
2579		-113.281250
2580		-107.421875
2581		-109.375000
2582		-105.468750
2583		-107.421875
2584		-99.609375
2585		-105.468750
2586		-97.656250
2587		-101.562500
2588		-93.750000
2589		-99.609375
2590		-89.843750
2591		-95.703125
2592		-85.937500
2593		-93.750000
2594		-83.984375
2595		-87.890625
2596		-82.031250
2597		-83.984375
2598		-78.125000
2599		-80.078125
2600		-72.265625
2601		-78.125000
2602		-70.312500
2603		-74.218750
2604		-66.406250
2605		-70.312500
2606		-62.500000
2607		-66.406250
2608		-58.593750
2609		-64.453125
2610		-54.687500
2611		-60.546875
2612		-52.734375
2613		-54.687500
2614		-48.828125
2615		-50.781250
2616		-44.921875
2617		-46.875000
2618		-39.062500
2619		-44.921875
2620		-35.156250
2621		-39.062500
2622		-31.250000
2623		-35.156250
2624		-27.343750
2625		-33.203125
2626		-23.437500
2627		-27.343750
2628		-17.578125
2629		-23.437500
2630		-17.578125
2631		-19.531250
2632		-13.671875
2633		-15.625000
2634		-7.812500
2635		-11.718750
2636		-3.906250
2637		-5.859375
2638		0.000000
2639		-3.906250
2640		3.906250
2641		0.000000
2642		7.812500
2643		3.906250
2644		11.718750
2645		7.812500
2646		13.671875
2647		11.718750
2648		17.578125
2649		17.578125
2650		23.437500
2651		19.531250
2652		27.343750
2653		21.484375
2654		31.250000
2655		25.390625
2656		35.156250
2657		29.296875
2658		39.062500
2659		35.156250
2660		42.968750
2661		37.109375
2662		44.921875
2663		42.968750
2664		46.875000
2665		46.875000
2666		50.781250
2667		48.828125
2668		54.687500
2669		50.781250
2670		58.593750
2671		52.734375
2672		62.500000
2673		56.640625
2674		66.406250
2675		62.500000
2676		70.312500
2677		64.453125
2678		72.265625
2679		68.359375
2680		74.218750
2681		72.265625
2682		76.171875
2683		76.171875
2684		82.031250
2685		76.171875
2686		83.984375
2687		80.078125
2688		87.890625
2689		82.031250
2690		89.843750
2691		83.984375
2692		91.796875
2693		85.937500
2694		95.703125
2695		89.843750
2696		97.656250
2697		93.750000
2698		97.656250
2699		97.656250
2700		101.562500
2701		97.656250
2702		105.468750
2703		99.609375
2704		107.421875
2705		101.562500
2706		109.375000
2707		103.515625
2708		111.328125
2709		105.468750
2710		113.281250
2711		107.421875
2712		115.234375
2713		109.375000
2714		117.187500
2715		113.281250
2716		117.187500
2717		115.234375
2718		121.093750
2719		115.234375
2720		123.046875
2721		117.187500
2722		125.000000
2723		119.140625
2724		126.953125
2725		121.093750
2726		126.953125
2727		121.093750
2728		128.906250
2729		123.046875
2730		128.906250
2731		126.953125
2732		128.906250
2733		126.953125
2734		130.859375
2735		126.953125
2736		132.812500
2737		126.953125
2738		134.765625
2739		128.906250
2740		136.718750
2741		128.906250
2742		136.718750
2743		130.859375
2744		136.718750
2745		130.859375
2746		138.671875
2747		132.812500
2748		136.718750
2749		134.765625
2750		136.718750
2751		132.812500
2752		140.625000
2753		132.812500
2754		138.671875
2755		132.812500
2756		140.625000
2757		132.812500
2758		140.625000
2759		134.765625
2760		140.625000
2761		134.765625
2762		140.625000
2763		132.812500
2764		140.625000
2765		136.718750
2766		138.671875
2767		134.765625
2768		138.671875
2769		132.812500
2770		140.625000
2771		132.812500
2772		138.671875
2773		132.812500
2774		138.671875
2775		130.859375
2776		138.671875
2777		130.859375
2778		138.671875
2779		130.859375
2780		136.718750
2781		130.859375
2782		134.765625
2783		130.859375
2784		134.765625
2785		128.906250
2786		134.765625
2787		126.953125
2788		134.765625
2789		126.953125
2790		132.812500
2791		125.000000
2792		130.859375
2793		123.046875
2794		130.859375
2795		123.046875
2796		128.906250
2797		123.046875
2798		126.953125
2799		121.093750
2800		125.000000
2801		117.187500
2802		123.046875
2803		115.234375
2804		123.046875
2805		115.234375
2806		121.093750
2807		113.281250
2808		119.140625
2809		109.375000
2810		117.187500
2811		107.421875
2812		115.234375
2813		107.421875
2814		113.281250
2815		105.468750
2816		109.375000
2817		103.515625
2818		107.421875
2819		99.609375
2820		107.421875
2821		97.656250
2822		105.468750
2823		95.703125
2824		103.515625
2825		91.796875
2826		99.609375
2827		89.843750
2828		97.656250
2829		87.890625
2830		95.703125
2831		85.937500
2832		89.843750
2833		83.984375
2834		87.890625
2835		80.078125
2836		85.937500
2837		76.171875
2838		83.984375
2839		72.265625
2840		80.078125
2841		70.312500
2842		78.125000
2843		66.406250
2844		74.218750
2845		64.453125
2846		72.265625
2847		62.500000
2848		68.359375
2849		58.593750
2850		62.500000
2851		54.687500
2852		60.546875
2853		50.781250
2854		58.593750
2855		44.921875
2856		54.687500
2857		42.968750
2858		50.781250
2859		39.062500
2860		46.875000
2861		35.156250
2862		42.968750
2863		33.203125
2864		41.015625
2865		29.296875
2866		35.156250
2867		27.343750
2868		31.250000
2869		19.531250
2870		29.296875
2871		17.578125
2872		25.390625
2873		13.671875
2874		21.484375
2875		9.765625
2876		17.578125
2877		5.859375
2878		13.671875
2879		1.953125
2880		9.765625
2881		0.000000
2882		7.812500
2883		-3.906250
2884		1.953125
2885		-9.765625
2886		-1.953125
2887		-13.671875
2888		-5.859375
2889		-17.578125
2890		-7.812500
2891		-21.484375
2892		-13.671875
2893		-25.390625
2894		-17.578125
2895		-29.296875
2896		-21.484375
2897		-31.250000
2898		-23.437500
2899		-35.156250
2900		-29.296875
2901		-41.015625
2902		-33.203125
2903		-44.921875
2904		-37.109375
2905		-48.828125
2906		-39.062500
2907		-50.781250
2908		-44.921875
2909		-56.640625
2910		-48.828125
2911		-58.593750
2912		-50.781250
2913		-62.500000
2914		-54.687500
2915		-64.453125
2916		-60.546875
2917		-68.359375
2918		-62.500000
2919		-74.218750
2920		-66.406250
2921		-78.125000
2922		-68.359375
2923		-80.078125
2924		-72.265625
2925		-83.984375
2926		-76.171875
2927		-85.937500
2928		-78.125000
2929		-91.796875
2930		-82.031250
2931		-91.796875
2932		-85.937500
2933		-95.703125
2934		-91.796875
2935		-99.609375
2936		-93.750000
2937		-103.515625
2938		-95.703125
2939		-107.421875
2940		-97.656250
2941		-109.375000
2942		-103.515625
2943		-113.281250
2944		-103.515625
2945		-115.234375
2946		-107.421875
2947		-117.187500
2948		-111.328125
2949		-119.140625
2950		-115.234375
2951		-121.093750
2952		-117.187500
2953		-125.000000
2954		-119.140625
2955		-128.906250
2956		-119.140625
2957		-128.906250
2958		-123.046875
2959		-132.812500
2960		-123.046875
2961		-134.765625
2962		-126.953125
2963		-136.718750
2964		-128.906250
2965		-136.718750
2966		-130.859375
2967		-136.718750
2968		-134.765625
2969		-142.578125
2970		-134.765625
2971		-142.578125
2972		-136.718750
2973		-144.531250
2974		-136.718750
2975		-146.484375
2976		-138.671875
2977		-146.484375
2978		-140.625000
2979		-148.437500
2980		-140.625000
2981		-148.437500
2982		-140.625000
2983		-148.437500
2984		-144.531250
2985		-148.437500
2986		-146.484375
2987		-152.343750
2988		-144.531250
2989		-152.343750
2990		-144.531250
2991		-152.343750
2992		-146.484375
2993		-152.343750
2994		-144.531250
2995		-152.343750
2996		-146.484375
2997		-152.343750
2998		-146.484375
2999		-150.390625
3000		-148.437500
3001		-150.390625
3002		-148.437500
3003		-152.343750
3004		-144.531250
3005		-152.343750
3006		-144.531250
3007		-150.390625
3008		-144.531250
3009		-150.390625
3010		-144.531250
3011		-150.390625
3012		-142.578125
3013		-150.390625
3014		-142.578125
3015		-146.484375
3016		-142.578125
3017		-144.531250
3018		-142.578125
3019		-144.531250
3020		-138.671875
3021		-144.531250
3022		-136.718750
3023		-142.578125
3024		-134.765625
3025		-142.578125
3026		-132.812500
3027		-140.625000
3028		-132.812500
3029		-138.671875
3030		-128.906250
3031		-136.718750
3032		-128.906250
3033		-132.812500
3034		-128.906250
3035		-130.859375
3036		-126.953125
3037		-128.906250
3038		-123.046875
3039		-126.953125
3040		-119.140625
3041		-126.953125
3042		-117.187500
3043		-121.093750
3044		-115.234375
3045		-119.140625
3046		-111.328125
3047		-117.187500
3048		-109.375000
3049		-115.234375
3050		-107.421875
3051		-109.375000
3052		-105.468750
3053		-107.421875
3054		-101.562500
3055		-105.468750
3056		-97.656250
3057		-103.515625
3058		-93.750000
3059		-99.609375
3060		-91.796875
3061		-95.703125
3062		-87.890625
3063		-91.796875
3064		-83.984375
3065		-89.843750
3066		-82.031250
3067		-83.984375
3068		-78.125000
3069		-80.078125
3070		-76.171875
3071		-78.125000
3072		-70.312500
3073		-76.171875
3074		-66.406250
3075		-72.265625
3076		-62.500000
3077		-68.359375
3078		-60.546875
3079		-64.453125
3080		-56.640625
3081		-60.546875
3082		-52.734375
3083		-54.687500
3084		-48.828125
3085		-50.781250
3086		-44.921875
3087		-46.875000
3088		-41.015625
3089		-44.921875
3090		-35.156250
3091		-41.015625
3092		-33.203125
3093		-37.109375
3094		-29.296875
3095		-33.203125
3096		-23.437500
3097		-29.296875
3098		-19.531250
3099		-25.390625
3100		-17.578125
3101		-19.531250
3102		-13.671875
3103		-15.625000
3104		-9.765625
3105		-13.671875
3106		-3.906250
3107		-9.765625
3108		0.000000
3109		-5.859375
3110		1.953125
3111		-1.953125
3112		7.812500
3113		1.953125
3114		11.718750
3115		3.906250
3116		13.671875
3117		11.718750
3118		17.578125
3119		15.625000
3120		21.484375
3121		19.531250
3122		27.343750
3123		21.484375
3124		29.296875
3125		25.390625
3126		33.203125
3127		29.296875
3128		37.109375
3129		33.203125
3130		41.015625
3131		35.156250
3132		42.968750
3133		39.062500
3134		46.875000
3135		44.921875
3136		50.781250
3137		48.828125
3138		54.687500
3139		50.781250
3140		58.593750
3141		52.734375
3142		60.546875
3143		56.640625
3144		64.453125
3145		60.546875
3146		68.359375
3147		62.500000
3148		70.312500
3149		66.406250
3150		74.218750
3151		70.312500
3152		76.171875
3153		74.218750
3154		78.125000
3155		76.171875
3156		82.031250
3157		78.125000
3158		85.937500
3159		80.078125
3160		89.843750
3161		83.984375
3162		91.796875
3163		85.937500
3164		93.750000
3165		89.843750
3166		97.656250
3167		91.796875
3168		97.656250
3169		95.703125
3170		99.609375
3171		97.656250
3172		103.515625
3173		99.609375
3174		105.468750
3175		101.562500
3176		109.375000
3177		101.562500
3178		111.328125
3179		105.468750
3180		113.281250
3181		107.421875
3182		115.234375
3183		109.375000
3184		115.234375
3185		113.281250
3186		117.187500
3187		115.234375
3188		121.093750
3189		115.234375
3190		123.046875
3191		117.187500
3192		123.046875
3193		119.140625
3194		125.000000
3195		119.140625
3196		126.953125
3197		121.093750
3198		128.906250
3199		123.046875
3200		128.906250
3201		126.953125
3202		128.906250
3203		126.953125
3204		130.859375
3205		126.953125
3206		132.812500
3207		126.953125
3208		134.765625
3209		128.906250
3210		134.765625
3211		128.906250
3212		136.718750
3213		130.859375
3214		136.718750
3215		130.859375
3216		136.718750
3217		130.859375
3218		136.718750
3219		134.765625
3220		136.718750
3221		132.812500
3222		138.671875
3223		132.812500
3224		138.671875
3225		132.812500
3226		140.625000
3227		132.812500
3228		140.625000
3229		132.812500
3230		140.625000
3231		134.765625
3232		140.625000
3233		134.765625
3234		140.625000
3235		136.718750
3236		138.671875
3237		136.718750
3238		138.671875
3239		132.812500
3240		140.625000
3241		132.812500
3242		138.671875
3243		132.812500
3244		138.671875
3245		132.812500
3246		138.671875
3247		130.859375
3248		138.671875
3249		130.859375
3250		136.718750
3251		130.859375
3252		136.718750
3253		130.859375
3254		134.765625
3255		128.906250
3256		134.765625
3257		126.953125
3258		134.765625
3259		126.953125
3260		134.765625
3261		125.000000
3262		132.812500
3263		123.046875
3264		130.859375
3265		123.046875
3266		128.906250
3267		121.093750
3268		128.906250
3269		123.046875
3270		125.000000
3271		119.140625
3272		123.046875
3273		117.187500
3274		123.046875
3275		115.234375
3276		123.046875
3277		113.281250
3278		121.093750
3279		111.328125
3280		119.140625
3281		109.375000
3282		117.187500
3283		107.421875
3284		115.234375
3285		107.421875
3286		111.328125
3287		105.468750
3288		109.375000
3289		101.562500
3290		107.421875
3291		99.609375
3292		105.468750
3293		95.703125
3294		103.515625
3295		93.750000
3296		101.562500
3297		91.796875
3298		99.609375
3299		89.843750
3300		97.656250
3301		87.890625
3302		93.750000
3303		85.937500
3304		89.843750
3305		82.031250
3306		87.890625
3307		78.125000
3308		85.937500
3309		76.171875
3310		82.031250
3311		70.312500
3312		80.078125
3313		68.359375
3314		76.171875
3315		64.453125
3316		74.218750
3317		62.500000
3318		72.265625
3319		60.546875
3320		66.406250
3321		56.640625
3322		62.500000
3323		50.781250
3324		58.593750
3325		48.828125
3326		56.640625
3327		44.921875
3328		52.734375
3329		41.015625
3330		50.781250
3331		37.109375
3332		46.875000
3333		33.203125
3334		42.968750
3335		33.203125
3336		41.015625
3337		29.296875
3338		35.156250
3339		23.437500
3340		31.250000
3341		19.531250
3342		27.343750
3343		17.578125
3344		23.437500
3345		11.718750
3346		21.484375
3347		7.812500
3348		17.578125
3349		3.906250
3350		13.671875
3351		1.953125
3352		9.765625
3353		-1.953125
3354		3.906250
3355		-5.859375
3356		0.000000
3357		-11.718750
3358		-1.953125
3359		-15.625000
3360		-5.859375
3361		-19.531250
3362		-9.765625
3363		-23.437500
3364		-13.671875
3365		-25.390625
3366		-17.578125
3367		-31.250000
3368		-21.484375
3369		-33.203125
3370		-27.343750
3371		-37.109375
3372		-31.250000
3373		-41.015625
3374		-35.156250
3375		-46.875000
3376		-37.109375
3377		-50.781250
3378		-41.015625
3379		-54.687500
3380		-44.921875
3381		-56.640625
3382		-48.828125
3383		-60.546875
3384		-52.734375
3385		-62.500000
3386		-56.640625
3387		-66.406250
3388		-62.500000
3389		-70.312500
3390		-66.406250
3391		-74.218750
3392		-66.406250
3393		-80.078125
3394		-70.312500
3395		-82.031250
3396		-74.218750
3397		-85.937500
3398		-78.125000
3399		-89.843750
3400		-80.078125
3401		-91.796875
3402		-83.984375
3403		-93.750000
3404		-89.843750
3405		-97.656250
3406		-91.796875
3407		-101.562500
3408		-95.703125
3409		-105.468750
3410		-97.656250
3411		-107.421875
3412		-101.562500
3413		-111.328125
3414		-101.562500
3415		-113.281250
3416		-105.468750
3417		-115.234375
3418		-109.375000
3419		-117.187500
3420		-111.328125
3421		-119.140625
3422		-115.234375
3423		-123.046875
3424		-119.140625
3425		-125.000000
3426		-119.140625
3427		-128.906250
3428		-121.093750
3429		-130.859375
3430		-123.046875
3431		-134.765625
3432		-126.953125
3433		-134.765625
3434		-128.906250
3435		-136.718750
3436		-128.906250
3437		-136.718750
3438		-132.812500
3439		-140.625000
3440		-134.765625
3441		-142.578125
3442		-136.718750
3443		-144.531250
3444		-136.718750
3445		-146.484375
3446		-138.671875
3447		-146.484375
3448		-140.625000
3449		-148.437500
3450		-140.625000
3451		-148.437500
3452		-142.578125
3453		-148.437500
3454		-144.531250
3455		-148.437500
3456		-146.484375
3457		-150.390625
3458		-146.484375
3459		-152.343750
3460		-146.484375
3461		-152.343750
3462		-146.484375
3463		-152.343750
3464		-146.484375
3465		-152.343750
3466		-146.484375
3467		-154.296875
3468		-146.484375
3469		-152.343750
3470		-146.484375
3471		-152.343750
3472		-148.437500
3473		-150.390625
3474		-148.437500
3475		-152.343750
3476		-148.437500
3477		-150.390625
3478		-146.484375
3479		-150.390625
3480		-146.484375
3481		-150.390625
3482		-144.531250
3483		-150.390625
3484		-144.531250
3485		-148.437500
3486		-144.531250
3487		-146.484375
3488		-144.531250
3489		-146.484375
3490		-142.578125
3491		-146.484375
3492		-140.625000
3493		-144.531250
3494		-138.671875
3495		-142.578125
3496		-136.718750
3497		-140.625000
3498		-136.718750
3499		-140.625000
3500		-132.812500
3501		-138.671875
3502		-130.859375
3503		-136.718750
3504		-130.859375
3505		-132.812500
3506		-128.906250
3507		-130.859375
3508		-125.000000
3509		-128.906250
3510		-123.046875
3511		-126.953125
3512		-121.093750
3513		-125.000000
3514		-119.140625
3515		-121.093750
3516		-115.234375
3517		-121.093750
3518		-113.281250
3519		-117.187500
3520		-111.328125
3521		-113.281250
3522		-107.421875
3523		-109.375000
3524		-105.468750
3525		-109.375000
3526		-101.562500
3527		-105.468750
3528		-99.609375
3529		-101.562500
3530		-95.703125
3531		-97.656250
3532		-93.750000
3533		-93.750000
3534		-89.843750
3535		-91.796875
3536		-85.937500
3537		-87.890625
3538		-83.984375
3539		-83.984375
3540		-80.078125
3541		-82.031250
3542		-74.218750
3543		-78.125000
3544		-72.265625
3545		-74.218750
3546		-68.359375
3547		-70.312500
3548		-64.453125
3549		-66.406250
3550		-60.546875
3551		-62.500000
3552		-56.640625
3553		-58.593750
3554		-52.734375
3555		-54.687500
3556		-48.828125
3557		-50.781250
3558		-44.921875
3559		-46.875000
3560		-41.015625
3561		-42.968750
3562		-37.109375
3563		-39.062500
3564		-33.203125
3565		-35.156250
3566		-29.296875
3567		-31.250000
3568		-25.390625
3569		-27.343750
3570		-21.484375
3571		-23.437500
3572		-17.578125
3573		-19.531250
3574		-13.671875
3575		-17.578125
3576		-9.765625
3577		-11.718750
3578		-5.859375
3579		-7.812500
3580		-1.953125
3581		-3.906250
3582		1.953125
3583		0.000000
3584		5.859375
3585		3.906250
3586		9.765625
3587		7.812500
3588		13.671875
3589		11.718750
3590		17.578125
3591		15.625000
3592		21.484375
3593		19.531250
3594		25.390625
3595		23.437500
3596		29.296875
3597		27.343750
3598		33.203125
3599		31.250000
3600		35.156250
3601		33.203125
3602		39.062500
3603		37.109375
3604		42.968750
3605		41.015625
3606		46.875000
3607		44.921875
3608		50.781250
3609		48.828125
3610		52.734375
3611		50.781250
3612		56.640625
3613		54.687500
3614		60.546875
3615		58.593750
3616		62.500000
3617		62.500000
3618		68.359375
3619		64.453125
3620		70.312500
3621		68.359375
3622		72.265625
3623		72.265625
3624		76.171875
3625		74.218750
3626		78.125000
3627		78.125000
3628		82.031250
3629		80.078125
3630		83.984375
3631		82.031250
3632		87.890625
3633		85.937500
3634		89.843750
3635		87.890625
3636		93.750000
3637		91.796875
3638		95.703125
3639		93.750000
3640		97.656250
3641		95.703125
3642		99.609375
3643		97.656250
3644		103.515625
3645		101.562500
3646		105.468750
3647		103.515625
3648		107.421875
3649		105.468750
3650		109.375000
3651		107.421875
3652		111.328125
3653		109.375000
3654		113.281250
3655		111.328125
3656		115.234375
3657		113.281250
3658		117.187500
3659		113.281250
3660		119.140625
3661		117.187500
3662		121.093750
3663		117.187500
3664		123.046875
3665		121.093750
3666		123.046875
3667		121.093750
3668		125.000000
3669		123.046875
3670		126.953125
3671		123.046875
3672		128.906250
3673		126.953125
3674		128.906250
3675		126.953125
3676		130.859375
3677		128.906250
3678		130.859375
3679		128.906250
3680		132.812500
3681		130.859375
3682		132.812500
3683		130.859375
3684		134.765625
3685		132.812500
3686		134.765625
3687		132.812500
3688		136.718750
3689		132.812500
3690		136.718750
3691		134.765625
3692		136.718750
3693		132.812500
3694		136.718750
3695		134.765625
3696		138.671875
3697		134.765625
3698		138.671875
3699		134.765625
3700		138.671875
3701		134.765625
3702		138.671875
3703		134.765625
3704		138.671875
3705		134.765625
3706		138.671875
3707		134.765625
3708		138.671875
3709		134.765625
3710		138.671875
3711		134.765625
3712		138.671875
3713		134.765625
3714		138.671875
3715		134.765625
3716		136.718750
3717		132.812500
3718		136.718750
3719		132.812500
3720		136.718750
3721		132.812500
3722		136.718750
3723		130.859375
3724		134.765625
3725		130.859375
3726		134.765625
3727		128.906250
3728		132.812500
3729		128.906250
3730		132.812500
3731		128.906250
3732		130.859375
3733		126.953125
3734		128.906250
3735		125.000000
3736		128.906250
3737		123.046875
3738		128.906250
3739		123.046875
3740		126.953125
3741		121.093750
3742		125.000000
3743		119.140625
3744		123.046875
3745		119.140625
3746		123.046875
3747		117.187500
3748		121.093750
3749		115.234375
3750		117.187500
3751		111.328125
3752		117.187500
3753		109.375000
3754		115.234375
3755		109.375000
3756		113.281250
3757		107.421875
3758		111.328125
3759		103.515625
3760		107.421875
3761		101.562500
3762		105.468750
3763		99.609375
3764		103.515625
3765		97.656250
3766		101.562500
3767		95.703125
3768		99.609375
3769		91.796875
3770		95.703125
3771		89.843750
3772		93.750000
3773		87.890625
3774		91.796875
3775		83.984375
3776		87.890625
3777		82.031250
3778		85.937500
3779		78.125000
3780		83.984375
3781		76.171875
3782		80.078125
3783		72.265625
3784		76.171875
3785		68.359375
3786		74.218750
3787		66.406250
3788		72.265625
3789		62.500000
3790		68.359375
3791		58.593750
3792		64.453125
3793		56.640625
3794		60.546875
3795		52.734375
3796		58.593750
3797		48.828125
3798		54.687500
3799		44.921875
3800		50.781250
3801		41.015625
3802		46.875000
3803		39.062500
3804		42.968750
3805		35.156250
3806		39.062500
3807		31.250000
3808		35.156250
3809		27.343750
3810		33.203125
3811		23.437500
3812		29.296875
3813		19.531250
3814		25.390625
3815		15.625000
3816		21.484375
3817		11.718750
3818		17.578125
3819		7.812500
3820		13.671875
3821		3.906250
3822		9.765625
3823		0.000000
3824		5.859375
3825		-3.906250
3826		1.953125
3827		-7.812500
3828		-1.953125
3829		-11.718750
3830		-5.859375
3831		-15.625000
3832		-9.765625
3833		-19.531250
3834		-13.671875
3835		-23.437500
3836		-17.578125
3837		-27.343750
3838		-21.484375
3839		-31.250000
3840		-25.390625
3841		-35.156250
3842		-29.296875
3843		-39.062500
3844		-33.203125
3845		-42.968750
3846		-37.109375
3847		-46.875000
3848		-41.015625
3849		-50.781250
3850		-44.921875
3851		-54.687500
3852		-48.828125
3853		-56.640625
3854		-52.734375
3855		-60.546875
3856		-54.687500
3857		-64.453125
3858		-60.546875
3859		-68.359375
3860		-62.500000
3861		-72.265625
3862		-66.406250
3863		-76.171875
3864		-70.312500
3865		-78.125000
3866		-74.218750
3867		-82.031250
3868		-78.125000
3869		-85.937500
3870		-80.078125
3871		-89.843750
3872		-83.984375
3873		-91.796875
3874		-85.937500
3875		-95.703125
3876		-89.843750
3877		-97.656250
3878		-93.750000
3879		-101.562500
3880		-95.703125
3881		-105.468750
3882		-99.609375
3883		-107.421875
3884		-103.515625
3885		-111.328125
3886		-105.468750
3887		-113.281250
3888		-109.375000
3889		-117.187500
3890		-111.328125
3891		-119.140625
3892		-113.281250
3893		-121.093750
3894		-117.187500
3895		-125.000000
3896		-119.140625
3897		-125.000000
3898		-121.093750
3899		-128.906250
3900		-125.000000
3901		-130.859375
3902		-126.953125
3903		-132.812500
3904		-128.906250
3905		-136.718750
3906		-130.859375
3907		-136.718750
3908		-132.812500
3909		-138.671875
3910		-134.765625
3911		-140.625000
3912		-136.718750
3913		-140.625000
3914		-138.671875
3915		-144.531250
3916		-138.671875
3917		-144.531250
3918		-140.625000
3919		-146.484375
3920		-142.578125
3921		-146.484375
3922		-144.531250
3923		-148.437500
3924		-144.531250
3925		-148.437500
3926		-146.484375
3927		-150.390625
3928		-146.484375
3929		-150.390625
3930		-146.484375
3931		-152.343750
3932		-148.437500
3933		-150.390625
3934		-148.437500
3935		-152.343750
3936		-148.437500
3937		-152.343750
3938		-148.437500
3939		-152.343750
3940		-148.437500
3941		-152.343750
3942		-150.390625
3943		-152.343750
3944		-150.390625
3945		-152.343750
3946		-148.437500
3947		-152.343750
3948		-148.437500
3949		-152.343750
3950		-148.437500
3951		-150.390625
3952		-146.484375
3953		-150.390625
3954		-146.484375
3955		-148.437500
3956		-146.484375
3957		-150.390625
3958		-144.531250
3959		-146.484375
3960		-144.531250
3961		-146.484375
3962		-142.578125
3963		-146.484375
3964		-140.625000
3965		-142.578125
3966		-140.625000
3967		-142.578125
3968		-138.671875
3969		-140.625000
3970		-136.718750
3971		-138.671875
3972		-134.765625
3973		-136.718750
3974		-132.812500
3975		-134.765625
3976		-130.859375
3977		-132.812500
3978		-128.906250
3979		-130.859375
3980		-126.953125
3981		-128.906250
3982		-123.046875
3983		-126.953125
3984		-121.093750
3985		-123.046875
3986		-119.140625
3987		-121.093750
3988		-115.234375
3989		-119.140625
3990		-113.281250
3991		-115.234375
3992		-111.328125
3993		-113.281250
3994		-107.421875
3995		-111.328125
3996		-105.468750
3997		-107.421875
3998		-101.562500
3999		-103.515625
4000		-97.656250
4001		-101.562500
4002		-95.703125
4003		-97.656250
4004		-91.796875
4005		-93.750000
4006		-89.843750
4007		-91.796875
4008		-85.937500
4009		-87.890625
4010		-82.031250
4011		-83.984375
4012		-78.125000
4013		-80.078125
4014		-76.171875
4015		-76.171875
4016		-72.265625
4017		-74.218750
4018		-68.359375
4019		-70.312500
4020		-64.453125
4021		-66.406250
4022		-60.546875
4023		-62.500000
4024		-56.640625
4025		-58.593750
4026		-52.734375
4027		-54.687500
4028		-48.828125
4029		-50.781250
4030		-44.921875
4031		-46.875000
4032		-41.015625
4033		-42.968750
4034		-37.109375
4035		-39.062500
4036		-33.203125
4037		-35.156250
4038		-29.296875
4039		-31.250000
4040		-25.390625
4041		-27.343750
4042		-21.484375
4043		-23.437500
4044		-17.578125
4045		-19.531250
4046		-13.671875
4047		-15.625000
4048		-9.765625
4049		-11.718750
4050		-5.859375
4051		-7.812500
4052		-1.953125
4053		-1.953125
4054		1.953125
4055		0.000000
4056		5.859375
4057		3.906250
4058		9.765625
4059		7.812500
4060		13.671875
4061		11.718750
4062		19.531250
4063		15.625000
4064		21.484375
4065		19.531250
4066		25.390625
4067		23.437500
4068		29.296875
4069		27.343750
4070		33.203125
4071		31.250000
4072		37.109375
4073		35.156250
4074		41.015625
4075		39.062500
4076		42.968750
4077		42.968750
4078		46.875000
4079		44.921875
4080		50.781250
4081		48.828125
4082		54.687500
4083		52.734375
4084		58.593750
4085		54.687500
4086		60.546875
4087		58.593750
4088		64.453125
4089		62.500000
4090		66.406250
4091		64.453125
4092		70.312500
4093		68.359375
4094		74.218750
4095		72.265625
4096		76.171875
4097		74.218750
4098		80.078125
4099		78.125000
4100		82.031250
4101		80.078125
4102		85.937500
4103		83.984375
4104		87.890625
4105		85.937500
4106		89.843750
4107		87.890625
4108		93.750000
4109		91.796875
4110		95.703125
4111		93.750000
4112		97.656250
4113		95.703125
4114		101.562500
4115		99.609375
4116		103.515625
4117		101.562500
4118		105.468750
4119		103.515625
4120		107.421875
4121		105.468750
4122		109.375000
4123		107.421875
4124		111.328125
4125		109.375000
4126		113.281250
4127		111.328125
4128		115.234375
4129		113.281250
4130		117.187500
4131		115.234375
4132		119.140625
4133		117.187500
4134		121.093750
4135		119.140625
4136		123.046875
4137		121.093750
4138		123.046875
4139		121.093750
4140		126.953125
4141		123.046875
4142		126.953125
4143		125.000000
4144		126.953125
4145		125.000000
4146		128.906250
4147		126.953125
4148		130.859375
4149		126.953125
4150		130.859375
4151		128.906250
4152		132.812500
4153		128.906250
4154		132.812500
4155		130.859375
4156		134.765625
4157		130.859375
4158		134.765625
4159		132.812500
4160		134.765625
4161		132.812500
4162		134.765625
4163		132.812500
4164		136.718750
4165		132.812500
4166		136.718750
4167		132.812500
4168		136.718750
4169		134.765625
4170		136.718750
4171		134.765625
4172		138.671875
4173		134.765625
4174		138.671875
4175		134.765625
4176		138.671875
4177		134.765625
4178		136.718750
4179		132.812500
4180		136.718750
4181		134.765625
4182		136.718750
4183		134.765625
4184		136.718750
4185		132.812500
4186		136.718750
4187		132.812500
4188		136.718750
4189		132.812500
4190		136.718750
4191		130.859375
4192		134.765625
4193		130.859375
4194		134.765625
4195		130.859375
4196		134.765625
4197		128.906250
4198		132.812500
4199		128.906250
4200		132.812500
4201		126.953125
4202		130.859375
4203		126.953125
4204		130.859375
4205		125.000000
4206		128.906250
4207		123.046875
4208		128.906250
4209		123.046875
4210		126.953125
4211		121.093750
4212		125.000000
4213		119.140625
4214		123.046875
4215		117.187500
4216		123.046875
4217		115.234375
4218		121.093750
4219		115.234375
4220		119.140625
4221		113.281250
4222		117.187500
4223		111.328125
4224		115.234375
4225		109.375000
4226		113.281250
4227		107.421875
4228		111.328125
4229		105.468750
4230		109.375000
4231		101.562500
4232		107.421875
4233		99.609375
4234		105.468750
4235		97.656250
4236		103.515625
4237		95.703125
4238		99.609375
4239		91.796875
4240		97.656250
4241		87.890625
4242		93.750000
4243		87.890625
4244		91.796875
4245		83.984375
4246		89.843750
4247		82.031250
4248		85.937500
4249		78.125000
4250		83.984375
4251		74.218750
4252		82.031250
4253		72.265625
4254		78.125000
4255		68.359375
4256		76.171875
4257		66.406250
4258		72.265625
4259		62.500000
4260		68.359375
4261		60.546875
4262		64.453125
4263		54.687500
4264		60.546875
4265		52.734375
4266		60.546875
4267		48.828125
4268		56.640625
4269		44.921875
4270		52.734375
4271		41.015625
4272		48.828125
4273		39.062500
4274		44.921875
4275		35.156250
4276		42.968750
4277		31.250000
4278		37.109375
4279		27.343750
4280		33.203125
4281		23.437500
4282		29.296875
4283		19.531250
4284		27.343750
4285		15.625000
4286		23.437500
4287		13.671875
4288		19.531250
4289		7.812500
4290		15.625000
4291		3.906250
4292		11.718750
4293		1.953125
4294		7.812500
4295		-1.953125
4296		3.906250
4297		-7.812500
4298		0.000000
4299		-9.765625
4300		-3.906250
4301		-13.671875
4302		-7.812500
4303		-19.531250
4304		-11.718750
4305		-23.437500
4306		-15.625000
4307		-25.390625
4308		-19.531250
4309		-29.296875
4310		-23.437500
4311		-33.203125
4312		-27.343750
4313		-37.109375
4314		-31.250000
4315		-41.015625
4316		-35.156250
4317		-44.921875
4318		-39.062500
4319		-48.828125
4320		-42.968750
4321		-52.734375
4322		-46.875000
4323		-56.640625
4324		-50.781250
4325		-60.546875
4326		-54.687500
4327		-64.453125
4328		-58.593750
4329		-68.359375
4330		-62.500000
4331		-70.312500
4332		-66.406250
4333		-74.218750
4334		-70.312500
4335		-78.125000
4336		-72.265625
4337		-82.031250
4338		-76.171875
4339		-83.984375
4340		-80.078125
4341		-87.890625
4342		-83.984375
4343		-91.796875
4344		-85.937500
4345		-95.703125
4346		-89.843750
4347		-97.656250
4348		-93.750000
4349		-101.562500
4350		-95.703125
4351		-103.515625
4352		-99.609375
4353		-107.421875
4354		-103.515625
4355		-109.375000
4356		-105.468750
4357		-113.281250
4358		-109.375000
4359		-115.234375
4360		-111.328125
4361		-119.140625
4362		-113.281250
4363		-121.093750
4364		-117.187500
4365		-123.046875
4366		-119.140625
4367		-125.000000
4368		-121.093750
4369		-128.906250
4370		-125.000000
4371		-130.859375
4372		-126.953125
4373		-132.812500
4374		-128.906250
4375		-134.765625
4376		-130.859375
4377		-136.718750
4378		-132.812500
4379		-138.671875
4380		-134.765625
4381		-140.625000
4382		-136.718750
4383		-142.578125
4384		-138.671875
4385		-142.578125
4386		-140.625000
4387		-144.531250
4388		-140.625000
4389		-146.484375
4390		-142.578125
4391		-146.484375
4392		-144.531250
4393		-148.437500
4394		-146.484375
4395		-148.437500
4396		-146.484375
4397		-150.390625
4398		-148.437500
4399		-150.390625
4400		-148.437500
4401		-152.343750
4402		-148.437500
4403		-152.343750
4404		-150.390625
4405		-152.343750
4406		-148.437500
4407		-152.343750
4408		-150.390625
4409		-152.343750
4410		-150.390625
4411		-152.343750
4412		-150.390625
4413		-152.343750
4414		-150.390625
4415		-156.250000
4416		-146.484375
4417		-156.250000
4418		-148.437500
4419		-154.296875
4420		-146.484375
4421		-152.343750
4422		-148.437500
4423		-152.343750
4424		-148.437500
4425		-150.390625
4426		-148.437500
4427		-150.390625
4428		-146.484375
4429		-148.437500
4430		-146.484375
4431		-148.437500
4432		-140.625000
4433		-148.437500
4434		-140.625000
4435		-148.437500
4436		-138.671875
4437		-146.484375
4438		-138.671875
4439		-142.578125
4440		-138.671875
4441		-140.625000
4442		-136.718750
4443		-138.671875
4444		-134.765625
4445		-136.718750
4446		-132.812500
4447		-134.765625
4448		-130.859375
4449		-134.765625
4450		-126.953125
4451		-132.812500
4452		-125.000000
4453		-130.859375
4454		-121.093750
4455		-125.000000
4456		-121.093750
4457		-123.046875
4458		-119.140625
4459		-121.093750
4460		-117.187500
4461		-119.140625
4462		-113.281250
4463		-115.234375
4464		-111.328125
4465		-113.281250
4466		-105.468750
4467		-113.281250
4468		-101.562500
4469		-109.375000
4470		-99.609375
4471		-105.468750
4472		-97.656250
4473		-101.562500
4474		-95.703125
4475		-97.656250
4476		-91.796875
4477		-93.750000
4478		-87.890625
4479		-89.843750
4480		-83.984375
4481		-85.937500
4482		-82.031250
4483		-85.937500
4484		-76.171875
4485		-82.031250
4486		-72.265625
4487		-80.078125
4488		-68.359375
4489		-72.265625
4490		-66.406250
4491		-68.359375
4492		-62.500000
4493		-64.453125
4494		-60.546875
4495		-60.546875
4496		-56.640625
4497		-56.640625
4498		-52.734375
4499		-54.687500
4500		-44.921875
4501		-50.781250
4502		-41.015625
4503		-48.828125
4504		-37.109375
4505		-41.015625
4506		-37.109375
4507		-37.109375
4508		-31.250000
4509		-33.203125
4510		-27.343750
4511		-29.296875
4512		-23.437500
4513		-25.390625
4514		-19.531250
4515		-21.484375
4516		-11.718750
4517		-21.484375
4518		-7.812500
4519		-17.578125
4520		-3.906250
4521		-13.671875
4522		-3.906250
4523		-5.859375
4524		0.000000
4525		-1.953125
4526		3.906250
4527		1.953125
4528		7.812500
4529		5.859375
4530		11.718750
4531		9.765625
4532		15.625000
4533		11.718750
4534		21.484375
4535		15.625000
4536		25.390625
4537		19.531250
4538		29.296875
4539		25.390625
4540		29.296875
4541		29.296875
4542		33.203125
4543		31.250000
4544		37.109375
4545		35.156250
4546		41.015625
4547		39.062500
4548		44.921875
4549		42.968750
4550		50.781250
4551		44.921875
4552		54.687500
4553		46.875000
4554		58.593750
4555		50.781250
4556		58.593750
4557		56.640625
4558		60.546875
4559		60.546875
4560		64.453125
4561		62.500000
4562		68.359375
4563		66.406250
4564		70.312500
4565		70.312500
4566		74.218750
4567		70.312500
4568		80.078125
4569		74.218750
4570		82.031250
4571		76.171875
4572		85.937500
4573		82.031250
4574		85.937500
4575		83.984375
4576		87.890625
4577		87.890625
4578		91.796875
4579		89.843750
4580		93.750000
4581		91.796875
4582		95.703125
4583		93.750000
4584		101.562500
4585		95.703125
4586		103.515625
4587		95.703125
4588		107.421875
4589		101.562500
4590		105.468750
4591		103.515625
4592		107.421875
4593		107.421875
4594		109.375000
4595		109.375000
4596		113.281250
4597		111.328125
4598		113.281250
4599		113.281250
4600		115.234375
4601		113.281250
4602		121.093750
4603		115.234375
4604		123.046875
4605		115.234375
4606		121.093750
4607		119.140625
4608		123.046875
4609		121.093750
4610		125.000000
4611		123.046875
4612		125.000000
4613		123.046875
4614		126.953125
4615		125.000000
4616		128.906250
4617		126.953125
4618		128.906250
4619		125.000000
4620		132.812500
4621		126.953125
4622		132.812500
4623		128.906250
4624		132.812500
4625		130.859375
4626		132.812500
4627		130.859375
4628		134.765625
4629		132.812500
4630		134.765625
4631		132.812500
4632		134.765625
4633		132.812500
4634		136.718750
4635		130.859375
4636		138.671875
4637		132.812500
4638		138.671875
4639		134.765625
4640		136.718750
4641		134.765625
4642		138.671875
4643		134.765625
4644		136.718750
4645		134.765625
4646		136.718750
4647		134.765625
4648		138.671875
4649		134.765625
4650		138.671875
4651		134.765625
4652		136.718750
4653		134.765625
4654		138.671875
4655		134.765625
4656		136.718750
4657		134.765625
4658		136.718750
4659		132.812500
4660		136.718750
4661		132.812500
4662		136.718750
4663		132.812500
4664		134.765625
4665		130.859375
4666		134.765625
4667		130.859375
4668		132.812500
4669		130.859375
4670		132.812500
4671		128.906250
4672		132.812500
4673		126.953125
4674		130.859375
4675		126.953125
4676		130.859375
4677		125.000000
4678		128.906250
4679		125.000000
4680		126.953125
4681		123.046875
4682		126.953125
4683		121.093750
4684		125.000000
4685		119.140625
4686		123.046875
4687		117.187500
4688		121.093750
4689		117.187500
4690		119.140625
4691		115.234375
4692		117.187500
4693		113.281250
4694		117.187500
4695		111.328125
4696		115.234375
4697		109.375000
4698		113.281250
4699		107.421875
4700		111.328125
4701		105.468750
4702		109.375000
4703		101.562500
4704		107.421875
4705		99.609375
4706		103.515625
4707		97.656250
4708		101.562500
4709		93.750000
4710		99.609375
4711		93.750000
4712		97.656250
4713		89.843750
4714		93.750000
4715		87.890625
4716		91.796875
4717		83.984375
4718		89.843750
4719		82.031250
4720		85.937500
4721		78.125000
4722		83.984375
4723		76.171875
4724		80.078125
4725		72.265625
4726		78.125000
4727		70.312500
4728		74.218750
4729		66.406250
4730		70.312500
4731		62.500000
4732		68.359375
4733		60.546875
4734		64.453125
4735		56.640625
4736		62.500000
4737		52.734375
4738		58.593750
4739		48.828125
4740		54.687500
4741		44.921875
4742		50.781250
4743		42.968750
4744		48.828125
4745		39.062500
4746		44.921875
4747		35.156250
4748		41.015625
4749		31.250000
4750		37.109375
4751		27.343750
4752		33.203125
4753		23.437500
4754		29.296875
4755		21.484375
4756		25.390625
4757		15.625000
4758		21.484375
4759		13.671875
4760		19.531250
4761		9.765625
4762		13.671875
4763		5.859375
4764		9.765625
4765		1.953125
4766		5.859375
4767		-5.859375
4768		1.953125
4769		-7.812500
4770		0.000000
4771		-9.765625
4772		-3.906250
4773		-13.671875
4774		-9.765625
4775		-19.531250
4776		-13.671875
4777		-21.484375
4778		-15.625000
4779		-25.390625
4780		-21.484375
4781		-29.296875
4782		-25.390625
4783		-33.203125
4784		-29.296875
4785		-39.062500
4786		-31.250000
4787		-41.015625
4788		-37.109375
4789		-44.921875
4790		-39.062500
4791		-50.781250
4792		-42.968750
4793		-52.734375
4794		-46.875000
4795		-56.640625
4796		-50.781250
4797		-60.546875
4798		-54.687500
4799		-64.453125
4800		-58.593750
4801		-68.359375
4802		-62.500000
4803		-72.265625
4804		-66.406250
4805		-74.218750
4806		-70.312500
4807		-78.125000
4808		-72.265625
4809		-82.031250
4810		-76.171875
4811		-85.937500
4812		-80.078125
4813		-87.890625
4814		-83.984375
4815		-91.796875
4816		-87.890625
4817		-95.703125
4818		-89.843750
4819		-97.656250
4820		-91.796875
4821		-101.562500
4822		-95.703125
4823		-105.468750
4824		-99.609375
4825		-107.421875
4826		-103.515625
4827		-109.375000
4828		-105.468750
4829		-113.281250
4830		-109.375000
4831		-115.234375
4832		-111.328125
4833		-119.140625
4834		-115.234375
4835		-121.093750
4836		-117.187500
4837		-123.046875
4838		-119.140625
4839		-126.953125
4840		-121.093750
4841		-128.906250
4842		-125.000000
4843		-130.859375
4844		-126.953125
4845		-132.812500
4846		-128.906250
4847		-134.765625
4848		-130.859375
4849		-136.718750
4850		-132.812500
4851		-140.625000
4852		-134.765625
4853		-140.625000
4854		-136.718750
4855		-142.578125
4856		-136.718750
4857		-142.578125
4858		-140.625000
4859		-144.531250
4860		-140.625000
4861		-146.484375
4862		-142.578125
4863		-146.484375
4864		-144.531250
4865		-148.437500
4866		-146.484375
4867		-148.437500
4868		-146.484375
4869		-150.390625
4870		-146.484375
4871		-152.343750
4872		-146.484375
4873		-150.390625
4874		-148.437500
4875		-152.343750
4876		-148.437500
4877		-152.343750
4878		-148.437500
4879		-152.343750
4880		-150.390625
4881		-152.343750
4882		-150.390625
4883		-152.343750
4884		-150.390625
4885		-152.343750
4886		-150.390625
4887		-152.343750
4888		-150.390625
4889		-152.343750
4890		-150.390625
4891		-152.343750
4892		-148.437500
4893		-150.390625
4894		-148.437500
4895		-150.390625
4896		-146.484375
4897		-150.390625
4898		-146.484375
4899		-148.437500
4900		-146.484375
4901		-148.437500
4902		-144.531250
4903		-146.484375
4904		-142.578125
4905		-144.531250
4906		-142.578125
4907		-144.531250
4908		-140.625000
4909		-142.578125
4910		-138.671875
4911		-140.625000
4912		-138.671875
4913		-138.671875
4914		-136.718750
4915		-136.718750
4916		-134.765625
4917		-136.718750
4918		-130.859375
4919		-134.765625
4920		-128.906250
4921		-130.859375
4922		-126.953125
4923		-128.906250
4924		-125.000000
4925		-126.953125
4926		-123.046875
4927		-125.000000
4928		-121.093750
4929		-123.046875
4930		-117.187500
4931		-119.140625
4932		-115.234375
4933		-117.187500
4934		-113.281250
4935		-113.281250
4936		-109.375000
4937		-111.328125
4938		-107.421875
4939		-107.421875
4940		-103.515625
4941		-105.468750
4942		-99.609375
4943		-101.562500
4944		-97.656250
4945		-99.609375
4946		-93.750000
4947		-95.703125
4948		-91.796875
4949		-91.796875
4950		-87.890625
4951		-89.843750
4952		-83.984375
4953		-85.937500
4954		-80.078125
4955		-82.031250
4956		-76.171875
4957		-78.125000
4958		-74.218750
4959		-74.218750
4960		-70.312500
4961		-70.312500
4962		-64.453125
4963		-66.406250
4964		-62.500000
4965		-64.453125
4966		-58.593750
4967		-60.546875
4968		-54.687500
4969		-56.640625
4970		-50.781250
4971		-52.734375
4972		-46.875000
4973		-48.828125
4974		-42.968750
4975		-44.921875
4976		-39.062500
4977		-41.015625
4978		-35.156250
4979		-37.109375
4980		-31.250000
4981		-33.203125
4982		-27.343750
4983		-27.343750
4984		-23.437500
4985		-25.390625
4986		-19.531250
4987		-19.531250
4988		-15.625000
4989		-15.625000
4990		-11.718750
4991		-13.671875
4992		-7.812500
4993		-7.812500
4994		-3.906250
4995		-3.906250
4996		0.000000
4997		0.000000
4998		3.906250
4999		3.906250
5000		7.812500
5001		7.812500
5002		11.718750
5003		11.718750
5004		15.625000
5005		13.671875
5006		19.531250
5007		17.578125
5008		23.437500
5009		23.437500
5010		27.343750
5011		25.390625
5012		31.250000
5013		29.296875
5014		35.156250
5015		33.203125
5016		39.062500
5017		37.109375
5018		42.968750
5019		41.015625
5020		46.875000
5021		44.921875
5022		48.828125
5023		46.875000
5024		52.734375
5025		50.781250
5026		56.640625
5027		54.687500
5028		58.593750
5029		58.593750
5030		62.500000
5031		60.546875
5032		66.406250
5033		64.453125
5034		68.359375
5035		68.359375
5036		72.265625
5037		70.312500
5038		76.171875
5039		74.218750
5040		78.125000
5041		76.171875
5042		80.078125
5043		80.078125
5044		83.984375
5045		82.031250
5046		85.937500
5047		85.937500
5048		89.843750
5049		87.890625
5050		91.796875
5051		89.843750
5052		95.703125
5053		91.796875
5054		99.609375
5055		93.750000
5056		101.562500
5057		97.656250
5058		101.562500
5059		101.562500
5060		103.515625
5061		101.562500
5062		107.421875
5063		105.468750
5064		109.375000
5065		107.421875
5066		111.328125
5067		109.375000
5068		113.281250
5069		111.328125
5070		115.234375
5071		111.328125
5072		117.187500
5073		113.281250
5074		119.140625
5075		117.187500
5076		121.093750
5077		119.140625
5078		121.093750
5079		119.140625
5080		123.046875
5081		121.093750
5082		125.000000
5083		123.046875
5084		126.953125
5085		123.046875
5086		126.953125
5087		123.046875
5088		130.859375
5089		125.000000
5090		130.859375
5091		126.953125
5092		130.859375
5093		128.906250
5094		130.859375
5095		128.906250
5096		132.812500
5097		128.906250
5098		132.812500
5099		130.859375
5100		134.765625
5101		132.812500
5102		134.765625
5103		132.812500
5104		136.718750
5105		130.859375
5106		136.718750
5107		132.812500
5108		136.718750
5109		134.765625
5110		136.718750
5111		134.765625
5112		136.718750
5113		134.765625
5114		136.718750
5115		134.765625
5116		136.718750
5117		134.765625
5118		136.718750
5119		134.765625
5120		136.718750
5121		132.812500
5122		138.671875
5123		132.812500
5124		138.671875
5125		134.765625
5126		136.718750
5127		134.765625
5128		136.718750
5129		132.812500
5130		136.718750
5131		132.812500
5132		136.718750
5133		132.812500
5134		134.765625
5135		132.812500
5136		134.765625
5137		128.906250
5138		134.765625
5139		128.906250
5140		134.765625
5141		128.906250
5142		132.812500
5143		126.953125
5144		130.859375
5145		126.953125
5146		130.859375
5147		126.953125
5148		128.906250
5149		125.000000
5150		128.906250
5151		123.046875
5152		126.953125
5153		123.046875
5154		125.000000
5155		119.140625
5156		125.000000
5157		119.140625
5158		123.046875
5159		117.187500
5160		121.093750
5161		115.234375
5162		119.140625
5163		113.281250
5164		117.187500
5165		111.328125
5166		117.187500
5167		109.375000
5168		113.281250
5169		107.421875
5170		111.328125
5171		103.515625
5172		111.328125
5173		103.515625
5174		109.375000
5175		101.562500
5176		105.468750
5177		99.609375
5178		103.515625
5179		95.703125
5180		101.562500
5181		93.750000
5182		97.656250
5183		91.796875
5184		95.703125
5185		89.843750
5186		93.750000
5187		85.937500
5188		89.843750
5189		82.031250
5190		89.843750
5191		80.078125
5192		85.937500
5193		78.125000
5194		82.031250
5195		74.218750
5196		78.125000
5197		72.265625
5198		76.171875
5199		68.359375
5200		72.265625
5201		64.453125
5202		70.312500
5203		62.500000
5204		66.406250
5205		56.640625
5206		62.500000
5207		54.687500
5208		60.546875
5209		50.781250
5210		56.640625
5211		48.828125
5212		52.734375
5213		44.921875
5214		48.828125
5215		41.015625
5216		46.875000
5217		37.109375
5218		42.968750
5219		33.203125
5220		39.062500
5221		29.296875
5222		35.156250
5223		27.343750
5224		31.250000
5225		23.437500
5226		27.343750
5227		19.531250
5228		23.437500
5229		15.625000
5230		19.531250
5231		11.718750
5232		15.625000
5233		7.812500
5234		11.718750
5235		3.906250
5236		9.765625
5237		0.000000
5238		3.906250
5239		-3.906250
5240		1.953125
5241		-7.812500
5242		-3.906250
5243		-11.718750
5244		-7.812500
5245		-15.625000
5246		-11.718750
5247		-19.531250
5248		-15.625000
5249		-23.437500
5250		-19.531250
5251		-27.343750
5252		-23.437500
5253		-31.250000
5254		-27.343750
5255		-37.109375
5256		-31.250000
5257		-39.062500
5258		-33.203125
5259		-42.968750
5260		-39.062500
5261		-46.875000
5262		-41.015625
5263		-50.781250
5264		-44.921875
5265		-54.687500
5266		-48.828125
5267		-58.593750
5268		-52.734375
5269		-62.500000
5270		-56.640625
5271		-66.406250
5272		-60.546875
5273		-70.312500
5274		-64.453125
5275		-72.265625
5276		-68.359375
5277		-76.171875
5278		-72.265625
5279		-80.078125
5280		-74.218750
5281		-82.031250
5282		-78.125000
5283		-85.937500
5284		-82.031250
5285		-89.843750
5286		-85.937500
5287		-93.750000
5288		-87.890625
5289		-95.703125
5290		-91.796875
5291		-99.609375
5292		-95.703125
5293		-103.515625
5294		-97.656250
5295		-105.468750
5296		-101.562500
5297		-109.375000
5298		-103.515625
5299		-111.328125
5300		-107.421875
5301		-113.281250
5302		-109.375000
5303		-117.187500
5304		-113.281250
5305		-119.140625
5306		-115.234375
5307		-121.093750
5308		-117.187500
5309		-123.046875
5310		-119.140625
5311		-126.953125
5312		-123.046875
5313		-128.906250
5314		-125.000000
5315		-130.859375
5316		-126.953125
5317		-132.812500
5318		-128.906250
5319		-134.765625
5320		-130.859375
5321		-136.718750
5322		-132.812500
5323		-138.671875
5324		-134.765625
5325		-140.625000
5326		-136.718750
5327		-140.625000
5328		-138.671875
5329		-142.578125
5330		-138.671875
5331		-144.531250
5332		-140.625000
5333		-144.531250
5334		-142.578125
5335		-146.484375
5336		-142.578125
5337		-146.484375
5338		-144.531250
5339		-148.437500
5340		-144.531250
5341		-148.437500
5342		-146.484375
5343		-150.390625
5344		-146.484375
5345		-150.390625
5346		-146.484375
5347		-150.390625
5348		-148.437500
5349		-150.390625
5350		-148.437500
5351		-150.390625
5352		-148.437500
5353		-150.390625
5354		-148.437500
5355		-150.390625
5356		-148.437500
5357		-150.390625
5358		-148.437500
5359		-150.390625
5360		-148.437500
5361		-150.390625
5362		-148.437500
5363		-150.390625
5364		-146.484375
5365		-148.437500
5366		-146.484375
5367		-148.437500
5368		-146.484375
5369		-148.437500
5370		-144.531250
5371		-146.484375
5372		-142.578125
5373		-144.531250
5374		-142.578125
5375		-144.531250
5376		-140.625000
5377		-142.578125
5378		-140.625000
5379		-140.625000
5380		-138.671875
5381		-140.625000
5382		-136.718750
5383		-138.671875
5384		-134.765625
5385		-136.718750
5386		-132.812500
5387		-134.765625
5388		-130.859375
5389		-132.812500
5390		-128.906250
5391		-130.859375
5392		-126.953125
5393		-128.906250
5394		-125.000000
5395		-126.953125
5396		-123.046875
5397		-123.046875
5398		-119.140625
5399		-121.093750
5400		-117.187500
5401		-119.140625
5402		-115.234375
5403		-117.187500
5404		-111.328125
5405		-113.281250
5406		-109.375000
5407		-111.328125
5408		-105.468750
5409		-107.421875
5410		-103.515625
5411		-105.468750
5412		-99.609375
5413		-101.562500
5414		-97.656250
5415		-99.609375
5416		-93.750000
5417		-95.703125
5418		-89.843750
5419		-91.796875
5420		-85.937500
5421		-87.890625
5422		-83.984375
5423		-85.937500
5424		-80.078125
5425		-82.031250
5426		-76.171875
5427		-78.125000
5428		-72.265625
5429		-74.218750
5430		-68.359375
5431		-70.312500
5432		-66.406250
5433		-68.359375
5434		-62.500000
5435		-62.500000
5436		-58.593750
5437		-60.546875
5438		-54.687500
5439		-56.640625
5440		-50.781250
5441		-52.734375
5442		-46.875000
5443		-48.828125
5444		-42.968750
5445		-44.921875
5446		-39.062500
5447		-41.015625
5448		-35.156250
5449		-37.109375
5450		-31.250000
5451		-33.203125
5452		-27.343750
5453		-29.296875
5454		-23.437500
5455		-25.390625
5456		-19.531250
5457		-19.531250
5458		-15.625000
5459		-17.578125
5460		-11.718750
5461		-13.671875
5462		-7.812500
5463		-7.812500
5464		-3.906250
5465		-3.906250
5466		0.000000
5467		0.000000
5468		3.906250
5469		1.953125
5470		7.812500
5471		7.812500
5472		11.718750
5473		9.765625
5474		15.625000
5475		15.625000
5476		19.531250
5477		17.578125
5478		23.437500
5479		21.484375
5480		27.343750
5481		25.390625
5482		31.250000
5483		29.296875
5484		35.156250
5485		33.203125
5486		39.062500
5487		37.109375
5488		42.968750
5489		41.015625
5490		44.921875
5491		44.921875
5492		48.828125
5493		46.875000
5494		52.734375
5495		50.781250
5496		56.640625
5497		54.687500
5498		58.593750
5499		58.593750
5500		62.500000
5501		60.546875
5502		66.406250
5503		64.453125
5504		68.359375
5505		68.359375
5506		72.265625
5507		70.312500
5508		74.218750
5509		74.218750
5510		78.125000
5511		76.171875
5512		82.031250
5513		80.078125
5514		83.984375
5515		82.031250
5516		85.937500
5517		85.937500
5518		89.843750
5519		87.890625
5520		91.796875
5521		89.843750
5522		93.750000
5523		93.750000
5524		97.656250
5525		95.703125
5526		99.609375
5527		97.656250
5528		101.562500
5529		99.609375
5530		105.468750
5531		103.515625
5532		107.421875
5533		105.468750
5534		109.375000
5535		107.421875
5536		111.328125
5537		109.375000
5538		113.281250
5539		111.328125
5540		115.234375
5541		113.281250
5542		117.187500
5543		115.234375
5544		119.140625
5545		117.187500
5546		121.093750
5547		119.140625
5548		121.093750
5549		119.140625
5550		123.046875
5551		121.093750
5552		125.000000
5553		123.046875
5554		126.953125
5555		125.000000
5556		126.953125
5557		125.000000
5558		128.906250
5559		126.953125
5560		130.859375
5561		128.906250
5562		130.859375
5563		128.906250
5564		132.812500
5565		128.906250
5566		132.812500
5567		130.859375
5568		132.812500
5569		132.812500
5570		134.765625
5571		132.812500
5572		134.765625
5573		132.812500
5574		136.718750
5575		134.765625
5576		136.718750
5577		134.765625
5578		136.718750
5579		134.765625
5580		136.718750
5581		134.765625
5582		138.671875
5583		134.765625
5584		138.671875
5585		134.765625
5586		138.671875
5587		136.718750
5588		138.671875
5589		136.718750
5590		138.671875
5591		134.765625
5592		138.671875
5593		136.718750
5594		138.671875
5595		134.765625
5596		138.671875
5597		134.765625
5598		138.671875
5599		134.765625
5600		138.671875
5601		134.765625
5602		136.718750
5603		132.812500
5604		136.718750
5605		132.812500
5606		136.718750
5607		132.812500
5608		134.765625
5609		130.859375
5610		134.765625
5611		130.859375
5612		132.812500
5613		128.906250
5614		132.812500
5615		128.906250
5616		130.859375
5617		126.953125
5618		130.859375
5619		126.953125
5620		128.906250
5621		125.000000
5622		128.906250
5623		123.046875
5624		126.953125
5625		123.046875
5626		125.000000
5627		121.093750
5628		125.000000
5629		119.140625
5630		123.046875
5631		117.187500
5632		121.093750
5633		115.234375
5634		119.140625
5635		113.281250
5636		117.187500
5637		111.328125
5638		115.234375
5639		109.375000
5640		113.281250
5641		107.421875
5642		111.328125
5643		105.468750
5644		109.375000
5645		103.515625
5646		107.421875
5647		101.562500
5648		105.468750
5649		99.609375
5650		103.515625
5651		95.703125
5652		99.609375
5653		93.750000
5654		97.656250
5655		91.796875
5656		95.703125
5657		87.890625
5658		91.796875
5659		85.937500
5660		89.843750
5661		82.031250
5662		87.890625
5663		80.078125
5664		83.984375
5665		76.171875
5666		82.031250
5667		74.218750
5668		78.125000
5669		70.312500
5670		76.171875
5671		66.406250
5672		72.265625
5673		64.453125
5674		68.359375
5675		60.546875
5676		66.406250
5677		56.640625
5678		62.500000
5679		54.687500
5680		58.593750
5681		50.781250
5682		56.640625
5683		46.875000
5684		52.734375
5685		42.968750
5686		48.828125
5687		41.015625
5688		44.921875
5689		37.109375
5690		41.015625
5691		33.203125
5692		39.062500
5693		29.296875
5694		35.156250
5695		25.390625
5696		31.250000
5697		21.484375
5698		27.343750
5699		17.578125
5700		23.437500
5701		13.671875
5702		19.531250
5703		9.765625
5704		15.625000
5705		5.859375
5706		11.718750
5707		1.953125
5708		7.812500
5709		-1.953125
5710		3.906250
5711		-5.859375
5712		0.000000
5713		-9.765625
5714		-3.906250
5715		-11.718750
5716		-7.812500
5717		-17.578125
5718		-11.718750
5719		-21.484375
5720		-15.625000
5721		-25.390625
5722		-19.531250
5723		-29.296875
5724		-23.437500
5725		-33.203125
5726		-27.343750
5727		-37.109375
5728		-31.250000
5729		-41.015625
5730		-35.156250
5731		-44.921875
5732		-39.062500
5733		-46.875000
5734		-42.968750
5735		-50.781250
5736		-46.875000
5737		-54.687500
5738		-50.781250
5739		-58.593750
5740		-54.687500
5741		-62.500000
5742		-58.593750
5743		-66.406250
5744		-60.546875
5745		-70.312500
5746		-64.453125
5747		-74.218750
5748		-68.359375
5749		-76.171875
5750		-72.265625
5751		-80.078125
5752		-76.171875
5753		-83.984375
5754		-78.125000
5755		-87.890625
5756		-82.031250
5757		-91.796875
5758		-85.937500
5759		-93.750000
5760		-89.843750
5761		-97.656250
5762		-91.796875
5763		-99.609375
5764		-95.703125
5765		-103.515625
5766		-99.609375
5767		-107.421875
5768		-101.562500
5769		-109.375000
5770		-105.468750
5771		-111.328125
5772		-107.421875
5773		-115.234375
5774		-109.375000
5775		-117.187500
5776		-113.281250
5777		-119.140625
5778		-115.234375
5779		-123.046875
5780		-119.140625
5781		-125.000000
5782		-121.093750
5783		-126.953125
5784		-123.046875
5785		-128.906250
5786		-125.000000
5787		-130.859375
5788		-126.953125
5789		-132.812500
5790		-128.906250
5791		-134.765625
5792		-130.859375
5793		-136.718750
5794		-132.812500
5795		-138.671875
5796		-134.765625
5797		-140.625000
5798		-136.718750
5799		-140.625000
5800		-138.671875
5801		-142.578125
5802		-140.625000
5803		-144.531250
5804		-140.625000
5805		-146.484375
5806		-142.578125
5807		-146.484375
5808		-144.531250
5809		-148.437500
5810		-144.531250
5811		-148.437500
5812		-146.484375
5813		-148.437500
5814		-146.484375
5815		-150.390625
5816		-146.484375
5817		-150.390625
5818		-148.437500
5819		-150.390625
5820		-148.437500
5821		-150.390625
5822		-148.437500
5823		-150.390625
5824		-148.437500
5825		-150.390625
5826		-148.437500
5827		-150.390625
5828		-148.437500
5829		-150.390625
5830		-148.437500
5831		-150.390625
5832		-148.437500
5833		-150.390625
5834		-148.437500
5835		-150.390625
5836		-146.484375
5837		-148.437500
5838		-146.484375
5839		-148.437500
5840		-144.531250
5841		-146.484375
5842		-144.531250
5843		-146.484375
5844		-142.578125
5845		-144.531250
5846		-142.578125
5847		-144.531250
5848		-140.625000
5849		-142.578125
5850		-138.671875
5851		-140.625000
5852		-138.671875
5853		-140.625000
5854		-136.718750
5855		-138.671875
5856		-134.765625
5857		-136.718750
5858		-132.812500
5859		-134.765625
5860		-130.859375
5861		-132.812500
5862		-128.906250
5863		-130.859375
5864		-126.953125
5865		-128.906250
5866		-125.000000
5867		-125.000000
5868		-121.093750
5869		-125.000000
5870		-119.140625
5871		-121.093750
5872		-115.234375
5873		-119.140625
5874		-113.281250
5875		-115.234375
5876		-111.328125
5877		-113.281250
5878		-107.421875
5879		-109.375000
5880		-105.468750
5881		-107.421875
5882		-101.562500
5883		-103.515625
5884		-99.609375
5885		-101.562500
5886		-95.703125
5887		-97.656250
5888		-91.796875
5889		-93.750000
5890		-89.843750
5891		-91.796875
5892		-85.937500
5893		-87.890625
5894		-82.031250
5895		-83.984375
5896		-80.078125
5897		-80.078125
5898		-76.171875
5899		-76.171875
5900		-72.265625
5901		-74.218750
5902		-68.359375
5903		-70.312500
5904		-64.453125
5905		-66.406250
5906		-60.546875
5907		-62.500000
5908		-56.640625
5909		-58.593750
5910		-52.734375
5911		-54.687500
5912		-48.828125
5913		-50.781250
5914		-44.921875
5915		-46.875000
5916		-41.015625
5917		-42.968750
5918		-37.109375
5919		-39.062500
5920		-33.203125
5921		-35.156250
5922		-29.296875
5923		-31.250000
5924		-25.390625
5925		-27.343750
5926		-21.484375
5927		-23.437500
5928		-17.578125
5929		-19.531250
5930		-13.671875
5931		-15.625000
5932		-9.765625
5933		-11.718750
5934		-5.859375
5935		-7.812500
5936		-1.953125
5937		-3.906250
5938		1.953125
5939		0.000000
5940		5.859375
5941		3.906250
5942		9.765625
5943		7.812500
5944		13.671875
5945		11.718750
5946		17.578125
5947		15.625000
5948		21.484375
5949		19.531250
5950		25.390625
5951		23.437500
5952		29.296875
5953		27.343750
5954		33.203125
5955		31.250000
5956		35.156250
5957		35.156250
5958		39.062500
5959		37.109375
5960		42.968750
5961		41.015625
5962		46.875000
5963		44.921875
5964		50.781250
5965		48.828125
5966		52.734375
5967		50.781250
5968		56.640625
5969		54.687500
5970		60.546875
5971		58.593750
5972		64.453125
5973		62.500000
5974		66.406250
5975		64.453125
5976		70.312500
5977		68.359375
5978		72.265625
5979		72.265625
5980		76.171875
5981		74.218750
5982		80.078125
5983		78.125000
5984		82.031250
5985		80.078125
5986		83.984375
5987		83.984375
5988		87.890625
5989		85.937500
5990		91.796875
5991		89.843750
5992		93.750000
5993		91.796875
5994		95.703125
5995		93.750000
5996		97.656250
5997		97.656250
5998		101.562500
5999		99.609375
6000		103.515625
6001		101.562500
6002		105.468750
6003		103.515625
6004		107.421875
6005		105.468750
6006		109.375000
6007		107.421875
6008		111.328125
6009		109.375000
6010		115.234375
6011		111.328125
6012		115.234375
6013		115.234375
6014		117.187500
6015		115.234375
6016		119.140625
6017		117.187500
6018		121.093750
6019		119.140625
6020		123.046875
6021		121.093750
6022		125.000000
6023		123.046875
6024		126.953125
6025		123.046875
6026		126.953125
6027		125.000000
6028		128.906250
6029		126.953125
6030		128.906250
6031		126.953125
6032		130.859375
6033		128.906250
6034		132.812500
6035		130.859375
6036		132.812500
6037		130.859375
6038		134.765625
6039		132.812500
6040		134.765625
6041		132.812500
6042		134.765625
6043		132.812500
6044		136.718750
6045		132.812500
6046		136.718750
6047		134.765625
6048		136.718750
6049		134.765625
6050		138.671875
6051		136.718750
6052		138.671875
6053		136.718750
6054		138.671875
6055		136.718750
6056		138.671875
6057		136.718750
6058		138.671875
6059		136.718750
6060		138.671875
6061		136.718750
6062		138.671875
6063		134.765625
6064		140.625000
6065		136.718750
6066		138.671875
6067		134.765625
6068		140.625000
6069		136.718750
6070		138.671875
6071		134.765625
6072		138.671875
6073		134.765625
6074		136.718750
6075		134.765625
6076		136.718750
6077		132.812500
6078		136.718750
6079		132.812500
6080		136.718750
6081		132.812500
6082		134.765625
6083		128.906250
6084		134.765625
6085		130.859375
6086		132.812500
6087		126.953125
6088		132.812500
6089		126.953125
6090		130.859375
6091		125.000000
6092		132.812500
6093		125.000000
6094		128.906250
6095		123.046875
6096		126.953125
6097		123.046875
6098		126.953125
6099		119.140625
6100		125.000000
6101		119.140625
6102		123.046875
6103		117.187500
6104		121.093750
6105		115.234375
6106		121.093750
6107		111.328125
6108		119.140625
6109		111.328125
6110		115.234375
6111		111.328125
6112		113.281250
6113		107.421875
6114		111.328125
6115		105.468750
6116		111.328125
6117		103.515625
6118		107.421875
6119		101.562500
6120		105.468750
6121		99.609375
6122		103.515625
6123		95.703125
6124		99.609375
6125		93.750000
6126		99.609375
6127		91.796875
6128		95.703125
6129		87.890625
6130		93.750000
6131		82.031250
6132		91.796875
6133		82.031250
6134		87.890625
6135		78.125000
6136		83.984375
6137		76.171875
6138		82.031250
6139		74.218750
6140		80.078125
6141		70.312500
6142		76.171875
6143		68.359375
6144		72.265625
6145		64.453125
6146		68.359375
6147		60.546875
6148		66.406250
6149		56.640625
6150		64.453125
6151		54.687500
6152		60.546875
6153		50.781250
6154		56.640625
6155		44.921875
6156		52.734375
6157		42.968750
6158		48.828125
6159		39.062500
6160		48.828125
6161		37.109375
6162		41.015625
6163		31.250000
6164		39.062500
6165		29.296875
6166		35.156250
6167		25.390625
6168		31.250000
6169		21.484375
6170		27.343750
6171		15.625000
6172		23.437500
6173		13.671875
6174		21.484375
6175		7.812500
6176		17.578125
6177		5.859375
6178		11.718750
6179		1.953125
6180		7.812500
6181		-1.953125
6182		3.906250
6183		-5.859375
6184		1.953125
6185		-9.765625
6186		-3.906250
6187		-13.671875
6188		-7.812500
6189		-19.531250
6190		-9.765625
6191		-23.437500
6192		-15.625000
6193		-25.390625
6194		-19.531250
6195		-29.296875
6196		-23.437500
6197		-33.203125
6198		-27.343750
6199		-39.062500
6200		-29.296875
6201		-41.015625
6202		-35.156250
6203		-44.921875
6204		-39.062500
6205		-50.781250
6206		-42.968750
6207		-52.734375
6208		-42.968750
6209		-56.640625
6210		-48.828125
6211		-58.593750
6212		-54.687500
6213		-64.453125
6214		-58.593750
6215		-70.312500
6216		-60.546875
6217		-72.265625
6218		-62.500000
6219		-74.218750
6220		-68.359375
6221		-78.125000
6222		-72.265625
6223		-82.031250
6224		-72.265625
6225		-85.937500
6226		-78.125000
6227		-87.890625
6228		-82.031250
6229		-89.843750
6230		-85.937500
6231		-95.703125
6232		-87.890625
6233		-97.656250
6234		-89.843750
6235		-99.609375
6236		-93.750000
6237		-103.515625
6238		-99.609375
6239		-109.375000
6240		-99.609375
6241		-109.375000
6242		-103.515625
6243		-113.281250
6244		-103.515625
6245		-115.234375
6246		-109.375000
6247		-117.187500
6248		-113.281250
6249		-123.046875
6250		-113.281250
6251		-123.046875
6252		-117.187500
6253		-125.000000
6254		-121.093750
6255		-126.953125
6256		-123.046875
6257		-130.859375
6258		-121.093750
6259		-132.812500
6260		-125.000000
6261		-132.812500
6262		-128.906250
6263		-134.765625
6264		-130.859375
6265		-138.671875
6266		-132.812500
6267		-140.625000
6268		-130.859375
6269		-140.625000
6270		-136.718750
6271		-142.578125
6272		-138.671875
6273		-146.484375
6274		-136.718750
6275		-144.531250
6276		-140.625000
6277		-144.531250
6278		-142.578125
6279		-146.484375
6280		-142.578125
6281		-148.437500
6282		-142.578125
6283		-150.390625
6284		-140.625000
6285		-150.390625
6286		-144.531250
6287		-148.437500
6288		-146.484375
6289		-152.343750
6290		-144.531250
6291		-152.343750
6292		-144.531250
6293		-152.343750
6294		-144.531250
6295		-150.390625
6296		-148.437500
6297		-150.390625
6298		-148.437500
6299		-152.343750
6300		-144.531250
6301		-152.343750
6302		-144.531250
6303		-150.390625
6304		-146.484375
6305		-150.390625
6306		-146.484375
6307		-152.343750
6308		-142.578125
6309		-150.390625
6310		-142.578125
6311		-146.484375
6312		-144.531250
6313		-146.484375
6314		-142.578125
6315		-144.531250
6316		-140.625000
6317		-146.484375
6318		-138.671875
6319		-144.531250
6320		-138.671875
6321		-140.625000
6322		-138.671875
6323		-142.578125
6324		-132.812500
6325		-140.625000
6326		-134.765625
6327		-138.671875
6328		-132.812500
6329		-134.765625
6330		-130.859375
6331		-132.812500
6332		-128.906250
6333		-132.812500
6334		-125.000000
6335		-128.906250
6336		-125.000000
6337		-126.953125
6338		-123.046875
6339		-125.000000
6340		-119.140625
6341		-121.093750
6342		-117.187500
6343		-121.093750
6344		-113.281250
6345		-117.187500
6346		-111.328125
6347		-113.281250
6348		-109.375000
6349		-111.328125
6350		-107.421875
6351		-111.328125
6352		-103.515625
6353		-107.421875
6354		-101.562500
6355		-103.515625
6356		-97.656250
6357		-101.562500
6358		-93.750000
6359		-95.703125
6360		-91.796875
6361		-93.750000
6362		-87.890625
6363		-89.843750
6364		-83.984375
6365		-85.937500
6366		-82.031250
6367		-82.031250
6368		-78.125000
6369		-80.078125
6370		-74.218750
6371		-76.171875
6372		-70.312500
6373		-72.265625
6374		-66.406250
6375		-68.359375
6376		-62.500000
6377		-64.453125
6378		-58.593750
6379		-60.546875
6380		-56.640625
6381		-56.640625
6382		-50.781250
6383		-52.734375
6384		-48.828125
6385		-48.828125
6386		-44.921875
6387		-44.921875
6388		-41.015625
6389		-41.015625
6390		-37.109375
6391		-37.109375
6392		-33.203125
6393		-33.203125
6394		-27.343750
6395		-29.296875
6396		-25.390625
6397		-25.390625
6398		-21.484375
6399		-21.484375
6400		-15.625000
6401		-17.578125
6402		-11.718750
6403		-13.671875
6404		-7.812500
6405		-9.765625
6406		-5.859375
6407		-5.859375
6408		-1.953125
6409		-1.953125
6410		1.953125
6411		1.953125
6412		7.812500
6413		5.859375
6414		11.718750
6415		9.765625
6416		15.625000
6417		11.718750
6418		19.531250
6419		15.625000
6420		23.437500
6421		19.531250
6422		27.343750
6423		23.437500
6424		31.250000
6425		27.343750
6426		35.156250
6427		31.250000
6428		37.109375
6429		35.156250
6430		41.015625
6431		39.062500
6432		44.921875
6433		42.968750
6434		48.828125
6435		44.921875
6436		52.734375
6437		48.828125
6438		56.640625
6439		52.734375
6440		58.593750
6441		56.640625
6442		62.500000
6443		58.593750
6444		64.453125
6445		62.500000
6446		68.359375
6447		66.406250
6448		70.312500
6449		68.359375
6450		74.218750
6451		72.265625
6452		78.125000
6453		74.218750
6454		80.078125
6455		78.125000
6456		83.984375
6457		80.078125
6458		85.937500
6459		83.984375
6460		89.843750
6461		85.937500
6462		91.796875
6463		89.843750
6464		93.750000
6465		91.796875
6466		97.656250
6467		93.750000
6468		99.609375
6469		95.703125
6470		103.515625
6471		99.609375
6472		105.468750
6473		101.562500
6474		107.421875
6475		103.515625
6476		109.375000
6477		105.468750
6478		111.328125
6479		109.375000
6480		113.281250
6481		111.328125
6482		115.234375
6483		111.328125
6484		117.187500
6485		115.234375
6486		119.140625
6487		115.234375
6488		121.093750
6489		117.187500
6490		123.046875
6491		119.140625
6492		123.046875
6493		121.093750
6494		125.000000
6495		121.093750
6496		126.953125
6497		125.000000
6498		126.953125
6499		125.000000
6500		130.859375
6501		125.000000
6502		130.859375
6503		126.953125
6504		132.812500
6505		128.906250
6506		132.812500
6507		128.906250
6508		134.765625
6509		130.859375
6510		134.765625
6511		130.859375
6512		136.718750
6513		132.812500
6514		134.765625
6515		132.812500
6516		136.718750
6517		132.812500
6518		138.671875
6519		134.765625
6520		138.671875
6521		134.765625
6522		138.671875
6523		134.765625
6524		138.671875
6525		134.765625
6526		140.625000
6527		134.765625
6528		140.625000
6529		134.765625
6530		138.671875
6531		136.718750
6532		138.671875
6533		136.718750
6534		138.671875
6535		134.765625
6536		138.671875
6537		134.765625
6538		138.671875
6539		134.765625
6540		140.625000
6541		134.765625
6542		138.671875
6543		134.765625
6544		138.671875
6545		132.812500
6546		138.671875
6547		132.812500
6548		136.718750
6549		130.859375
6550		136.718750
6551		132.812500
6552		136.718750
6553		130.859375
6554		134.765625
6555		128.906250
6556		134.765625
6557		128.906250
6558		134.765625
6559		126.953125
6560		132.812500
6561		125.000000
6562		130.859375
6563		125.000000
6564		128.906250
6565		125.000000
6566		126.953125
6567		123.046875
6568		126.953125
6569		121.093750
6570		125.000000
6571		119.140625
6572		123.046875
6573		117.187500
6574		123.046875
6575		117.187500
6576		121.093750
6577		115.234375
6578		119.140625
6579		113.281250
6580		117.187500
6581		111.328125
6582		115.234375
6583		107.421875
6584		113.281250
6585		107.421875
6586		111.328125
6587		103.515625
6588		109.375000
6589		101.562500
6590		107.421875
6591		99.609375
6592		103.515625
6593		97.656250
6594		101.562500
6595		93.750000
6596		99.609375
6597		91.796875
6598		95.703125
6599		89.843750
6600		93.750000
6601		87.890625
6602		91.796875
6603		83.984375
6604		87.890625
6605		80.078125
6606		85.937500
6607		78.125000
6608		83.984375
6609		74.218750
6610		80.078125
6611		72.265625
6612		76.171875
6613		68.359375
6614		74.218750
6615		66.406250
6616		70.312500
6617		62.500000
6618		66.406250
6619		58.593750
6620		64.453125
6621		54.687500
6622		60.546875
6623		50.781250
6624		56.640625
6625		48.828125
6626		54.687500
6627		44.921875
6628		50.781250
6629		41.015625
6630		46.875000
6631		39.062500
6632		42.968750
6633		35.156250
6634		39.062500
6635		31.250000
6636		37.109375
6637		27.343750
6638		33.203125
6639		21.484375
6640		29.296875
6641		19.531250
6642		25.390625
6643		15.625000
6644		21.484375
6645		9.765625
6646		17.578125
6647		7.812500
6648		13.671875
6649		3.906250
6650		9.765625
6651		0.000000
6652		5.859375
6653		-3.906250
6654		1.953125
6655		-7.812500
6656		-1.953125
6657		-11.718750
6658		-5.859375
6659		-15.625000
6660		-9.765625
6661		-19.531250
6662		-13.671875
6663		-23.437500
6664		-17.578125
6665		-27.343750
6666		-21.484375
6667		-31.250000
6668		-25.390625
6669		-35.156250
6670		-29.296875
6671		-39.062500
6672		-33.203125
6673		-42.968750
6674		-37.109375
6675		-46.875000
6676		-41.015625
6677		-50.781250
6678		-44.921875
6679		-54.687500
6680		-46.875000
6681		-56.640625
6682		-52.734375
6683		-60.546875
6684		-56.640625
6685		-64.453125
6686		-60.546875
6687		-68.359375
6688		-64.453125
6689		-72.265625
6690		-66.406250
6691		-76.171875
6692		-70.312500
6693		-80.078125
6694		-74.218750
6695		-82.031250
6696		-78.125000
6697		-85.937500
6698		-80.078125
6699		-89.843750
6700		-83.984375
6701		-93.750000
6702		-87.890625
6703		-95.703125
6704		-91.796875
6705		-99.609375
6706		-93.750000
6707		-101.562500
6708		-97.656250
6709		-105.468750
6710		-99.609375
6711		-109.375000
6712		-103.515625
6713		-111.328125
6714		-105.468750
6715		-113.281250
6716		-109.375000
6717		-115.234375
6718		-111.328125
6719		-119.140625
6720		-113.281250
6721		-121.093750
6722		-117.187500
6723		-123.046875
6724		-119.140625
6725		-126.953125
6726		-121.093750
6727		-128.906250
6728		-125.000000
6729		-130.859375
6730		-126.953125
6731		-132.812500
6732		-128.906250
6733		-134.765625
6734		-130.859375
6735		-136.718750
6736		-132.812500
6737		-138.671875
6738		-134.765625
6739		-140.625000
6740		-136.718750
6741		-142.578125
6742		-136.718750
6743		-142.578125
6744		-138.671875
6745		-144.531250
6746		-140.625000
6747		-146.484375
6748		-142.578125
6749		-146.484375
6750		-142.578125
6751		-148.437500
6752		-144.531250
6753		-148.437500
6754		-144.531250
6755		-148.437500
6756		-146.484375
6757		-150.390625
6758		-146.484375
6759		-150.390625
6760		-146.484375
6761		-150.390625
6762		-146.484375
6763		-152.343750
6764		-148.437500
6765		-150.390625
6766		-148.437500
6767		-150.390625
6768		-148.437500
6769		-152.343750
6770		-148.437500
6771		-152.343750
6772		-148.437500
6773		-152.343750
6774		-148.437500
6775		-150.390625
6776		-146.484375
6777		-150.390625
6778		-146.484375
6779		-150.390625
6780		-146.484375
6781		-150.390625
6782		-146.484375
6783		-148.437500
6784		-146.484375
6785		-148.437500
6786		-142.578125
6787		-146.484375
6788		-142.578125
6789		-144.531250
6790		-142.578125
6791		-144.531250
6792		-140.625000
6793		-142.578125
6794		-138.671875
6795		-140.625000
6796		-136.718750
6797		-140.625000
6798		-134.765625
6799		-136.718750
6800		-132.812500
6801		-134.765625
6802		-132.812500
6803		-134.765625
6804		-128.906250
6805		-132.812500
6806		-126.953125
6807		-128.906250
6808		-125.000000
6809		-126.953125
6810		-123.046875
6811		-125.000000
6812		-121.093750
6813		-123.046875
6814		-117.187500
6815		-121.093750
6816		-115.234375
6817		-117.187500
6818		-113.281250
6819		-113.281250
6820		-109.375000
6821		-111.328125
6822		-105.468750
6823		-109.375000
6824		-103.515625
6825		-107.421875
6826		-101.562500
6827		-103.515625
6828		-97.656250
6829		-99.609375
6830		-93.750000
6831		-95.703125
6832		-91.796875
6833		-93.750000
6834		-87.890625
6835		-89.843750
6836		-83.984375
6837		-85.937500
6838		-82.031250
6839		-82.031250
6840		-78.125000
6841		-80.078125
6842		-74.218750
6843		-76.171875
6844		-70.312500
6845		-72.265625
6846		-66.406250
6847		-68.359375
6848		-62.500000
6849		-64.453125
6850		-58.593750
6851		-60.546875
6852		-54.687500
6853		-56.640625
6854		-50.781250
6855		-52.734375
6856		-46.875000
6857		-48.828125
6858		-42.968750
6859		-44.921875
6860		-39.062500
6861		-41.015625
6862		-35.156250
6863		-37.109375
6864		-31.250000
6865		-35.156250
6866		-27.343750
6867		-29.296875
6868		-23.437500
6869		-25.390625
6870		-19.531250
6871		-21.484375
6872		-15.625000
6873		-17.578125
6874		-11.718750
6875		-13.671875
6876		-7.812500
6877		-9.765625
6878		-3.906250
6879		-5.859375
6880		0.000000
6881		-1.953125
6882		3.906250
6883		1.953125
6884		7.812500
6885		5.859375
6886		11.718750
6887		9.765625
6888		15.625000
6889		13.671875
6890		19.531250
6891		17.578125
6892		23.437500
6893		21.484375
6894		27.343750
6895		25.390625
6896		31.250000
6897		29.296875
6898		33.203125
6899		33.203125
6900		37.109375
6901		37.109375
6902		41.015625
6903		39.062500
6904		44.921875
6905		42.968750
6906		48.828125
6907		46.875000
6908		52.734375
6909		50.781250
6910		54.687500
6911		52.734375
6912		58.593750
6913		56.640625
6914		62.500000
6915		60.546875
6916		64.453125
6917		64.453125
6918		68.359375
6919		66.406250
6920		72.265625
6921		70.312500
6922		74.218750
6923		72.265625
6924		78.125000
6925		74.218750
6926		82.031250
6927		78.125000
6928		83.984375
6929		82.031250
6930		85.937500
6931		83.984375
6932		89.843750
6933		87.890625
6934		91.796875
6935		89.843750
6936		93.750000
6937		91.796875
6938		97.656250
6939		95.703125
6940		99.609375
6941		97.656250
6942		101.562500
6943		99.609375
6944		103.515625
6945		101.562500
6946		105.468750
6947		103.515625
6948		107.421875
6949		105.468750
6950		111.328125
6951		109.375000
6952		113.281250
6953		111.328125
6954		115.234375
6955		111.328125
6956		117.187500
6957		115.234375
6958		119.140625
6959		117.187500
6960		119.140625
6961		117.187500
6962		121.093750
6963		119.140625
6964		123.046875
6965		121.093750
6966		125.000000
6967		123.046875
6968		126.953125
6969		125.000000
6970		126.953125
6971		125.000000
6972		128.906250
6973		126.953125
6974		130.859375
6975		126.953125
6976		130.859375
6977		128.906250
6978		132.812500
6979		128.906250
6980		132.812500
6981		130.859375
6982		134.765625
6983		130.859375
6984		134.765625
6985		132.812500
6986		134.765625
6987		132.812500
6988		136.718750
6989		132.812500
6990		136.718750
6991		132.812500
6992		136.718750
6993		134.765625
6994		136.718750
6995		134.765625
6996		138.671875
6997		134.765625
6998		138.671875
6999		134.765625
7000		138.671875
7001		134.765625
7002		138.671875
7003		134.765625
7004		138.671875
7005		134.765625
7006		138.671875
7007		134.765625
7008		138.671875
7009		134.765625
7010		138.671875
7011		134.765625
7012		138.671875
7013		134.765625
7014		136.718750
7015		132.812500
7016		136.718750
7017		132.812500
7018		136.718750
7019		132.812500
7020		134.765625
7021		130.859375
7022		134.765625
7023		130.859375
7024		134.765625
7025		130.859375
7026		132.812500
7027		128.906250
7028		132.812500
7029		128.906250
7030		130.859375
7031		126.953125
7032		130.859375
7033		125.000000
7034		128.906250
7035		125.000000
7036		126.953125
7037		123.046875
7038		126.953125
7039		121.093750
7040		125.000000
7041		121.093750
7042		125.000000
7043		119.140625
7044		123.046875
7045		115.234375
7046		121.093750
7047		115.234375
7048		119.140625
7049		113.281250
7050		117.187500
7051		111.328125
7052		115.234375
7053		109.375000
7054		113.281250
7055		107.421875
7056		111.328125
7057		103.515625
7058		109.375000
7059		103.515625
7060		107.421875
7061		99.609375
7062		105.468750
7063		97.656250
7064		103.515625
7065		95.703125
7066		99.609375
7067		93.750000
7068		97.656250
7069		89.843750
7070		93.750000
7071		87.890625
7072		91.796875
7073		83.984375
7074		89.843750
7075		82.031250
7076		85.937500
7077		78.125000
7078		83.984375
7079		76.171875
7080		80.078125
7081		72.265625
7082		78.125000
7083		70.312500
7084		74.218750
7085		66.406250
7086		72.265625
7087		62.500000
7088		68.359375
7089		60.546875
7090		66.406250
7091		56.640625
7092		62.500000
7093		52.734375
7094		58.593750
7095		50.781250
7096		54.687500
7097		46.875000
7098		52.734375
7099		42.968750
7100		48.828125
7101		39.062500
7102		44.921875
7103		35.156250
7104		41.015625
7105		31.250000
7106		37.109375
7107		27.343750
7108		33.203125
7109		23.437500
7110		29.296875
7111		21.484375
7112		25.390625
7113		15.625000
7114		23.437500
7115		13.671875
7116		17.578125
7117		9.765625
7118		15.625000
7119		5.859375
7120		11.718750
7121		0.000000
7122		7.812500
7123		-1.953125
7124		3.906250
7125		-5.859375
7126		0.000000
7127		-9.765625
7128		-3.906250
7129		-13.671875
7130		-7.812500
7131		-17.578125
7132		-11.718750
7133		-21.484375
7134		-15.625000
7135		-25.390625
7136		-19.531250
7137		-29.296875
7138		-23.437500
7139		-33.203125
7140		-27.343750
7141		-39.062500
7142		-31.250000
7143		-41.015625
7144		-35.156250
7145		-44.921875
7146		-39.062500
7147		-48.828125
7148		-42.968750
7149		-52.734375
7150		-46.875000
7151		-56.640625
7152		-50.781250
7153		-60.546875
7154		-54.687500
7155		-64.453125
7156		-58.593750
7157		-68.359375
7158		-62.500000
7159		-70.312500
7160		-64.453125
7161		-76.171875
7162		-68.359375
7163		-78.125000
7164		-72.265625
7165		-82.031250
7166		-76.171875
7167		-83.984375
7168		-80.078125
7169		-87.890625
7170		-83.984375
7171		-93.750000
7172		-85.937500
7173		-93.750000
7174		-89.843750
7175		-97.656250
7176		-91.796875
7177		-101.562500
7178		-95.703125
7179		-103.515625
7180		-99.609375
7181		-107.421875
7182		-101.562500
7183		-111.328125
7184		-105.468750
7185		-113.281250
7186		-107.421875
7187		-115.234375
7188		-111.328125
7189		-119.140625
7190		-113.281250
7191		-121.093750
7192		-115.234375
7193		-125.000000
7194		-119.140625
7195		-125.000000
7196		-121.093750
7197		-128.906250
7198		-125.000000
7199		-130.859375
7200		-126.953125
7201		-132.812500
7202		-126.953125
7203		-134.765625
7204		-130.859375
7205		-136.718750
7206		-132.812500
7207		-138.671875
7208		-132.812500
7209		-140.625000
7210		-134.765625
7211		-140.625000
7212		-136.718750
7213		-142.578125
7214		-138.671875
7215		-144.531250
7216		-140.625000
7217		-146.484375
7218		-140.625000
7219		-146.484375
7220		-142.578125
7221		-148.437500
7222		-144.531250
7223		-148.437500
7224		-144.531250
7225		-150.390625
7226		-146.484375
7227		-150.390625
7228		-146.484375
7229		-150.390625
7230		-148.437500
7231		-150.390625
7232		-148.437500
7233		-152.343750
7234		-148.437500
7235		-152.343750
7236		-148.437500
7237		-152.343750
7238		-150.390625
7239		-152.343750
7240		-148.437500
7241		-152.343750
7242		-150.390625
7243		-152.343750
7244		-148.437500
7245		-152.343750
7246		-148.437500
7247		-152.343750
7248		-148.437500
7249		-150.390625
7250		-146.484375
7251		-150.390625
7252		-146.484375
7253		-148.437500
7254		-146.484375
7255		-148.437500
7256		-146.484375
7257		-148.437500
7258		-144.531250
7259		-146.484375
7260		-142.578125
7261		-144.531250
7262		-142.578125
7263		-144.531250
7264		-140.625000
7265		-142.578125
7266		-138.671875
7267		-140.625000
7268		-136.718750
7269		-138.671875
7270		-134.765625
7271		-138.671875
7272		-132.812500
7273		-134.765625
7274		-130.859375
7275		-134.765625
7276		-128.906250
7277		-132.812500
7278		-126.953125
7279		-128.906250
7280		-125.000000
7281		-126.953125
7282		-121.093750
7283		-125.000000
7284		-119.140625
7285		-123.046875
7286		-117.187500
7287		-119.140625
7288		-115.234375
7289		-117.187500
7290		-111.328125
7291		-113.281250
7292		-109.375000
7293		-111.328125
7294		-105.468750
7295		-109.375000
7296		-103.515625
7297		-105.468750
7298		-99.609375
7299		-101.562500
7300		-97.656250
7301		-97.656250
7302		-91.796875
7303		-95.703125
7304		-89.843750
7305		-91.796875
7306		-85.937500
7307		-87.890625
7308		-83.984375
7309		-85.937500
7310		-80.078125
7311		-82.031250
7312		-76.171875
7313		-78.125000
7314		-72.265625
7315		-76.171875
7316		-68.359375
7317		-70.312500
7318		-64.453125
7319		-68.359375
7320		-62.500000
7321		-64.453125
7322		-58.593750
7323		-60.546875
7324		-54.687500
7325		-56.640625
7326		-50.781250
7327		-52.734375
7328		-46.875000
7329		-48.828125
7330		-42.968750
7331		-44.921875
7332		-39.062500
7333		-41.015625
7334		-35.156250
7335		-37.109375
7336		-31.250000
7337		-33.203125
7338		-27.343750
7339		-29.296875
7340		-23.437500
7341		-25.390625
7342		-19.531250
7343		-21.484375
7344		-15.625000
7345		-17.578125
7346		-11.718750
7347		-11.718750
7348		-7.812500
7349		-7.812500
7350		-1.953125
7351		-5.859375
7352		0.000000
7353		-1.953125
7354		3.906250
7355		3.906250
7356		7.812500
7357		5.859375
7358		11.718750
7359		9.765625
7360		15.625000
7361		13.671875
7362		19.531250
7363		17.578125
7364		23.437500
7365		21.484375
7366		27.343750
7367		25.390625
7368		31.250000
7369		29.296875
7370		35.156250
7371		33.203125
7372		39.062500
7373		37.109375
7374		42.968750
7375		41.015625
7376		46.875000
7377		42.968750
7378		48.828125
7379		46.875000
7380		52.734375
7381		50.781250
7382		56.640625
7383		54.687500
7384		58.593750
7385		56.640625
7386		62.500000
7387		60.546875
7388		66.406250
7389		64.453125
7390		68.359375
7391		66.406250
7392		72.265625
7393		70.312500
7394		76.171875
7395		74.218750
7396		78.125000
7397		76.171875
7398		82.031250
7399		76.171875
7400		83.984375
7401		82.031250
7402		87.890625
7403		83.984375
7404		89.843750
7405		87.890625
7406		91.796875
7407		89.843750
7408		95.703125
7409		91.796875
7410		99.609375
7411		95.703125
7412		101.562500
7413		95.703125
7414		101.562500
7415		99.609375
7416		105.468750
7417		101.562500
7418		109.375000
7419		105.468750
7420		109.375000
7421		107.421875
7422		111.328125
7423		109.375000
7424		113.281250
7425		109.375000
7426		115.234375
7427		111.328125
7428		117.187500
7429		113.281250
7430		119.140625
7431		117.187500
7432		121.093750
7433		117.187500
7434		123.046875
7435		119.140625
7436		125.000000
7437		121.093750
7438		125.000000
7439		123.046875
7440		126.953125
7441		123.046875
7442		128.906250
7443		125.000000
7444		130.859375
7445		125.000000
7446		132.812500
7447		125.000000
7448		132.812500
7449		126.953125
7450		134.765625
7451		128.906250
7452		134.765625
7453		128.906250
7454		134.765625
7455		130.859375
7456		134.765625
7457		130.859375
7458		136.718750
7459		130.859375
7460		138.671875
7461		132.812500
7462		138.671875
7463		132.812500
7464		138.671875
7465		132.812500
7466		138.671875
7467		132.812500
7468		138.671875
7469		132.812500
7470		140.625000
7471		136.718750
7472		138.671875
7473		136.718750
7474		138.671875
7475		134.765625
7476		140.625000
7477		134.765625
7478		140.625000
7479		134.765625
7480		140.625000
7481		132.812500
7482		140.625000
7483		132.812500
7484		138.671875
7485		132.812500
7486		138.671875
7487		132.812500
7488		138.671875
7489		132.812500
7490		136.718750
7491		130.859375
7492		136.718750
7493		130.859375
7494		136.718750
7495		128.906250
7496		136.718750
7497		128.906250
7498		134.765625
7499		126.953125
7500		134.765625
7501		126.953125
7502		132.812500
7503		125.000000
7504		132.812500
7505		126.953125
7506		128.906250
7507		125.000000
7508		128.906250
7509		121.093750
7510		128.906250
7511		121.093750
7512		126.953125
7513		119.140625
7514		126.953125
7515		117.187500
7516		125.000000
7517		117.187500
7518		121.093750
7519		113.281250
7520		119.140625
7521		113.281250
7522		119.140625
7523		111.328125
7524		115.234375
7525		107.421875
7526		113.281250
7527		105.468750
7528		113.281250
7529		103.515625
7530		109.375000
7531		101.562500
7532		109.375000
7533		99.609375
7534		105.468750
7535		97.656250
7536		103.515625
7537		95.703125
7538		101.562500
7539		93.750000
7540		97.656250
7541		89.843750
7542		95.703125
7543		87.890625
7544		93.750000
7545		83.984375
7546		89.843750
7547		80.078125
7548		87.890625
7549		76.171875
7550		85.937500
7551		74.218750
7552		82.031250
7553		72.265625
7554		78.125000
7555		70.312500
7556		74.218750
7557		66.406250
7558		72.265625
7559		62.500000
7560		68.359375
7561		58.593750
7562		66.406250
7563		56.640625
7564		62.500000
7565		52.734375
7566		60.546875
7567		48.828125
7568		56.640625
7569		44.921875
7570		52.734375
7571		42.968750
7572		48.828125
7573		39.062500
7574		44.921875
7575		35.156250
7576		41.015625
7577		31.250000
7578		39.062500
7579		27.343750
7580		35.156250
7581		23.437500
7582		31.250000
7583		17.578125
7584		27.343750
7585		15.625000
7586		23.437500
7587		13.671875
7588		21.484375
7589		9.765625
7590		15.625000
7591		5.859375
7592		11.718750
7593		0.000000
7594		9.765625
7595		-3.906250
7596		5.859375
7597		-7.812500
7598		1.953125
7599		-11.718750
7600		-3.906250
7601		-13.671875
7602		-7.812500
7603		-19.531250
7604		-9.765625
7605		-21.484375
7606		-15.625000
7607		-25.390625
7608		-19.531250
7609		-31.250000
7610		-23.437500
7611		-35.156250
7612		-25.390625
7613		-39.062500
7614		-31.250000
7615		-42.968750
7616		-35.156250
7617		-46.875000
7618		-37.109375
7619		-50.781250
7620		-41.015625
7621		-52.734375
7622		-46.875000
7623		-56.640625
7624		-50.781250
7625		-60.546875
7626		-54.687500
7627		-64.453125
7628		-56.640625
7629		-70.312500
7630		-60.546875
7631		-72.265625
7632		-64.453125
7633		-76.171875
7634		-66.406250
7635		-80.078125
7636		-70.312500
7637		-82.031250
7638		-74.218750
7639		-83.984375
7640		-80.078125
7641		-87.890625
7642		-82.031250
7643		-91.796875
7644		-85.937500
7645		-95.703125
7646		-87.890625
7647		-97.656250
7648		-89.843750
7649		-101.562500
7650		-93.750000
7651		-105.468750
7652		-97.656250
7653		-107.421875
7654		-99.609375
7655		-109.375000
7656		-103.515625
7657		-111.328125
7658		-107.421875
7659		-117.187500
7660		-109.375000
7661		-119.140625
7662		-111.328125
7663		-121.093750
7664		-113.281250
7665		-123.046875
7666		-115.234375
7667		-126.953125
7668		-119.140625
7669		-128.906250
7670		-121.093750
7671		-128.906250
7672		-123.046875
7673		-130.859375
7674		-126.953125
7675		-132.812500
7676		-128.906250
7677		-138.671875
7678		-130.859375
7679		-140.625000
7680		-130.859375
7681		-140.625000
7682		-134.765625
7683		-142.578125
7684		-134.765625
7685		-144.531250
7686		-136.718750
7687		-144.531250
7688		-138.671875
7689		-144.531250
7690		-140.625000
7691		-146.484375
7692		-142.578125
7693		-148.437500
7694		-142.578125
7695		-150.390625
7696		-142.578125
7697		-150.390625
7698		-144.531250
7699		-152.343750
7700		-144.531250
7701		-152.343750
7702		-146.484375
7703		-152.343750
7704		-146.484375
7705		-152.343750
7706		-146.484375
7707		-150.390625
7708		-148.437500
7709		-152.343750
7710		-148.437500
7711		-154.296875
7712		-146.484375
7713		-154.296875
7714		-146.484375
7715		-152.343750
7716		-146.484375
7717		-154.296875
7718		-146.484375
7719		-152.343750
7720		-146.484375
7721		-152.343750
7722		-144.531250
7723		-148.437500
7724		-146.484375
7725		-148.437500
7726		-146.484375
7727		-150.390625
7728		-142.578125
7729		-148.437500
7730		-142.578125
7731		-148.437500
7732		-140.625000
7733		-146.484375
7734		-138.671875
7735		-144.531250
7736		-138.671875
7737		-142.578125
7738		-136.718750
7739		-142.578125
7740		-136.718750
7741		-138.671875
7742		-134.765625
7743		-136.718750
7744		-130.859375
7745		-136.718750
7746		-128.906250
7747		-134.765625
7748		-126.953125
7749		-132.812500
7750		-125.000000
7751		-130.859375
7752		-123.046875
7753		-128.906250
7754		-121.093750
7755		-125.000000
7756		-119.140625
7757		-121.093750
7758		-117.187500
7759		-119.140625
7760		-115.234375
7761		-117.187500
7762		-111.328125
7763		-115.234375
7764		-107.421875
7765		-111.328125
7766		-103.515625
7767		-109.375000
7768		-101.562500
7769		-105.468750
7770		-97.656250
7771		-103.515625
7772		-93.750000
7773		-99.609375
7774		-93.750000
7775		-95.703125
7776		-89.843750
7777		-91.796875
7778		-85.937500
7779		-91.796875
7780		-82.031250
7781		-85.937500
7782		-78.125000
7783		-82.031250
7784		-74.218750
7785		-80.078125
7786		-70.312500
7787		-76.171875
7788		-66.406250
7789		-72.265625
7790		-64.453125
7791		-66.406250
7792		-60.546875
7793		-62.500000
7794		-56.640625
7795		-60.546875
7796		-52.734375
7797		-56.640625
7798		-46.875000
7799		-52.734375
7800		-44.921875
7801		-50.781250
7802		-39.062500
7803		-44.921875
7804		-37.109375
7805		-41.015625
7806		-33.203125
7807		-35.156250
7808		-29.296875
7809		-31.250000
7810		-25.390625
7811		-27.343750
7812		-21.484375
7813		-25.390625
7814		-17.578125
7815		-21.484375
7816		-13.671875
7817		-17.578125
7818		-7.812500
7819		-13.671875
7820		-3.906250
7821		-9.765625
7822		0.000000
7823		-5.859375
7824		1.953125
7825		0.000000
7826		5.859375
7827		3.906250
7828		11.718750
7829		7.812500
7830		13.671875
7831		9.765625
7832		19.531250
7833		13.671875
7834		21.484375
7835		17.578125
7836		27.343750
7837		21.484375
7838		29.296875
7839		25.390625
7840		33.203125
7841		31.250000
7842		35.156250
7843		33.203125
7844		39.062500
7845		37.109375
7846		42.968750
7847		39.062500
7848		46.875000
7849		42.968750
7850		52.734375
7851		46.875000
7852		54.687500
7853		48.828125
7854		56.640625
7855		52.734375
7856		60.546875
7857		56.640625
7858		62.500000
7859		60.546875
7860		66.406250
7861		64.453125
7862		70.312500
7863		66.406250
7864		74.218750
7865		70.312500
7866		78.125000
7867		72.265625
7868		80.078125
7869		76.171875
7870		82.031250
7871		78.125000
7872		85.937500
7873		80.078125
7874		87.890625
7875		85.937500
7876		89.843750
7877		87.890625
7878		91.796875
7879		87.890625
7880		97.656250
7881		91.796875
7882		99.609375
7883		93.750000
7884		101.562500
7885		95.703125
7886		103.515625
7887		97.656250
7888		105.468750
7889		101.562500
7890		107.421875
7891		105.468750
7892		109.375000
7893		107.421875
7894		111.328125
7895		109.375000
7896		115.234375
7897		109.375000
7898		117.187500
7899		111.328125
7900		119.140625
7901		113.281250
7902		121.093750
7903		115.234375
7904		121.093750
7905		115.234375
7906		123.046875
7907		117.187500
7908		123.046875
7909		121.093750
7910		125.000000
7911		123.046875
7912		126.953125
7913		121.093750
7914		128.906250
7915		123.046875
7916		128.906250
7917		125.000000
7918		130.859375
7919		125.000000
7920		132.812500
7921		126.953125
7922		132.812500
7923		126.953125
7924		134.765625
7925		130.859375
7926		132.812500
7927		130.859375
7928		134.765625
7929		128.906250
7930		136.718750
7931		130.859375
7932		136.718750
7933		130.859375
7934		138.671875
7935		130.859375
7936		136.718750
7937		130.859375
7938		138.671875
7939		130.859375
7940		138.671875
7941		134.765625
7942		136.718750
7943		134.765625
7944		136.718750
7945		132.812500
7946		138.671875
7947		132.812500
7948		138.671875
7949		132.812500
7950		138.671875
7951		132.812500
7952		138.671875
7953		130.859375
7954		138.671875
7955		130.859375
7956		138.671875
7957		132.812500
7958		136.718750
7959		132.812500
7960		134.765625
7961		132.812500
7962		134.765625
7963		128.906250
7964		136.718750
7965		128.906250
7966		134.765625
7967		126.953125
7968		134.765625
7969		126.953125
7970		132.812500
7971		125.000000
7972		132.812500
7973		125.000000
7974		130.859375
7975		125.000000
7976		128.906250
7977		125.000000
7978		126.953125
7979		119.140625
7980		126.953125
7981		119.140625
7982		126.953125
7983		117.187500
7984		125.000000
7985		117.187500
7986		123.046875
7987		115.234375
7988		121.093750
7989		113.281250
7990		119.140625
7991		111.328125
7992		119.140625
7993		111.328125
7994		115.234375
7995		107.421875
7996		113.281250
7997		105.468750
7998		113.281250
7999		101.562500
8000		111.328125
8001		101.562500
8002		107.421875
8003		97.656250
8004		105.468750
8005		97.656250
8006		103.515625
8007		93.750000
8008		101.562500
8009		93.750000
8010		97.656250
8011		89.843750
8012		93.750000
8013		85.937500
8014		93.750000
8015		82.031250
8016		91.796875
8017		80.078125
8018		87.890625
8019		76.171875
8020		85.937500
8021		74.218750
8022		82.031250
8023		72.265625
8024		80.078125
8025		70.312500
8026		74.218750
8027		66.406250
8028		72.265625
8029		60.546875
8030		68.359375
8031		58.593750
8032		66.406250
8033		56.640625
8034		62.500000
8035		52.734375
8036		60.546875
8037		48.828125
8038		56.640625
8039		44.921875
8040		52.734375
8041		42.968750
8042		48.828125
8043		39.062500
8044		44.921875
8045		35.156250
8046		41.015625
8047		31.250000
8048		39.062500
8049		27.343750
8050		35.156250
8051		23.437500
8052		31.250000
8053		19.531250
8054		27.343750
8055		15.625000
8056		23.437500
8057		11.718750
8058		21.484375
8059		9.765625
8060		15.625000
8061		5.859375
8062		11.718750
8063		0.000000
8064		7.812500
8065		-3.906250
8066		5.859375
8067		-7.812500
8068		1.953125
8069		-11.718750
8070		-3.906250
8071		-15.625000
8072		-7.812500
8073		-19.531250
8074		-9.765625
8075		-21.484375
8076		-13.671875
8077		-25.390625
8078		-19.531250
8079		-31.250000
8080		-23.437500
8081		-35.156250
8082		-27.343750
8083		-41.015625
8084		-29.296875
8085		-42.968750
8086		-35.156250
8087		-46.875000
8088		-37.109375
8089		-48.828125
8090		-41.015625
8091		-52.734375
8092		-44.921875
8093		-56.640625
8094		-50.781250
8095		-60.546875
8096		-54.687500
8097		-64.453125
8098		-58.593750
8099		-68.359375
8100		-60.546875
8101		-72.265625
8102		-64.453125
8103		-76.171875
8104		-68.359375
8105		-78.125000
8106		-72.265625
8107		-82.031250
8108		-76.171875
8109		-83.984375
8110		-78.125000
8111		-87.890625
8112		-83.984375
8113		-93.750000
8114		-87.890625
8115		-95.703125
8116		-87.890625
8117		-99.609375
8118		-91.796875
8119		-103.515625
8120		-93.750000
8121		-107.421875
8122		-97.656250
8123		-109.375000
8124		-101.562500
8125		-111.328125
8126		-103.515625
8127		-113.281250
8128		-109.375000
8129		-115.234375
8130		-111.328125
8131		-119.140625
8132		-113.281250
8133		-121.093750
8134		-115.234375
8135		-125.000000
8136		-117.187500
8137		-128.906250
8138		-121.093750
8139		-130.859375
8140		-123.046875
8141		-132.812500
8142		-125.000000
8143		-132.812500
8144		-128.906250
8145		-134.765625
8146		-130.859375
8147		-138.671875
8148		-132.812500
8149		-140.625000
8150		-134.765625
8151		-142.578125
8152		-134.765625
8153		-144.531250
8154		-136.718750
8155		-144.531250
8156		-138.671875
8157		-146.484375
8158		-140.625000
8159		-146.484375
8160		-142.578125
8161		-148.437500
8162		-144.531250
8163		-150.390625
8164		-144.531250
8165		-152.343750
8166		-144.531250
8167		-154.296875
8168		-146.484375
8169		-154.296875
8170		-146.484375
8171		-154.296875
8172		-148.437500
8173		-154.296875
8174		-148.437500
8175		-156.250000
8176		-148.437500
8177		-154.296875
8178		-150.390625
8179		-154.296875
8180		-150.390625
8181		-156.250000
8182		-150.390625
8183		-156.250000
8184		-148.437500
8185		-156.250000
8186		-148.437500
8187		-156.250000
8188		-148.437500
8189		-154.296875
8190		-148.437500
8191		-154.296875
8192		-148.437500
8193		-154.296875
8194		-148.437500
8195		-150.390625
8196		-148.437500
8197		-150.390625
8198		-146.484375
8199		-152.343750
8200		-144.531250
8201		-150.390625
8202		-142.578125
8203		-150.390625
8204		-142.578125
8205		-148.437500
8206		-140.625000
8207		-146.484375
8208		-140.625000
8209		-144.531250
8210		-138.671875
8211		-142.578125
8212		-138.671875
8213		-138.671875
8214		-136.718750
8215		-140.625000
8216		-132.812500
8217		-138.671875
8218		-130.859375
8219		-136.718750
8220		-128.906250
8221		-134.765625
8222		-125.000000
8223		-130.859375
8224		-123.046875
8225		-128.906250
8226		-121.093750
8227		-125.000000
8228		-121.093750
8229		-121.093750
8230		-117.187500
8231		-121.093750
8232		-113.281250
8233		-119.140625
8234		-111.328125
8235		-115.234375
8236		-107.421875
8237		-113.281250
8238		-103.515625
8239		-109.375000
8240		-101.562500
8241		-107.421875
8242		-97.656250
8243		-103.515625
8244		-97.656250
8245		-97.656250
8246		-93.750000
8247		-95.703125
8248		-89.843750
8249		-93.750000
8250		-83.984375
8251		-89.843750
8252		-82.031250
8253		-87.890625
8254		-78.125000
8255		-83.984375
8256		-74.218750
8257		-78.125000
8258		-70.312500
8259		-76.171875
8260		-68.359375
8261		-70.312500
8262		-64.453125
8263		-66.406250
8264		-60.546875
8265		-62.500000
8266		-54.687500
8267		-60.546875
8268		-50.781250
8269		-56.640625
8270		-48.828125
8271		-52.734375
8272		-44.921875
8273		-48.828125
8274		-39.062500
8275		-44.921875
8276		-35.156250
8277		-41.015625
8278		-33.203125
8279		-35.156250
8280		-29.296875
8281		-31.250000
8282		-23.437500
8283		-29.296875
8284		-19.531250
8285		-25.390625
8286		-15.625000
8287		-21.484375
8288		-11.718750
8289		-17.578125
8290		-7.812500
8291		-13.671875
8292		-5.859375
8293		-9.765625
8294		-1.953125
8295		-3.906250
8296		1.953125
8297		0.000000
8298		5.859375
8299		1.953125
8300		9.765625
8301		5.859375
8302		15.625000
8303		9.765625
8304		19.531250
8305		13.671875
8306		23.437500
8307		17.578125
8308		25.390625
8309		21.484375
8310		29.296875
8311		25.390625
8312		31.250000
8313		31.250000
8314		35.156250
8315		33.203125
8316		41.015625
8317		35.156250
8318		42.968750
8319		39.062500
8320		48.828125
8321		42.968750
8322		50.781250
8323		46.875000
8324		54.687500
8325		48.828125
8326		58.593750
8327		54.687500
8328		60.546875
8329		58.593750
8330		62.500000
8331		62.500000
8332		66.406250
8333		62.500000
8334		70.312500
8335		66.406250
8336		74.218750
8337		68.359375
8338		76.171875
8339		72.265625
8340		80.078125
8341		74.218750
8342		83.984375
8343		78.125000
8344		85.937500
8345		82.031250
8346		85.937500
8347		85.937500
8348		89.843750
8349		85.937500
8350		93.750000
8351		89.843750
8352		95.703125
8353		89.843750
8354		97.656250
8355		93.750000
8356		101.562500
8357		95.703125
8358		103.515625
8359		99.609375
8360		105.468750
8361		101.562500
8362		105.468750
8363		105.468750
8364		107.421875
8365		105.468750
8366		111.328125
8367		107.421875
8368		113.281250
8369		109.375000
8370		115.234375
8371		111.328125
8372		117.187500
8373		111.328125
8374		119.140625
8375		113.281250
8376		121.093750
8377		115.234375
8378		123.046875
8379		119.140625
8380		123.046875
8381		121.093750
8382		125.000000
8383		121.093750
8384		126.953125
8385		121.093750
8386		128.906250
8387		123.046875
8388		128.906250
8389		123.046875
8390		130.859375
8391		125.000000
8392		132.812500
8393		125.000000
8394		132.812500
8395		126.953125
8396		132.812500
8397		130.859375
8398		132.812500
8399		128.906250
8400		134.765625
8401		128.906250
8402		136.718750
8403		130.859375
8404		136.718750
8405		130.859375
8406		136.718750
8407		130.859375
8408		136.718750
8409		130.859375
8410		136.718750
8411		130.859375
8412		136.718750
8413		134.765625
8414		136.718750
8415		132.812500
8416		136.718750
8417		130.859375
8418		138.671875
8419		132.812500
8420		138.671875
8421		130.859375
8422		138.671875
8423		130.859375
8424		138.671875
8425		130.859375
8426		138.671875
8427		130.859375
8428		136.718750
8429		132.812500
8430		134.765625
8431		132.812500
8432		134.765625
8433		128.906250
8434		134.765625
8435		128.906250
8436		134.765625
8437		126.953125
8438		134.765625
8439		126.953125
8440		132.812500
8441		125.000000
8442		132.812500
8443		125.000000
8444		130.859375
8445		125.000000
8446		128.906250
8447		125.000000
8448		126.953125
8449		121.093750
8450		126.953125
8451		119.140625
8452		126.953125
8453		117.187500
8454		125.000000
8455		117.187500
8456		123.046875
8457		115.234375
8458		123.046875
8459		113.281250
8460		121.093750
8461		113.281250
8462		119.140625
8463		111.328125
8464		115.234375
8465		109.375000
8466		113.281250
8467		105.468750
8468		113.281250
8469		103.515625
8470		111.328125
8471		101.562500
8472		109.375000
8473		99.609375
8474		107.421875
8475		97.656250
8476		105.468750
8477		95.703125
8478		101.562500
8479		93.750000
8480		99.609375
8481		91.796875
8482		95.703125
8483		87.890625
8484		93.750000
8485		83.984375
8486		91.796875
8487		80.078125
8488		89.843750
8489		80.078125
8490		85.937500
8491		76.171875
8492		83.984375
8493		72.265625
8494		80.078125
8495		72.265625
8496		78.125000
8497		68.359375
8498		72.265625
8499		64.453125
8500		70.312500
8501		60.546875
8502		68.359375
8503		56.640625
8504		64.453125
8505		54.687500
8506		62.500000
8507		50.781250
8508		58.593750
8509		46.875000
8510		54.687500
8511		42.968750
8512		52.734375
8513		41.015625
8514		46.875000
8515		37.109375
8516		42.968750
8517		31.250000
8518		39.062500
8519		29.296875
8520		37.109375
8521		25.390625
8522		33.203125
8523		21.484375
8524		29.296875
8525		17.578125
8526		25.390625
8527		13.671875
8528		21.484375
8529		11.718750
8530		19.531250
8531		7.812500
8532		13.671875
8533		1.953125
8534		9.765625
8535		-1.953125
8536		7.812500
8537		-5.859375
8538		3.906250
8539		-9.765625
8540		-1.953125
8541		-13.671875
8542		-3.906250
8543		-17.578125
8544		-9.765625
8545		-19.531250
8546		-11.718750
8547		-23.437500
8548		-17.578125
8549		-27.343750
8550		-21.484375
8551		-33.203125
8552		-25.390625
8553		-37.109375
8554		-27.343750
8555		-41.015625
8556		-31.250000
8557		-44.921875
8558		-35.156250
8559		-48.828125
8560		-39.062500
8561		-52.734375
8562		-42.968750
8563		-54.687500
8564		-48.828125
8565		-58.593750
8566		-52.734375
8567		-62.500000
8568		-56.640625
8569		-68.359375
8570		-58.593750
8571		-70.312500
8572		-62.500000
8573		-74.218750
8574		-66.406250
8575		-78.125000
8576		-68.359375
8577		-82.031250
8578		-74.218750
8579		-83.984375
8580		-76.171875
8581		-85.937500
8582		-82.031250
8583		-89.843750
8584		-83.984375
8585		-95.703125
8586		-85.937500
8587		-99.609375
8588		-89.843750
8589		-99.609375
8590		-91.796875
8591		-105.468750
8592		-97.656250
8593		-107.421875
8594		-99.609375
8595		-109.375000
8596		-101.562500
8597		-111.328125
8598		-105.468750
8599		-115.234375
8600		-109.375000
8601		-119.140625
8602		-111.328125
8603		-121.093750
8604		-113.281250
8605		-123.046875
8606		-117.187500
8607		-126.953125
8608		-119.140625
8609		-128.906250
8610		-121.093750
8611		-130.859375
8612		-123.046875
8613		-130.859375
8614		-125.000000
8615		-134.765625
8616		-128.906250
8617		-136.718750
8618		-132.812500
8619		-138.671875
8620		-132.812500
8621		-142.578125
8622		-134.765625
8623		-142.578125
8624		-136.718750
8625		-146.484375
8626		-138.671875
8627		-146.484375
8628		-138.671875
8629		-148.437500
8630		-140.625000
8631		-146.484375
8632		-144.531250
8633		-148.437500
8634		-144.531250
8635		-152.343750
8636		-144.531250
8637		-152.343750
8638		-146.484375
8639		-152.343750
8640		-146.484375
8641		-154.296875
8642		-148.437500
8643		-154.296875
8644		-148.437500
8645		-156.250000
8646		-148.437500
8647		-154.296875
8648		-150.390625
8649		-154.296875
8650		-150.390625
8651		-156.250000
8652		-150.390625
8653		-156.250000
8654		-150.390625
8655		-156.250000
8656		-150.390625
8657		-156.250000
8658		-150.390625
8659		-156.250000
8660		-148.437500
8661		-154.296875
8662		-148.437500
8663		-154.296875
8664		-148.437500
8665		-152.343750
8666		-148.437500
8667		-150.390625
8668		-148.437500
8669		-152.343750
8670		-144.531250
8671		-150.390625
8672		-144.531250
8673		-150.390625
8674		-142.578125
8675		-150.390625
8676		-142.578125
8677		-148.437500
8678		-140.625000
8679		-146.484375
8680		-138.671875
8681		-144.531250
8682		-138.671875
8683		-140.625000
8684		-136.718750
8685		-140.625000
8686		-134.765625
8687		-138.671875
8688		-132.812500
8689		-136.718750
8690		-130.859375
8691		-134.765625
8692		-126.953125
8693		-132.812500
8694		-125.000000
8695		-130.859375
8696		-123.046875
8697		-128.906250
8698		-121.093750
8699		-123.046875
8700		-119.140625
8701		-121.093750
8702		-115.234375
8703		-121.093750
8704		-113.281250
8705		-117.187500
8706		-109.375000
8707		-115.234375
8708		-105.468750
8709		-111.328125
8710		-103.515625
8711		-109.375000
8712		-99.609375
8713		-105.468750
8714		-97.656250
8715		-101.562500
8716		-95.703125
8717		-97.656250
8718		-91.796875
8719		-95.703125
8720		-87.890625
8721		-91.796875
8722		-83.984375
8723		-87.890625
8724		-80.078125
8725		-83.984375
8726		-78.125000
8727		-82.031250
8728		-74.218750
8729		-78.125000
8730		-70.312500
8731		-74.218750
8732		-68.359375
8733		-68.359375
8734		-62.500000
8735		-64.453125
8736		-58.593750
8737		-62.500000
8738		-54.687500
8739		-58.593750
8740		-50.781250
8741		-54.687500
8742		-46.875000
8743		-52.734375
8744		-42.968750
8745		-46.875000
8746		-39.062500
8747		-44.921875
8748		-37.109375
8749		-37.109375
8750		-33.203125
8751		-33.203125
8752		-29.296875
8753		-31.250000
8754		-21.484375
8755		-29.296875
8756		-19.531250
8757		-23.437500
8758		-15.625000
8759		-21.484375
8760		-9.765625
8761		-15.625000
8762		-5.859375
8763		-11.718750
8764		-3.906250
8765		-7.812500
8766		-1.953125
8767		-1.953125
8768		3.906250
8769		0.000000
8770		9.765625
8771		3.906250
8772		11.718750
8773		5.859375
8774		17.578125
8775		11.718750
8776		19.531250
8777		13.671875
8778		23.437500
8779		19.531250
8780		27.343750
8781		23.437500
8782		29.296875
8783		27.343750
8784		33.203125
8785		31.250000
8786		39.062500
8787		33.203125
8788		42.968750
8789		37.109375
8790		44.921875
8791		41.015625
8792		48.828125
8793		44.921875
8794		52.734375
8795		48.828125
8796		56.640625
8797		50.781250
8798		58.593750
8799		56.640625
8800		60.546875
8801		58.593750
8802		64.453125
8803		60.546875
8804		68.359375
8805		64.453125
8806		74.218750
8807		68.359375
8808		76.171875
8809		70.312500
8810		78.125000
8811		74.218750
8812		82.031250
8813		76.171875
8814		83.984375
8815		78.125000
8816		85.937500
8817		83.984375
8818		87.890625
8819		85.937500
8820		93.750000
8821		87.890625
8822		93.750000
8823		89.843750
8824		97.656250
8825		91.796875
8826		99.609375
8827		93.750000
8828		103.515625
8829		97.656250
8830		105.468750
8831		99.609375
8832		107.421875
8833		103.515625
8834		107.421875
8835		105.468750
8836		109.375000
8837		105.468750
8838		113.281250
8839		107.421875
8840		115.234375
8841		109.375000
8842		117.187500
8843		111.328125
8844		117.187500
8845		113.281250
8846		121.093750
8847		115.234375
8848		123.046875
8849		119.140625
8850		121.093750
8851		119.140625
8852		123.046875
8853		121.093750
8854		126.953125
8855		121.093750
8856		128.906250
8857		121.093750
8858		128.906250
8859		123.046875
8860		130.859375
8861		125.000000
8862		130.859375
8863		125.000000
8864		132.812500
8865		126.953125
8866		132.812500
8867		128.906250
8868		132.812500
8869		130.859375
8870		132.812500
8871		128.906250
8872		134.765625
8873		128.906250
8874		136.718750
8875		130.859375
8876		136.718750
8877		130.859375
8878		136.718750
8879		130.859375
8880		138.671875
8881		130.859375
8882		138.671875
8883		132.812500
8884		136.718750
8885		132.812500
8886		136.718750
8887		132.812500
8888		138.671875
8889		130.859375
8890		138.671875
8891		132.812500
8892		138.671875
8893		130.859375
8894		138.671875
8895		130.859375
8896		138.671875
8897		130.859375
8898		136.718750
8899		130.859375
8900		136.718750
8901		132.812500
8902		134.765625
8903		130.859375
8904		134.765625
8905		128.906250
8906		134.765625
8907		128.906250
8908		134.765625
8909		126.953125
8910		134.765625
8911		126.953125
8912		134.765625
8913		125.000000
8914		132.812500
8915		125.000000
8916		130.859375
8917		125.000000
8918		128.906250
8919		123.046875
8920		126.953125
8921		121.093750
8922		126.953125
8923		119.140625
8924		126.953125
8925		117.187500
8926		125.000000
8927		115.234375
8928		123.046875
8929		115.234375
8930		121.093750
8931		113.281250
8932		119.140625
8933		113.281250
8934		117.187500
8935		111.328125
8936		115.234375
8937		107.421875
8938		113.281250
8939		105.468750
8940		111.328125
8941		103.515625
8942		109.375000
8943		101.562500
8944		107.421875
8945		99.609375
8946		105.468750
8947		97.656250
8948		103.515625
8949		95.703125
8950		99.609375
8951		93.750000
8952		97.656250
8953		89.843750
8954		93.750000
8955		85.937500
8956		93.750000
8957		83.984375
8958		91.796875
8959		80.078125
8960		87.890625
8961		78.125000
8962		83.984375
8963		74.218750
8964		82.031250
8965		72.265625
8966		80.078125
8967		70.312500
8968		74.218750
8969		66.406250
8970		72.265625
8971		62.500000
8972		68.359375
8973		58.593750
8974		66.406250
8975		54.687500
8976		64.453125
8977		52.734375
8978		60.546875
8979		48.828125
8980		56.640625
8981		44.921875
8982		54.687500
8983		42.968750
8984		48.828125
8985		39.062500
8986		44.921875
8987		35.156250
8988		41.015625
8989		29.296875
8990		39.062500
8991		27.343750
8992		35.156250
8993		23.437500
8994		31.250000
8995		19.531250
8996		27.343750
8997		15.625000
8998		23.437500
8999		11.718750
9000		19.531250
9001		9.765625
9002		15.625000
9003		5.859375
9004		11.718750
9005		0.000000
9006		7.812500
9007		-3.906250
9008		5.859375
9009		-7.812500
9010		1.953125
9011		-11.718750
9012		-1.953125
9013		-15.625000
9014		-5.859375
9015		-19.531250
9016		-9.765625
9017		-21.484375
9018		-15.625000
9019		-25.390625
9020		-19.531250
9021		-31.250000
9022		-23.437500
9023		-35.156250
9024		-27.343750
9025		-39.062500
9026		-31.250000
9027		-42.968750
9028		-33.203125
9029		-46.875000
9030		-37.109375
9031		-50.781250
9032		-41.015625
9033		-52.734375
9034		-46.875000
9035		-56.640625
9036		-50.781250
9037		-60.546875
9038		-54.687500
9039		-64.453125
9040		-56.640625
9041		-68.359375
9042		-60.546875
9043		-72.265625
9044		-64.453125
9045		-74.218750
9046		-68.359375
9047		-80.078125
9048		-70.312500
9049		-83.984375
9050		-74.218750
9051		-83.984375
9052		-80.078125
9053		-87.890625
9054		-82.031250
9055		-93.750000
9056		-85.937500
9057		-95.703125
9058		-87.890625
9059		-99.609375
9060		-91.796875
9061		-101.562500
9062		-93.750000
9063		-105.468750
9064		-97.656250
9065		-109.375000
9066		-99.609375
9067		-109.375000
9068		-103.515625
9069		-113.281250
9070		-109.375000
9071		-119.140625
9072		-111.328125
9073		-121.093750
9074		-111.328125
9075		-123.046875
9076		-115.234375
9077		-125.000000
9078		-117.187500
9079		-126.953125
9080		-121.093750
9081		-130.859375
9082		-123.046875
9083		-132.812500
9084		-125.000000
9085		-132.812500
9086		-128.906250
9087		-134.765625
9088		-130.859375
9089		-138.671875
9090		-130.859375
9091		-140.625000
9092		-132.812500
9093		-142.578125
9094		-134.765625
9095		-144.531250
9096		-136.718750
9097		-146.484375
9098		-138.671875
9099		-146.484375
9100		-140.625000
9101		-146.484375
9102		-142.578125
9103		-148.437500
9104		-144.531250
9105		-150.390625
9106		-144.531250
9107		-152.343750
9108		-144.531250
9109		-152.343750
9110		-146.484375
9111		-154.296875
9112		-146.484375
9113		-154.296875
9114		-148.437500
9115		-154.296875
9116		-148.437500
9117		-154.296875
9118		-148.437500
9119		-154.296875
9120		-150.390625
9121		-154.296875
9122		-150.390625
9123		-156.250000
9124		-148.437500
9125		-156.250000
9126		-148.437500
9127		-156.250000
9128		-150.390625
9129		-156.250000
9130		-148.437500
9131		-156.250000
9132		-148.437500
9133		-154.296875
9134		-148.437500
9135		-152.343750
9136		-148.437500
9137		-152.343750
9138		-148.437500
9139		-152.343750
9140		-146.484375
9141		-152.343750
9142		-144.531250
9143		-150.390625
9144		-144.531250
9145		-150.390625
9146		-142.578125
9147		-148.437500
9148		-142.578125
9149		-148.437500
9150		-140.625000
9151		-144.531250
9152		-140.625000
9153		-142.578125
9154		-138.671875
9155		-140.625000
9156		-134.765625
9157		-140.625000
9158		-132.812500
9159		-138.671875
9160		-130.859375
9161		-136.718750
9162		-128.906250
9163		-134.765625
9164		-126.953125
9165		-132.812500
9166		-125.000000
9167		-128.906250
9168		-123.046875
9169		-125.000000
9170		-121.093750
9171		-123.046875
9172		-119.140625
9173		-121.093750
9174		-115.234375
9175		-119.140625
9176		-111.328125
9177		-117.187500
9178		-109.375000
9179		-113.281250
9180		-105.468750
9181		-109.375000
9182		-103.515625
9183		-107.421875
9184		-99.609375
9185		-103.515625
9186		-97.656250
9187		-99.609375
9188		-93.750000
9189		-95.703125
9190		-89.843750
9191		-95.703125
9192		-85.937500
9193		-91.796875
9194		-82.031250
9195		-87.890625
9196		-80.078125
9197		-83.984375
9198		-74.218750
9199		-80.078125
9200		-72.265625
9201		-76.171875
9202		-70.312500
9203		-72.265625
9204		-66.406250
9205		-68.359375
9206		-62.500000
9207		-66.406250
9208		-58.593750
9209		-62.500000
9210		-52.734375
9211		-58.593750
9212		-48.828125
9213		-54.687500
9214		-44.921875
9215		-48.828125
9216		-41.015625
9217		-46.875000
9218		-37.109375
9219		-42.968750
9220		-35.156250
9221		-37.109375
9222		-31.250000
9223		-33.203125
9224		-25.390625
9225		-31.250000
9226		-21.484375
9227		-25.390625
9228		-17.578125
9229		-23.437500
9230		-13.671875
9231		-19.531250
9232		-9.765625
9233		-13.671875
9234		-5.859375
9235		-9.765625
9236		-3.906250
9237		-3.906250
9238		0.000000
9239		0.000000
9240		5.859375
9241		1.953125
9242		9.765625
9243		5.859375
9244		13.671875
9245		7.812500
9246		17.578125
9247		13.671875
9248		21.484375
9249		15.625000
9250		25.390625
9251		19.531250
9252		29.296875
9253		25.390625
9254		31.250000
9255		29.296875
9256		35.156250
9257		33.203125
9258		39.062500
9259		35.156250
9260		42.968750
9261		39.062500
9262		46.875000
9263		41.015625
9264		50.781250
9265		44.921875
9266		52.734375
9267		48.828125
9268		56.640625
9269		52.734375
9270		58.593750
9271		56.640625
9272		62.500000
9273		60.546875
9274		66.406250
9275		60.546875
9276		70.312500
9277		64.453125
9278		74.218750
9279		68.359375
9280		76.171875
9281		72.265625
9282		80.078125
9283		74.218750
9284		82.031250
9285		76.171875
9286		83.984375
9287		82.031250
9288		85.937500
9289		83.984375
9290		89.843750
9291		83.984375
9292		93.750000
9293		87.890625
9294		95.703125
9295		89.843750
9296		97.656250
9297		93.750000
9298		99.609375
9299		95.703125
9300		103.515625
9301		97.656250
9302		105.468750
9303		99.609375
9304		105.468750
9305		103.515625
9306		107.421875
9307		105.468750
9308		111.328125
9309		107.421875
9310		113.281250
9311		107.421875
9312		115.234375
9313		109.375000
9314		117.187500
9315		111.328125
9316		119.140625
9317		113.281250
9318		121.093750
9319		115.234375
9320		121.093750
9321		119.140625
9322		121.093750
9323		119.140625
9324		125.000000
9325		119.140625
9326		126.953125
9327		121.093750
9328		126.953125
9329		121.093750
9330		128.906250
9331		123.046875
9332		130.859375
9333		123.046875
9334		130.859375
9335		125.000000
9336		130.859375
9337		128.906250
9338		130.859375
9339		128.906250
9340		132.812500
9341		128.906250
9342		134.765625
9343		128.906250
9344		134.765625
9345		128.906250
9346		134.765625
9347		130.859375
9348		136.718750
9349		128.906250
9350		136.718750
9351		130.859375
9352		136.718750
9353		130.859375
9354		136.718750
9355		132.812500
9356		134.765625
9357		130.859375
9358		136.718750
9359		130.859375
9360		136.718750
9361		130.859375
9362		136.718750
9363		130.859375
9364		136.718750
9365		130.859375
9366		136.718750
9367		130.859375
9368		136.718750
9369		130.859375
9370		136.718750
9371		130.859375
9372		134.765625
9373		130.859375
9374		132.812500
9375		128.906250
9376		134.765625
9377		126.953125
9378		134.765625
9379		126.953125
9380		132.812500
9381		125.000000
9382		132.812500
9383		125.000000
9384		132.812500
9385		123.046875
9386		130.859375
9387		123.046875
9388		128.906250
9389		123.046875
9390		126.953125
9391		121.093750
9392		126.953125
9393		119.140625
9394		126.953125
9395		117.187500
9396		125.000000
9397		115.234375
9398		123.046875
9399		115.234375
9400		121.093750
9401		113.281250
9402		119.140625
9403		111.328125
9404		117.187500
9405		111.328125
9406		115.234375
9407		107.421875
9408		113.281250
9409		105.468750
9410		113.281250
9411		101.562500
9412		111.328125
9413		99.609375
9414		107.421875
9415		97.656250
9416		105.468750
9417		95.703125
9418		103.515625
9419		93.750000
9420		101.562500
9421		93.750000
9422		97.656250
9423		89.843750
9424		93.750000
9425		85.937500
9426		93.750000
9427		83.984375
9428		91.796875
9429		80.078125
9430		87.890625
9431		78.125000
9432		85.937500
9433		74.218750
9434		83.984375
9435		72.265625
9436		80.078125
9437		70.312500
9438		76.171875
9439		68.359375
9440		72.265625
9441		62.500000
9442		68.359375
9443		58.593750
9444		68.359375
9445		56.640625
9446		64.453125
9447		52.734375
9448		60.546875
9449		48.828125
9450		58.593750
9451		44.921875
9452		54.687500
9453		42.968750
9454		50.781250
9455		41.015625
9456		44.921875
9457		35.156250
9458		41.015625
9459		31.250000
9460		39.062500
9461		27.343750
9462		35.156250
9463		25.390625
9464		33.203125
9465		21.484375
9466		29.296875
9467		15.625000
9468		25.390625
9469		11.718750
9470		21.484375
9471		9.765625
9472		17.578125
9473		5.859375
9474		11.718750
9475		0.000000
9476		9.765625
9477		-3.906250
9478		5.859375
9479		-5.859375
9480		1.953125
9481		-9.765625
9482		-1.953125
9483		-13.671875
9484		-5.859375
9485		-17.578125
9486		-9.765625
9487		-19.531250
9488		-13.671875
9489		-23.437500
9490		-19.531250
9491		-29.296875
9492		-23.437500
9493		-33.203125
9494		-25.390625
9495		-37.109375
9496		-29.296875
9497		-42.968750
9498		-33.203125
9499		-44.921875
9500		-37.109375
9501		-48.828125
9502		-41.015625
9503		-54.687500
9504		-44.921875
9505		-56.640625
9506		-48.828125
9507		-58.593750
9508		-54.687500
9509		-64.453125
9510		-56.640625
9511		-68.359375
9512		-60.546875
9513		-72.265625
9514		-62.500000
9515		-76.171875
9516		-66.406250
9517		-80.078125
9518		-70.312500
9519		-82.031250
9520		-74.218750
9521		-83.984375
9522		-78.125000
9523		-87.890625
9524		-83.984375
9525		-93.750000
9526		-85.937500
9527		-95.703125
9528		-87.890625
9529		-99.609375
9530		-91.796875
9531		-103.515625
9532		-93.750000
9533		-105.468750
9534		-97.656250
9535		-109.375000
9536		-101.562500
9537		-111.328125
9538		-103.515625
9539		-113.281250
9540		-107.421875
9541		-115.234375
9542		-111.328125
9543		-121.093750
9544		-113.281250
9545		-123.046875
9546		-115.234375
9547		-125.000000
9548		-117.187500
9549		-128.906250
9550		-121.093750
9551		-130.859375
9552		-123.046875
9553		-134.765625
9554		-125.000000
9555		-132.812500
9556		-128.906250
9557		-134.765625
9558		-130.859375
9559		-140.625000
9560		-132.812500
9561		-140.625000
9562		-132.812500
9563		-142.578125
9564		-136.718750
9565		-144.531250
9566		-136.718750
9567		-146.484375
9568		-138.671875
9569		-148.437500
9570		-140.625000
9571		-148.437500
9572		-142.578125
9573		-148.437500
9574		-146.484375
9575		-150.390625
9576		-146.484375
9577		-154.296875
9578		-146.484375
9579		-154.296875
9580		-148.437500
9581		-154.296875
9582		-148.437500
9583		-156.250000
9584		-150.390625
9585		-156.250000
9586		-150.390625
9587		-158.203125
9588		-150.390625
9589		-156.250000
9590		-152.343750
9591		-156.250000
9592		-152.343750
9593		-158.203125
9594		-152.343750
9595		-158.203125
9596		-152.343750
9597		-158.203125
9598		-152.343750
9599		-160.156250
9600		-152.343750
9601		-158.203125
9602		-150.390625
9603		-158.203125
9604		-150.390625
9605		-156.250000
9606		-150.390625
9607		-154.296875
9608		-152.343750
9609		-154.296875
9610		-150.390625
9611		-154.296875
9612		-148.437500
9613		-154.296875
9614		-146.484375
9615		-152.343750
9616		-144.531250
9617		-152.343750
9618		-144.531250
9619		-150.390625
9620		-142.578125
9621		-148.437500
9622		-142.578125
9623		-144.531250
9624		-142.578125
9625		-144.531250
9626		-140.625000
9627		-142.578125
9628		-136.718750
9629		-142.578125
9630		-134.765625
9631		-140.625000
9632		-132.812500
9633		-138.671875
9634		-130.859375
9635		-136.718750
9636		-128.906250
9637		-134.765625
9638		-125.000000
9639		-128.906250
9640		-125.000000
9641		-126.953125
9642		-123.046875
9643		-125.000000
9644		-117.187500
9645		-123.046875
9646		-115.234375
9647		-121.093750
9648		-113.281250
9649		-117.187500
9650		-109.375000
9651		-115.234375
9652		-107.421875
9653		-111.328125
9654		-103.515625
9655		-107.421875
9656		-101.562500
9657		-103.515625
9658		-99.609375
9659		-99.609375
9660		-95.703125
9661		-99.609375
9662		-89.843750
9663		-93.750000
9664		-87.890625
9665		-91.796875
9666		-83.984375
9667		-87.890625
9668		-80.078125
9669		-85.937500
9670		-78.125000
9671		-82.031250
9672		-72.265625
9673		-76.171875
9674		-70.312500
9675		-72.265625
9676		-66.406250
9677		-68.359375
9678		-62.500000
9679		-66.406250
9680		-58.593750
9681		-62.500000
9682		-54.687500
9683		-58.593750
9684		-50.781250
9685		-54.687500
9686		-46.875000
9687		-50.781250
9688		-41.015625
9689		-46.875000
9690		-39.062500
9691		-41.015625
9692		-35.156250
9693		-37.109375
9694		-31.250000
9695		-35.156250
9696		-27.343750
9697		-31.250000
9698		-21.484375
9699		-27.343750
9700		-17.578125
9701		-21.484375
9702		-13.671875
9703		-19.531250
9704		-9.765625
9705		-15.625000
9706		-7.812500
9707		-9.765625
9708		-3.906250
9709		-5.859375
9710		0.000000
9711		-1.953125
9712		5.859375
9713		0.000000
9714		7.812500
9715		3.906250
9716		13.671875
9717		7.812500
9718		17.578125
9719		11.718750
9720		21.484375
9721		15.625000
9722		25.390625
9723		19.531250
9724		27.343750
9725		25.390625
9726		31.250000
9727		29.296875
9728		37.109375
9729		31.250000
9730		39.062500
9731		35.156250
9732		42.968750
9733		37.109375
9734		46.875000
9735		41.015625
9736		50.781250
9737		46.875000
9738		52.734375
9739		48.828125
9740		54.687500
9741		52.734375
9742		58.593750
9743		56.640625
9744		60.546875
9745		58.593750
9746		66.406250
9747		60.546875
9748		70.312500
9749		64.453125
9750		72.265625
9751		66.406250
9752		76.171875
9753		70.312500
9754		80.078125
9755		74.218750
9756		82.031250
9757		76.171875
9758		82.031250
9759		82.031250
9760		85.937500
9761		83.984375
9762		89.843750
9763		83.984375
9764		93.750000
9765		87.890625
9766		93.750000
9767		89.843750
9768		97.656250
9769		91.796875
9770		99.609375
9771		93.750000
9772		101.562500
9773		95.703125
9774		103.515625
9775		101.562500
9776		105.468750
9777		103.515625
9778		107.421875
9779		103.515625
9780		111.328125
9781		105.468750
9782		111.328125
9783		107.421875
9784		115.234375
9785		109.375000
9786		115.234375
9787		111.328125
9788		117.187500
9789		111.328125
9790		119.140625
9791		115.234375
9792		119.140625
9793		117.187500
9794		121.093750
9795		117.187500
9796		123.046875
9797		119.140625
9798		125.000000
9799		119.140625
9800		126.953125
9801		121.093750
9802		128.906250
9803		121.093750
9804		128.906250
9805		123.046875
9806		130.859375
9807		125.000000
9808		130.859375
9809		126.953125
9810		130.859375
9811		126.953125
9812		132.812500
9813		126.953125
9814		132.812500
9815		126.953125
9816		134.765625
9817		128.906250
9818		134.765625
9819		128.906250
9820		134.765625
9821		128.906250
9822		134.765625
9823		128.906250
9824		136.718750
9825		132.812500
9826		134.765625
9827		130.859375
9828		134.765625
9829		128.906250
9830		136.718750
9831		128.906250
9832		136.718750
9833		130.859375
9834		136.718750
9835		128.906250
9836		136.718750
9837		128.906250
9838		136.718750
9839		128.906250
9840		134.765625
9841		130.859375
9842		134.765625
9843		130.859375
9844		132.812500
9845		126.953125
9846		134.765625
9847		126.953125
9848		134.765625
9849		125.000000
9850		132.812500
9851		125.000000
9852		132.812500
9853		125.000000
9854		130.859375
9855		123.046875
9856		130.859375
9857		123.046875
9858		130.859375
9859		123.046875
9860		126.953125
9861		121.093750
9862		126.953125
9863		119.140625
9864		125.000000
9865		117.187500
9866		125.000000
9867		117.187500
9868		123.046875
9869		113.281250
9870		121.093750
9871		113.281250
9872		119.140625
9873		111.328125
9874		119.140625
9875		111.328125
9876		115.234375
9877		109.375000
9878		113.281250
9879		105.468750
9880		111.328125
9881		103.515625
9882		111.328125
9883		101.562500
9884		109.375000
9885		99.609375
9886		105.468750
9887		97.656250
9888		103.515625
9889		93.750000
9890		101.562500
9891		93.750000
9892		99.609375
9893		91.796875
9894		95.703125
9895		85.937500
9896		93.750000
9897		83.984375
9898		91.796875
9899		82.031250
9900		89.843750
9901		78.125000
9902		85.937500
9903		76.171875
9904		83.984375
9905		74.218750
9906		80.078125
9907		70.312500
9908		78.125000
9909		68.359375
9910		74.218750
9911		66.406250
9912		70.312500
9913		60.546875
9914		68.359375
9915		56.640625
9916		66.406250
9917		52.734375
9918		62.500000
9919		50.781250
9920		58.593750
9921		48.828125
9922		54.687500
9923		44.921875
9924		52.734375
9925		41.015625
9926		48.828125
9927		37.109375
9928		42.968750
9929		33.203125
9930		41.015625
9931		29.296875
9932		39.062500
9933		25.390625
9934		35.156250
9935		21.484375
9936		29.296875
9937		17.578125
9938		27.343750
9939		15.625000
9940		23.437500
9941		11.718750
9942		19.531250
9943		7.812500
9944		13.671875
9945		3.906250
9946		9.765625
9947		-1.953125
9948		7.812500
9949		-3.906250
9950		3.906250
9951		-7.812500
9952		0.000000
9953		-13.671875
9954		-3.906250
9955		-17.578125
9956		-7.812500
9957		-19.531250
9958		-11.718750
9959		-23.437500
9960		-17.578125
9961		-27.343750
9962		-21.484375
9963		-33.203125
9964		-25.390625
9965		-35.156250
9966		-27.343750
9967		-39.062500
9968		-31.250000
9969		-44.921875
9970		-35.156250
9971		-48.828125
9972		-39.062500
9973		-52.734375
9974		-42.968750
9975		-54.687500
9976		-46.875000
9977		-58.593750
9978		-52.734375
9979		-62.500000
9980		-56.640625
9981		-66.406250
9982		-58.593750
9983		-70.312500
9984		-62.500000
9985		-74.218750
9986		-64.453125
9987		-78.125000
9988		-70.312500
9989		-82.031250
9990		-74.218750
9991		-83.984375
9992		-76.171875
9993		-85.937500
9994		-82.031250
9995		-89.843750
9996		-83.984375
9997		-95.703125
9998		-85.937500
9999		-97.656250
10000		-89.843750
