Channel              :		CH1
Frequency            :		1.061kHz
Period               :		0.942ms
PK-PK                :		320.3mV
Probe attenuation    :		1X
Voltage per ADC value:		0.122070mV
Time interval        :		2.00000us

index		CH1_Voltage(mV)
1		91.796875
2		91.796875
3		99.609375
4		87.890625
5		97.656250
6		83.984375
7		93.750000
8		83.984375
9		89.843750
10		80.078125
11		85.937500
12		76.171875
13		82.031250
14		72.265625
15		80.078125
16		68.359375
17		78.125000
18		66.406250
19		74.218750
20		62.500000
21		70.312500
22		58.593750
23		66.406250
24		54.687500
25		62.500000
26		52.734375
27		58.593750
28		48.828125
29		54.687500
30		44.921875
31		50.781250
32		39.062500
33		48.828125
34		35.156250
35		44.921875
36		31.250000
37		41.015625
38		27.343750
39		37.109375
40		23.437500
41		33.203125
42		21.484375
43		29.296875
44		17.578125
45		23.437500
46		11.718750
47		19.531250
48		7.812500
49		15.625000
50		1.953125
51		11.718750
52		-1.953125
53		7.812500
54		-5.859375
55		3.906250
56		-9.765625
57		0.000000
58		-11.718750
59		-3.906250
60		-15.625000
61		-9.765625
62		-19.531250
63		-13.671875
64		-25.390625
65		-17.578125
66		-29.296875
67		-21.484375
68		-33.203125
69		-25.390625
70		-39.062500
71		-29.296875
72		-42.968750
73		-33.203125
74		-46.875000
75		-37.109375
76		-48.828125
77		-42.968750
78		-54.687500
79		-46.875000
80		-58.593750
81		-50.781250
82		-62.500000
83		-54.687500
84		-66.406250
85		-58.593750
86		-72.265625
87		-62.500000
88		-74.218750
89		-66.406250
90		-80.078125
91		-70.312500
92		-80.078125
93		-72.265625
94		-83.984375
95		-80.078125
96		-91.796875
97		-82.031250
98		-93.750000
99		-83.984375
100		-97.656250
101		-87.890625
102		-101.562500
103		-91.796875
104		-103.515625
105		-95.703125
106		-107.421875
107		-97.656250
108		-109.375000
109		-101.562500
110		-111.328125
111		-107.421875
112		-115.234375
113		-111.328125
114		-119.140625
115		-111.328125
116		-123.046875
117		-113.281250
118		-125.000000
119		-117.187500
120		-128.906250
121		-119.140625
122		-130.859375
123		-123.046875
124		-134.765625
125		-126.953125
126		-134.765625
127		-128.906250
128		-136.718750
129		-132.812500
130		-140.625000
131		-134.765625
132		-144.531250
133		-136.718750
134		-144.531250
135		-136.718750
136		-148.437500
137		-140.625000
138		-148.437500
139		-142.578125
140		-150.390625
141		-144.531250
142		-152.343750
143		-146.484375
144		-152.343750
145		-148.437500
146		-154.296875
147		-150.390625
148		-156.250000
149		-150.390625
150		-158.203125
151		-152.343750
152		-160.156250
153		-152.343750
154		-160.156250
155		-154.296875
156		-162.109375
157		-154.296875
158		-162.109375
159		-156.250000
160		-162.109375
161		-156.250000
162		-160.156250
163		-158.203125
164		-162.109375
165		-158.203125
166		-162.109375
167		-158.203125
168		-162.109375
169		-158.203125
170		-162.109375
171		-158.203125
172		-162.109375
173		-158.203125
174		-162.109375
175		-158.203125
176		-162.109375
177		-158.203125
178		-160.156250
179		-158.203125
180		-160.156250
181		-156.250000
182		-160.156250
183		-154.296875
184		-160.156250
185		-152.343750
186		-158.203125
187		-152.343750
188		-158.203125
189		-150.390625
190		-156.250000
191		-150.390625
192		-154.296875
193		-148.437500
194		-152.343750
195		-148.437500
196		-150.390625
197		-146.484375
198		-148.437500
199		-142.578125
200		-148.437500
201		-140.625000
202		-146.484375
203		-138.671875
204		-144.531250
205		-136.718750
206		-142.578125
207		-134.765625
208		-140.625000
209		-130.859375
210		-136.718750
211		-130.859375
212		-132.812500
213		-128.906250
214		-130.859375
215		-123.046875
216		-128.906250
217		-121.093750
218		-126.953125
219		-117.187500
220		-123.046875
221		-115.234375
222		-119.140625
223		-111.328125
224		-117.187500
225		-109.375000
226		-115.234375
227		-105.468750
228		-107.421875
229		-103.515625
230		-105.468750
231		-99.609375
232		-103.515625
233		-93.750000
234		-99.609375
235		-91.796875
236		-97.656250
237		-87.890625
238		-91.796875
239		-83.984375
240		-87.890625
241		-80.078125
242		-85.937500
243		-76.171875
244		-82.031250
245		-74.218750
246		-74.218750
247		-70.312500
248		-70.312500
249		-64.453125
250		-70.312500
251		-60.546875
252		-64.453125
253		-56.640625
254		-60.546875
255		-50.781250
256		-56.640625
257		-48.828125
258		-50.781250
259		-42.968750
260		-48.828125
261		-41.015625
262		-42.968750
263		-37.109375
264		-39.062500
265		-31.250000
266		-35.156250
267		-25.390625
268		-31.250000
269		-21.484375
270		-27.343750
271		-17.578125
272		-23.437500
273		-13.671875
274		-19.531250
275		-9.765625
276		-13.671875
277		-5.859375
278		-7.812500
279		-1.953125
280		-3.906250
281		1.953125
282		0.000000
283		7.812500
284		3.906250
285		11.718750
286		5.859375
287		15.625000
288		9.765625
289		19.531250
290		15.625000
291		23.437500
292		19.531250
293		29.296875
294		23.437500
295		29.296875
296		29.296875
297		35.156250
298		33.203125
299		39.062500
300		35.156250
301		44.921875
302		39.062500
303		46.875000
304		42.968750
305		50.781250
306		46.875000
307		54.687500
308		50.781250
309		56.640625
310		52.734375
311		60.546875
312		58.593750
313		64.453125
314		62.500000
315		68.359375
316		64.453125
317		72.265625
318		66.406250
319		76.171875
320		72.265625
321		80.078125
322		74.218750
323		82.031250
324		78.125000
325		85.937500
326		80.078125
327		89.843750
328		83.984375
329		89.843750
330		89.843750
331		93.750000
332		91.796875
333		97.656250
334		91.796875
335		101.562500
336		95.703125
337		103.515625
338		97.656250
339		105.468750
340		101.562500
341		109.375000
342		103.515625
343		111.328125
344		105.468750
345		113.281250
346		111.328125
347		115.234375
348		113.281250
349		117.187500
350		113.281250
351		121.093750
352		115.234375
353		123.046875
354		117.187500
355		125.000000
356		119.140625
357		126.953125
358		123.046875
359		128.906250
360		123.046875
361		130.859375
362		126.953125
363		130.859375
364		128.906250
365		132.812500
366		128.906250
367		136.718750
368		128.906250
369		136.718750
370		130.859375
371		138.671875
372		132.812500
373		138.671875
374		134.765625
375		140.625000
376		134.765625
377		142.578125
378		136.718750
379		142.578125
380		138.671875
381		142.578125
382		138.671875
383		144.531250
384		138.671875
385		146.484375
386		140.625000
387		146.484375
388		140.625000
389		146.484375
390		142.578125
391		148.437500
392		142.578125
393		148.437500
394		142.578125
395		148.437500
396		144.531250
397		146.484375
398		144.531250
399		146.484375
400		142.578125
401		150.390625
402		142.578125
403		150.390625
404		142.578125
405		150.390625
406		142.578125
407		150.390625
408		142.578125
409		148.437500
410		142.578125
411		148.437500
412		144.531250
413		148.437500
414		144.531250
415		146.484375
416		142.578125
417		148.437500
418		140.625000
419		146.484375
420		140.625000
421		146.484375
422		140.625000
423		146.484375
424		138.671875
425		146.484375
426		138.671875
427		144.531250
428		136.718750
429		144.531250
430		138.671875
431		140.625000
432		136.718750
433		140.625000
434		132.812500
435		140.625000
436		132.812500
437		138.671875
438		130.859375
439		136.718750
440		128.906250
441		136.718750
442		126.953125
443		134.765625
444		125.000000
445		132.812500
446		125.000000
447		130.859375
448		123.046875
449		126.953125
450		121.093750
451		126.953125
452		117.187500
453		125.000000
454		115.234375
455		123.046875
456		113.281250
457		121.093750
458		111.328125
459		119.140625
460		109.375000
461		117.187500
462		107.421875
463		115.234375
464		105.468750
465		109.375000
466		101.562500
467		107.421875
468		99.609375
469		107.421875
470		95.703125
471		105.468750
472		93.750000
473		101.562500
474		89.843750
475		99.609375
476		85.937500
477		95.703125
478		83.984375
479		91.796875
480		82.031250
481		87.890625
482		80.078125
483		83.984375
484		74.218750
485		82.031250
486		72.265625
487		80.078125
488		68.359375
489		76.171875
490		64.453125
491		74.218750
492		60.546875
493		68.359375
494		56.640625
495		66.406250
496		54.687500
497		62.500000
498		50.781250
499		56.640625
500		46.875000
501		52.734375
502		41.015625
503		50.781250
504		39.062500
505		46.875000
506		35.156250
507		42.968750
508		29.296875
509		39.062500
510		27.343750
511		35.156250
512		23.437500
513		31.250000
514		19.531250
515		25.390625
516		15.625000
517		21.484375
518		9.765625
519		19.531250
520		5.859375
521		15.625000
522		1.953125
523		9.765625
524		-1.953125
525		5.859375
526		-5.859375
527		1.953125
528		-11.718750
529		-1.953125
530		-11.718750
531		-3.906250
532		-17.578125
533		-11.718750
534		-23.437500
535		-15.625000
536		-27.343750
537		-17.578125
538		-31.250000
539		-23.437500
540		-35.156250
541		-25.390625
542		-39.062500
543		-29.296875
544		-42.968750
545		-35.156250
546		-44.921875
547		-39.062500
548		-50.781250
549		-44.921875
550		-56.640625
551		-48.828125
552		-58.593750
553		-50.781250
554		-64.453125
555		-54.687500
556		-68.359375
557		-58.593750
558		-72.265625
559		-62.500000
560		-76.171875
561		-66.406250
562		-80.078125
563		-72.265625
564		-82.031250
565		-76.171875
566		-85.937500
567		-80.078125
568		-89.843750
569		-83.984375
570		-93.750000
571		-85.937500
572		-97.656250
573		-89.843750
574		-99.609375
575		-91.796875
576		-105.468750
577		-95.703125
578		-107.421875
579		-99.609375
580		-109.375000
581		-103.515625
582		-113.281250
583		-107.421875
584		-117.187500
585		-111.328125
586		-119.140625
587		-113.281250
588		-123.046875
589		-115.234375
590		-125.000000
591		-119.140625
592		-128.906250
593		-121.093750
594		-132.812500
595		-125.000000
596		-134.765625
597		-126.953125
598		-134.765625
599		-130.859375
600		-136.718750
601		-134.765625
602		-142.578125
603		-132.812500
604		-144.531250
605		-136.718750
606		-146.484375
607		-136.718750
608		-146.484375
609		-140.625000
610		-150.390625
611		-142.578125
612		-152.343750
613		-144.531250
614		-152.343750
615		-146.484375
616		-152.343750
617		-150.390625
618		-156.250000
619		-150.390625
620		-158.203125
621		-150.390625
622		-158.203125
623		-152.343750
624		-160.156250
625		-154.296875
626		-160.156250
627		-154.296875
628		-162.109375
629		-154.296875
630		-162.109375
631		-156.250000
632		-160.156250
633		-158.203125
634		-162.109375
635		-158.203125
636		-164.062500
637		-156.250000
638		-164.062500
639		-156.250000
640		-164.062500
641		-156.250000
642		-164.062500
643		-156.250000
644		-164.062500
645		-156.250000
646		-164.062500
647		-156.250000
648		-160.156250
649		-158.203125
650		-160.156250
651		-158.203125
652		-162.109375
653		-154.296875
654		-160.156250
655		-154.296875
656		-160.156250
657		-152.343750
658		-158.203125
659		-152.343750
660		-156.250000
661		-150.390625
662		-156.250000
663		-150.390625
664		-154.296875
665		-148.437500
666		-150.390625
667		-148.437500
668		-150.390625
669		-144.531250
670		-148.437500
671		-142.578125
672		-148.437500
673		-140.625000
674		-146.484375
675		-138.671875
676		-144.531250
677		-136.718750
678		-140.625000
679		-132.812500
680		-138.671875
681		-132.812500
682		-134.765625
683		-130.859375
684		-132.812500
685		-126.953125
686		-130.859375
687		-123.046875
688		-126.953125
689		-119.140625
690		-125.000000
691		-117.187500
692		-123.046875
693		-113.281250
694		-119.140625
695		-109.375000
696		-115.234375
697		-107.421875
698		-113.281250
699		-105.468750
700		-107.421875
701		-101.562500
702		-105.468750
703		-97.656250
704		-101.562500
705		-93.750000
706		-97.656250
707		-87.890625
708		-93.750000
709		-85.937500
710		-91.796875
711		-83.984375
712		-87.890625
713		-78.125000
714		-83.984375
715		-76.171875
716		-78.125000
717		-72.265625
718		-74.218750
719		-66.406250
720		-72.265625
721		-62.500000
722		-68.359375
723		-58.593750
724		-64.453125
725		-54.687500
726		-58.593750
727		-50.781250
728		-56.640625
729		-46.875000
730		-50.781250
731		-42.968750
732		-44.921875
733		-39.062500
734		-41.015625
735		-35.156250
736		-37.109375
737		-29.296875
738		-35.156250
739		-25.390625
740		-31.250000
741		-21.484375
742		-25.390625
743		-15.625000
744		-21.484375
745		-11.718750
746		-17.578125
747		-7.812500
748		-13.671875
749		-5.859375
750		-7.812500
751		-1.953125
752		-1.953125
753		3.906250
754		0.000000
755		7.812500
756		3.906250
757		11.718750
758		5.859375
759		15.625000
760		13.671875
761		21.484375
762		15.625000
763		25.390625
764		19.531250
765		27.343750
766		25.390625
767		31.250000
768		29.296875
769		35.156250
770		33.203125
771		41.015625
772		35.156250
773		44.921875
774		39.062500
775		48.828125
776		42.968750
777		52.734375
778		46.875000
779		56.640625
780		50.781250
781		60.546875
782		54.687500
783		60.546875
784		60.546875
785		64.453125
786		62.500000
787		70.312500
788		66.406250
789		74.218750
790		68.359375
791		76.171875
792		72.265625
793		80.078125
794		74.218750
795		83.984375
796		78.125000
797		87.890625
798		82.031250
799		87.890625
800		85.937500
801		91.796875
802		89.843750
803		93.750000
804		89.843750
805		99.609375
806		93.750000
807		101.562500
808		97.656250
809		103.515625
810		99.609375
811		105.468750
812		101.562500
813		109.375000
814		103.515625
815		111.328125
816		109.375000
817		113.281250
818		111.328125
819		115.234375
820		113.281250
821		119.140625
822		113.281250
823		121.093750
824		117.187500
825		123.046875
826		117.187500
827		125.000000
828		119.140625
829		126.953125
830		121.093750
831		128.906250
832		123.046875
833		130.859375
834		126.953125
835		130.859375
836		128.906250
837		134.765625
838		128.906250
839		136.718750
840		130.859375
841		136.718750
842		130.859375
843		138.671875
844		132.812500
845		140.625000
846		132.812500
847		140.625000
848		134.765625
849		142.578125
850		138.671875
851		140.625000
852		138.671875
853		142.578125
854		138.671875
855		144.531250
856		138.671875
857		144.531250
858		138.671875
859		146.484375
860		140.625000
861		146.484375
862		140.625000
863		148.437500
864		140.625000
865		148.437500
866		142.578125
867		148.437500
868		144.531250
869		146.484375
870		142.578125
871		148.437500
872		142.578125
873		148.437500
874		142.578125
875		150.390625
876		142.578125
877		148.437500
878		142.578125
879		148.437500
880		142.578125
881		150.390625
882		142.578125
883		148.437500
884		144.531250
885		146.484375
886		144.531250
887		146.484375
888		140.625000
889		148.437500
890		140.625000
891		146.484375
892		138.671875
893		146.484375
894		138.671875
895		146.484375
896		138.671875
897		144.531250
898		136.718750
899		144.531250
900		138.671875
901		140.625000
902		136.718750
903		140.625000
904		134.765625
905		140.625000
906		132.812500
907		138.671875
908		130.859375
909		138.671875
910		128.906250
911		136.718750
912		128.906250
913		134.765625
914		126.953125
915		134.765625
916		126.953125
917		132.812500
918		125.000000
919		128.906250
920		121.093750
921		126.953125
922		119.140625
923		126.953125
924		117.187500
925		125.000000
926		115.234375
927		123.046875
928		113.281250
929		121.093750
930		111.328125
931		117.187500
932		107.421875
933		115.234375
934		107.421875
935		111.328125
936		105.468750
937		109.375000
938		99.609375
939		107.421875
940		97.656250
941		105.468750
942		95.703125
943		103.515625
944		91.796875
945		99.609375
946		89.843750
947		95.703125
948		85.937500
949		93.750000
950		83.984375
951		91.796875
952		82.031250
953		85.937500
954		76.171875
955		83.984375
956		72.265625
957		82.031250
958		68.359375
959		78.125000
960		66.406250
961		74.218750
962		62.500000
963		70.312500
964		60.546875
965		68.359375
966		56.640625
967		64.453125
968		54.687500
969		58.593750
970		50.781250
971		54.687500
972		44.921875
973		52.734375
974		41.015625
975		48.828125
976		37.109375
977		44.921875
978		33.203125
979		42.968750
980		29.296875
981		39.062500
982		25.390625
983		35.156250
984		23.437500
985		29.296875
986		19.531250
987		23.437500
988		11.718750
989		19.531250
990		9.765625
991		17.578125
992		3.906250
993		13.671875
994		0.000000
995		9.765625
996		-3.906250
997		5.859375
998		-7.812500
999		0.000000
1000		-9.765625
1001		-3.906250
1002		-13.671875
1003		-9.765625
1004		-19.531250
1005		-13.671875
1006		-25.390625
1007		-15.625000
1008		-27.343750
1009		-19.531250
1010		-33.203125
1011		-23.437500
1012		-37.109375
1013		-27.343750
1014		-41.015625
1015		-31.250000
1016		-44.921875
1017		-37.109375
1018		-46.875000
1019		-42.968750
1020		-50.781250
1021		-46.875000
1022		-58.593750
1023		-48.828125
1024		-62.500000
1025		-52.734375
1026		-64.453125
1027		-56.640625
1028		-70.312500
1029		-60.546875
1030		-74.218750
1031		-64.453125
1032		-78.125000
1033		-68.359375
1034		-80.078125
1035		-72.265625
1036		-83.984375
1037		-78.125000
1038		-87.890625
1039		-82.031250
1040		-91.796875
1041		-83.984375
1042		-95.703125
1043		-87.890625
1044		-99.609375
1045		-91.796875
1046		-103.515625
1047		-93.750000
1048		-105.468750
1049		-97.656250
1050		-109.375000
1051		-101.562500
1052		-111.328125
1053		-107.421875
1054		-113.281250
1055		-109.375000
1056		-119.140625
1057		-111.328125
1058		-123.046875
1059		-113.281250
1060		-125.000000
1061		-117.187500
1062		-128.906250
1063		-119.140625
1064		-130.859375
1065		-123.046875
1066		-132.812500
1067		-125.000000
1068		-134.765625
1069		-128.906250
1070		-136.718750
1071		-132.812500
1072		-140.625000
1073		-134.765625
1074		-142.578125
1075		-134.765625
1076		-144.531250
1077		-138.671875
1078		-146.484375
1079		-138.671875
1080		-150.390625
1081		-142.578125
1082		-150.390625
1083		-144.531250
1084		-152.343750
1085		-146.484375
1086		-152.343750
1087		-148.437500
1088		-156.250000
1089		-150.390625
1090		-158.203125
1091		-150.390625
1092		-158.203125
1093		-152.343750
1094		-160.156250
1095		-152.343750
1096		-160.156250
1097		-154.296875
1098		-162.109375
1099		-154.296875
1100		-162.109375
1101		-156.250000
1102		-160.156250
1103		-158.203125
1104		-162.109375
1105		-158.203125
1106		-164.062500
1107		-158.203125
1108		-164.062500
1109		-158.203125
1110		-164.062500
1111		-156.250000
1112		-164.062500
1113		-158.203125
1114		-164.062500
1115		-158.203125
1116		-164.062500
1117		-156.250000
1118		-164.062500
1119		-158.203125
1120		-160.156250
1121		-158.203125
1122		-162.109375
1123		-156.250000
1124		-162.109375
1125		-156.250000
1126		-160.156250
1127		-154.296875
1128		-160.156250
1129		-152.343750
1130		-160.156250
1131		-152.343750
1132		-158.203125
1133		-150.390625
1134		-156.250000
1135		-150.390625
1136		-152.343750
1137		-150.390625
1138		-150.390625
1139		-148.437500
1140		-152.343750
1141		-144.531250
1142		-150.390625
1143		-142.578125
1144		-146.484375
1145		-140.625000
1146		-144.531250
1147		-138.671875
1148		-142.578125
1149		-136.718750
1150		-140.625000
1151		-132.812500
1152		-138.671875
1153		-132.812500
1154		-134.765625
1155		-130.859375
1156		-132.812500
1157		-125.000000
1158		-130.859375
1159		-123.046875
1160		-128.906250
1161		-119.140625
1162		-125.000000
1163		-117.187500
1164		-123.046875
1165		-113.281250
1166		-119.140625
1167		-111.328125
1168		-115.234375
1169		-109.375000
1170		-111.328125
1171		-105.468750
1172		-107.421875
1173		-101.562500
1174		-105.468750
1175		-97.656250
1176		-101.562500
1177		-93.750000
1178		-99.609375
1179		-89.843750
1180		-95.703125
1181		-85.937500
1182		-89.843750
1183		-82.031250
1184		-85.937500
1185		-78.125000
1186		-82.031250
1187		-76.171875
1188		-78.125000
1189		-72.265625
1190		-74.218750
1191		-66.406250
1192		-70.312500
1193		-62.500000
1194		-66.406250
1195		-58.593750
1196		-64.453125
1197		-54.687500
1198		-60.546875
1199		-50.781250
1200		-54.687500
1201		-46.875000
1202		-50.781250
1203		-42.968750
1204		-44.921875
1205		-39.062500
1206		-41.015625
1207		-33.203125
1208		-39.062500
1209		-29.296875
1210		-33.203125
1211		-25.390625
1212		-29.296875
1213		-21.484375
1214		-25.390625
1215		-15.625000
1216		-21.484375
1217		-11.718750
1218		-15.625000
1219		-9.765625
1220		-11.718750
1221		-5.859375
1222		-7.812500
1223		0.000000
1224		-3.906250
1225		3.906250
1226		0.000000
1227		9.765625
1228		5.859375
1229		13.671875
1230		9.765625
1231		17.578125
1232		11.718750
1233		21.484375
1234		15.625000
1235		25.390625
1236		19.531250
1237		27.343750
1238		27.343750
1239		31.250000
1240		31.250000
1241		37.109375
1242		33.203125
1243		41.015625
1244		35.156250
1245		44.921875
1246		41.015625
1247		48.828125
1248		44.921875
1249		52.734375
1250		46.875000
1251		56.640625
1252		50.781250
1253		60.546875
1254		56.640625
1255		62.500000
1256		60.546875
1257		66.406250
1258		62.500000
1259		70.312500
1260		64.453125
1261		74.218750
1262		68.359375
1263		78.125000
1264		74.218750
1265		82.031250
1266		76.171875
1267		83.984375
1268		80.078125
1269		85.937500
1270		83.984375
1271		87.890625
1272		87.890625
1273		91.796875
1274		87.890625
1275		95.703125
1276		91.796875
1277		99.609375
1278		93.750000
1279		101.562500
1280		97.656250
1281		105.468750
1282		99.609375
1283		107.421875
1284		101.562500
1285		109.375000
1286		103.515625
1287		111.328125
1288		109.375000
1289		113.281250
1290		111.328125
1291		117.187500
1292		113.281250
1293		119.140625
1294		113.281250
1295		121.093750
1296		117.187500
1297		123.046875
1298		117.187500
1299		125.000000
1300		121.093750
1301		126.953125
1302		123.046875
1303		128.906250
1304		126.953125
1305		128.906250
1306		128.906250
1307		130.859375
1308		126.953125
1309		134.765625
1310		130.859375
1311		136.718750
1312		130.859375
1313		138.671875
1314		132.812500
1315		138.671875
1316		132.812500
1317		140.625000
1318		134.765625
1319		140.625000
1320		136.718750
1321		142.578125
1322		138.671875
1323		142.578125
1324		138.671875
1325		144.531250
1326		138.671875
1327		146.484375
1328		138.671875
1329		146.484375
1330		140.625000
1331		146.484375
1332		140.625000
1333		146.484375
1334		142.578125
1335		148.437500
1336		142.578125
1337		148.437500
1338		144.531250
1339		146.484375
1340		144.531250
1341		148.437500
1342		144.531250
1343		150.390625
1344		144.531250
1345		150.390625
1346		142.578125
1347		150.390625
1348		142.578125
1349		150.390625
1350		142.578125
1351		150.390625
1352		142.578125
1353		150.390625
1354		144.531250
1355		146.484375
1356		144.531250
1357		146.484375
1358		142.578125
1359		148.437500
1360		142.578125
1361		148.437500
1362		140.625000
1363		148.437500
1364		140.625000
1365		146.484375
1366		138.671875
1367		146.484375
1368		138.671875
1369		144.531250
1370		136.718750
1371		144.531250
1372		138.671875
1373		140.625000
1374		134.765625
1375		140.625000
1376		134.765625
1377		140.625000
1378		132.812500
1379		140.625000
1380		130.859375
1381		138.671875
1382		128.906250
1383		136.718750
1384		126.953125
1385		136.718750
1386		126.953125
1387		132.812500
1388		126.953125
1389		130.859375
1390		125.000000
1391		128.906250
1392		121.093750
1393		128.906250
1394		119.140625
1395		126.953125
1396		117.187500
1397		125.000000
1398		115.234375
1399		123.046875
1400		113.281250
1401		121.093750
1402		111.328125
1403		117.187500
1404		109.375000
1405		115.234375
1406		107.421875
1407		111.328125
1408		101.562500
1409		109.375000
1410		99.609375
1411		107.421875
1412		97.656250
1413		105.468750
1414		93.750000
1415		103.515625
1416		91.796875
1417		99.609375
1418		87.890625
1419		97.656250
1420		85.937500
1421		93.750000
1422		83.984375
1423		87.890625
1424		80.078125
1425		85.937500
1426		76.171875
1427		83.984375
1428		72.265625
1429		82.031250
1430		70.312500
1431		78.125000
1432		66.406250
1433		74.218750
1434		62.500000
1435		70.312500
1436		58.593750
1437		68.359375
1438		56.640625
1439		62.500000
1440		52.734375
1441		58.593750
1442		46.875000
1443		54.687500
1444		42.968750
1445		52.734375
1446		39.062500
1447		48.828125
1448		37.109375
1449		44.921875
1450		33.203125
1451		41.015625
1452		27.343750
1453		37.109375
1454		25.390625
1455		33.203125
1456		21.484375
1457		27.343750
1458		17.578125
1459		23.437500
1460		11.718750
1461		21.484375
1462		7.812500
1463		15.625000
1464		3.906250
1465		13.671875
1466		-1.953125
1467		7.812500
1468		-3.906250
1469		3.906250
1470		-7.812500
1471		0.000000
1472		-11.718750
1473		-5.859375
1474		-15.625000
1475		-9.765625
1476		-21.484375
1477		-13.671875
1478		-25.390625
1479		-15.625000
1480		-29.296875
1481		-21.484375
1482		-33.203125
1483		-25.390625
1484		-37.109375
1485		-29.296875
1486		-42.968750
1487		-33.203125
1488		-44.921875
1489		-37.109375
1490		-48.828125
1491		-42.968750
1492		-54.687500
1493		-46.875000
1494		-58.593750
1495		-48.828125
1496		-60.546875
1497		-54.687500
1498		-66.406250
1499		-56.640625
1500		-70.312500
1501		-62.500000
1502		-74.218750
1503		-64.453125
1504		-76.171875
1505		-68.359375
1506		-80.078125
1507		-74.218750
1508		-83.984375
1509		-78.125000
1510		-89.843750
1511		-82.031250
1512		-91.796875
1513		-83.984375
1514		-95.703125
1515		-87.890625
1516		-99.609375
1517		-91.796875
1518		-103.515625
1519		-93.750000
1520		-107.421875
1521		-97.656250
1522		-107.421875
1523		-103.515625
1524		-111.328125
1525		-107.421875
1526		-115.234375
1527		-109.375000
1528		-119.140625
1529		-111.328125
1530		-121.093750
1531		-115.234375
1532		-125.000000
1533		-117.187500
1534		-126.953125
1535		-121.093750
1536		-130.859375
1537		-123.046875
1538		-132.812500
1539		-126.953125
1540		-134.765625
1541		-128.906250
1542		-138.671875
1543		-132.812500
1544		-140.625000
1545		-132.812500
1546		-142.578125
1547		-134.765625
1548		-144.531250
1549		-136.718750
1550		-146.484375
1551		-138.671875
1552		-148.437500
1553		-142.578125
1554		-150.390625
1555		-142.578125
1556		-150.390625
1557		-146.484375
1558		-152.343750
1559		-148.437500
1560		-156.250000
1561		-148.437500
1562		-156.250000
1563		-148.437500
1564		-158.203125
1565		-150.390625
1566		-158.203125
1567		-152.343750
1568		-160.156250
1569		-152.343750
1570		-160.156250
1571		-154.296875
1572		-162.109375
1573		-154.296875
1574		-160.156250
1575		-158.203125
1576		-162.109375
1577		-156.250000
1578		-162.109375
1579		-156.250000
1580		-162.109375
1581		-156.250000
1582		-164.062500
1583		-156.250000
1584		-162.109375
1585		-156.250000
1586		-164.062500
1587		-156.250000
1588		-162.109375
1589		-156.250000
1590		-160.156250
1591		-158.203125
1592		-162.109375
1593		-154.296875
1594		-162.109375
1595		-154.296875
1596		-160.156250
1597		-154.296875
1598		-160.156250
1599		-152.343750
1600		-158.203125
1601		-152.343750
1602		-158.203125
1603		-150.390625
1604		-156.250000
1605		-148.437500
1606		-154.296875
1607		-150.390625
1608		-152.343750
1609		-148.437500
1610		-150.390625
1611		-144.531250
1612		-150.390625
1613		-142.578125
1614		-148.437500
1615		-140.625000
1616		-146.484375
1617		-136.718750
1618		-144.531250
1619		-136.718750
1620		-142.578125
1621		-132.812500
1622		-138.671875
1623		-132.812500
1624		-134.765625
1625		-130.859375
1626		-132.812500
1627		-126.953125
1628		-130.859375
1629		-123.046875
1630		-128.906250
1631		-121.093750
1632		-126.953125
1633		-119.140625
1634		-123.046875
1635		-115.234375
1636		-121.093750
1637		-113.281250
1638		-117.187500
1639		-109.375000
1640		-111.328125
1641		-107.421875
1642		-107.421875
1643		-103.515625
1644		-107.421875
1645		-97.656250
1646		-103.515625
1647		-95.703125
1648		-99.609375
1649		-91.796875
1650		-95.703125
1651		-87.890625
1652		-91.796875
1653		-83.984375
1654		-87.890625
1655		-80.078125
1656		-85.937500
1657		-78.125000
1658		-80.078125
1659		-74.218750
1660		-76.171875
1661		-68.359375
1662		-74.218750
1663		-64.453125
1664		-70.312500
1665		-60.546875
1666		-64.453125
1667		-56.640625
1668		-62.500000
1669		-52.734375
1670		-56.640625
1671		-48.828125
1672		-52.734375
1673		-44.921875
1674		-46.875000
1675		-41.015625
1676		-42.968750
1677		-35.156250
1678		-39.062500
1679		-31.250000
1680		-37.109375
1681		-27.343750
1682		-31.250000
1683		-23.437500
1684		-29.296875
1685		-17.578125
1686		-23.437500
1687		-13.671875
1688		-19.531250
1689		-9.765625
1690		-15.625000
1691		-7.812500
1692		-7.812500
1693		-3.906250
1694		-3.906250
1695		1.953125
1696		-1.953125
1697		7.812500
1698		1.953125
1699		11.718750
1700		5.859375
1701		13.671875
1702		9.765625
1703		19.531250
1704		15.625000
1705		23.437500
1706		17.578125
1707		25.390625
1708		23.437500
1709		29.296875
1710		29.296875
1711		35.156250
1712		31.250000
1713		39.062500
1714		33.203125
1715		42.968750
1716		39.062500
1717		46.875000
1718		42.968750
1719		50.781250
1720		46.875000
1721		54.687500
1722		48.828125
1723		56.640625
1724		54.687500
1725		60.546875
1726		58.593750
1727		64.453125
1728		62.500000
1729		68.359375
1730		64.453125
1731		72.265625
1732		68.359375
1733		76.171875
1734		70.312500
1735		80.078125
1736		74.218750
1737		83.984375
1738		78.125000
1739		85.937500
1740		80.078125
1741		85.937500
1742		85.937500
1743		89.843750
1744		89.843750
1745		95.703125
1746		89.843750
1747		97.656250
1748		91.796875
1749		101.562500
1750		95.703125
1751		103.515625
1752		97.656250
1753		105.468750
1754		101.562500
1755		107.421875
1756		103.515625
1757		111.328125
1758		107.421875
1759		111.328125
1760		111.328125
1761		113.281250
1762		111.328125
1763		117.187500
1764		113.281250
1765		121.093750
1766		115.234375
1767		123.046875
1768		117.187500
1769		125.000000
1770		119.140625
1771		126.953125
1772		121.093750
1773		128.906250
1774		123.046875
1775		128.906250
1776		126.953125
1777		130.859375
1778		126.953125
1779		134.765625
1780		128.906250
1781		134.765625
1782		130.859375
1783		136.718750
1784		130.859375
1785		138.671875
1786		132.812500
1787		140.625000
1788		134.765625
1789		140.625000
1790		134.765625
1791		142.578125
1792		138.671875
1793		140.625000
1794		138.671875
1795		144.531250
1796		138.671875
1797		144.531250
1798		138.671875
1799		146.484375
1800		140.625000
1801		146.484375
1802		140.625000
1803		148.437500
1804		142.578125
1805		148.437500
1806		142.578125
1807		148.437500
1808		144.531250
1809		146.484375
1810		144.531250
1811		148.437500
1812		142.578125
1813		150.390625
1814		142.578125
1815		150.390625
1816		142.578125
1817		150.390625
1818		142.578125
1819		150.390625
1820		144.531250
1821		150.390625
1822		144.531250
1823		150.390625
1824		144.531250
1825		148.437500
1826		144.531250
1827		148.437500
1828		142.578125
1829		148.437500
1830		142.578125
1831		148.437500
1832		140.625000
1833		148.437500
1834		140.625000
1835		148.437500
1836		140.625000
1837		146.484375
1838		138.671875
1839		146.484375
1840		138.671875
1841		146.484375
1842		140.625000
1843		142.578125
1844		138.671875
1845		140.625000
1846		136.718750
1847		140.625000
1848		134.765625
1849		140.625000
1850		132.812500
1851		138.671875
1852		132.812500
1853		138.671875
1854		130.859375
1855		136.718750
1856		128.906250
1857		134.765625
1858		128.906250
1859		132.812500
1860		126.953125
1861		130.859375
1862		123.046875
1863		128.906250
1864		121.093750
1865		126.953125
1866		119.140625
1867		126.953125
1868		117.187500
1869		125.000000
1870		115.234375
1871		121.093750
1872		111.328125
1873		121.093750
1874		111.328125
1875		117.187500
1876		109.375000
1877		113.281250
1878		105.468750
1879		111.328125
1880		101.562500
1881		111.328125
1882		99.609375
1883		109.375000
1884		95.703125
1885		105.468750
1886		93.750000
1887		101.562500
1888		91.796875
1889		99.609375
1890		87.890625
1891		97.656250
1892		87.890625
1893		91.796875
1894		83.984375
1895		87.890625
1896		78.125000
1897		85.937500
1898		76.171875
1899		83.984375
1900		72.265625
1901		82.031250
1902		68.359375
1903		76.171875
1904		64.453125
1905		74.218750
1906		60.546875
1907		70.312500
1908		60.546875
1909		66.406250
1910		56.640625
1911		60.546875
1912		50.781250
1913		58.593750
1914		46.875000
1915		54.687500
1916		42.968750
1917		52.734375
1918		39.062500
1919		46.875000
1920		35.156250
1921		44.921875
1922		31.250000
1923		41.015625
1924		27.343750
1925		37.109375
1926		25.390625
1927		31.250000
1928		21.484375
1929		27.343750
1930		15.625000
1931		23.437500
1932		11.718750
1933		21.484375
1934		7.812500
1935		15.625000
1936		3.906250
1937		11.718750
1938		-1.953125
1939		7.812500
1940		-5.859375
1941		3.906250
1942		-7.812500
1943		0.000000
1944		-11.718750
1945		-5.859375
1946		-17.578125
1947		-9.765625
1948		-21.484375
1949		-13.671875
1950		-27.343750
1951		-15.625000
1952		-31.250000
1953		-19.531250
1954		-35.156250
1955		-25.390625
1956		-39.062500
1957		-29.296875
1958		-41.015625
1959		-33.203125
1960		-44.921875
1961		-39.062500
1962		-48.828125
1963		-42.968750
1964		-54.687500
1965		-46.875000
1966		-58.593750
1967		-50.781250
1968		-62.500000
1969		-54.687500
1970		-66.406250
1971		-58.593750
1972		-70.312500
1973		-62.500000
1974		-74.218750
1975		-66.406250
1976		-76.171875
1977		-72.265625
1978		-80.078125
1979		-74.218750
1980		-85.937500
1981		-78.125000
1982		-89.843750
1983		-80.078125
1984		-93.750000
1985		-83.984375
1986		-95.703125
1987		-87.890625
1988		-99.609375
1989		-91.796875
1990		-103.515625
1991		-93.750000
1992		-105.468750
1993		-97.656250
1994		-107.421875
1995		-103.515625
1996		-113.281250
1997		-105.468750
1998		-115.234375
1999		-107.421875
2000		-119.140625
2001		-111.328125
2002		-121.093750
2003		-113.281250
2004		-125.000000
2005		-117.187500
2006		-128.906250
2007		-119.140625
2008		-130.859375
2009		-123.046875
2010		-130.859375
2011		-126.953125
2012		-132.812500
2013		-128.906250
2014		-138.671875
2015		-130.859375
2016		-140.625000
2017		-132.812500
2018		-142.578125
2019		-134.765625
2020		-144.531250
2021		-136.718750
2022		-146.484375
2023		-138.671875
2024		-148.437500
2025		-140.625000
2026		-148.437500
2027		-142.578125
2028		-150.390625
2029		-146.484375
2030		-154.296875
2031		-146.484375
2032		-154.296875
2033		-148.437500
2034		-156.250000
2035		-148.437500
2036		-158.203125
2037		-150.390625
2038		-158.203125
2039		-152.343750
2040		-160.156250
2041		-152.343750
2042		-160.156250
2043		-154.296875
2044		-158.203125
2045		-156.250000
2046		-160.156250
2047		-156.250000
2048		-162.109375
2049		-154.296875
2050		-162.109375
2051		-156.250000
2052		-162.109375
2053		-156.250000
2054		-162.109375
2055		-156.250000
2056		-162.109375
2057		-156.250000
2058		-162.109375
2059		-154.296875
2060		-160.156250
2061		-158.203125
2062		-160.156250
2063		-156.250000
2064		-160.156250
2065		-154.296875
2066		-160.156250
2067		-152.343750
2068		-160.156250
2069		-152.343750
2070		-158.203125
2071		-152.343750
2072		-158.203125
2073		-150.390625
2074		-156.250000
2075		-150.390625
2076		-154.296875
2077		-148.437500
2078		-152.343750
2079		-148.437500
2080		-150.390625
2081		-146.484375
2082		-150.390625
2083		-142.578125
2084		-148.437500
2085		-140.625000
2086		-146.484375
2087		-138.671875
2088		-144.531250
2089		-136.718750
2090		-142.578125
2091		-134.765625
2092		-140.625000
2093		-132.812500
2094		-136.718750
2095		-132.812500
2096		-132.812500
2097		-128.906250
2098		-132.812500
2099		-125.000000
2100		-130.859375
2101		-121.093750
2102		-126.953125
2103		-119.140625
2104		-125.000000
2105		-117.187500
2106		-121.093750
2107		-113.281250
2108		-119.140625
2109		-109.375000
2110		-115.234375
2111		-109.375000
2112		-109.375000
2113		-105.468750
2114		-107.421875
2115		-99.609375
2116		-105.468750
2117		-95.703125
2118		-101.562500
2119		-93.750000
2120		-97.656250
2121		-89.843750
2122		-93.750000
2123		-85.937500
2124		-91.796875
2125		-82.031250
2126		-87.890625
2127		-80.078125
2128		-82.031250
2129		-76.171875
2130		-78.125000
2131		-72.265625
2132		-76.171875
2133		-66.406250
2134		-70.312500
2135		-62.500000
2136		-68.359375
2137		-58.593750
2138		-62.500000
2139		-54.687500
2140		-60.546875
2141		-50.781250
2142		-54.687500
2143		-46.875000
2144		-48.828125
2145		-42.968750
2146		-44.921875
2147		-39.062500
2148		-41.015625
2149		-35.156250
2150		-39.062500
2151		-29.296875
2152		-33.203125
2153		-25.390625
2154		-29.296875
2155		-19.531250
2156		-25.390625
2157		-17.578125
2158		-21.484375
2159		-11.718750
2160		-17.578125
2161		-9.765625
2162		-11.718750
2163		-5.859375
2164		-7.812500
2165		-1.953125
2166		-5.859375
2167		3.906250
2168		0.000000
2169		9.765625
2170		3.906250
2171		11.718750
2172		7.812500
2173		15.625000
2174		11.718750
2175		21.484375
2176		17.578125
2177		25.390625
2178		21.484375
2179		27.343750
2180		25.390625
2181		31.250000
2182		29.296875
2183		37.109375
2184		33.203125
2185		41.015625
2186		37.109375
2187		44.921875
2188		41.015625
2189		48.828125
2190		44.921875
2191		52.734375
2192		46.875000
2193		54.687500
2194		50.781250
2195		58.593750
2196		56.640625
2197		62.500000
2198		60.546875
2199		66.406250
2200		62.500000
2201		70.312500
2202		64.453125
2203		74.218750
2204		68.359375
2205		76.171875
2206		72.265625
2207		80.078125
2208		74.218750
2209		83.984375
2210		78.125000
2211		85.937500
2212		83.984375
2213		87.890625
2214		85.937500
2215		91.796875
2216		87.890625
2217		95.703125
2218		89.843750
2219		99.609375
2220		91.796875
2221		101.562500
2222		97.656250
2223		103.515625
2224		97.656250
2225		107.421875
2226		101.562500
2227		109.375000
2228		105.468750
2229		109.375000
2230		109.375000
2231		113.281250
2232		109.375000
2233		117.187500
2234		111.328125
2235		119.140625
2236		113.281250
2237		121.093750
2238		117.187500
2239		123.046875
2240		119.140625
2241		125.000000
2242		121.093750
2243		126.953125
2244		121.093750
2245		128.906250
2246		126.953125
2247		130.859375
2248		126.953125
2249		130.859375
2250		126.953125
2251		134.765625
2252		128.906250
2253		136.718750
2254		130.859375
2255		136.718750
2256		132.812500
2257		140.625000
2258		134.765625
2259		140.625000
2260		134.765625
2261		142.578125
2262		138.671875
2263		140.625000
2264		138.671875
2265		142.578125
2266		138.671875
2267		144.531250
2268		138.671875
2269		146.484375
2270		138.671875
2271		146.484375
2272		140.625000
2273		146.484375
2274		142.578125
2275		148.437500
2276		142.578125
2277		148.437500
2278		142.578125
2279		150.390625
2280		144.531250
2281		146.484375
2282		144.531250
2283		150.390625
2284		144.531250
2285		150.390625
2286		142.578125
2287		150.390625
2288		144.531250
2289		150.390625
2290		144.531250
2291		150.390625
2292		144.531250
2293		150.390625
2294		144.531250
2295		150.390625
2296		146.484375
2297		148.437500
2298		146.484375
2299		148.437500
2300		142.578125
2301		148.437500
2302		142.578125
2303		148.437500
2304		142.578125
2305		148.437500
2306		140.625000
2307		148.437500
2308		140.625000
2309		146.484375
2310		138.671875
2311		146.484375
2312		140.625000
2313		144.531250
2314		140.625000
2315		142.578125
2316		136.718750
2317		142.578125
2318		134.765625
2319		142.578125
2320		134.765625
2321		140.625000
2322		132.812500
2323		138.671875
2324		130.859375
2325		138.671875
2326		130.859375
2327		136.718750
2328		128.906250
2329		136.718750
2330		128.906250
2331		132.812500
2332		125.000000
2333		130.859375
2334		123.046875
2335		128.906250
2336		121.093750
2337		128.906250
2338		119.140625
2339		126.953125
2340		117.187500
2341		125.000000
2342		115.234375
2343		121.093750
2344		113.281250
2345		119.140625
2346		111.328125
2347		115.234375
2348		109.375000
2349		113.281250
2350		105.468750
2351		111.328125
2352		103.515625
2353		111.328125
2354		99.609375
2355		107.421875
2356		97.656250
2357		105.468750
2358		95.703125
2359		101.562500
2360		91.796875
2361		99.609375
2362		89.843750
2363		95.703125
2364		87.890625
2365		91.796875
2366		82.031250
2367		87.890625
2368		80.078125
2369		85.937500
2370		76.171875
2371		83.984375
2372		72.265625
2373		80.078125
2374		68.359375
2375		78.125000
2376		64.453125
2377		74.218750
2378		62.500000
2379		70.312500
2380		60.546875
2381		64.453125
2382		56.640625
2383		60.546875
2384		50.781250
2385		58.593750
2386		46.875000
2387		56.640625
2388		42.968750
2389		50.781250
2390		39.062500
2391		48.828125
2392		35.156250
2393		44.921875
2394		31.250000
2395		39.062500
2396		29.296875
2397		35.156250
2398		25.390625
2399		29.296875
2400		19.531250
2401		25.390625
2402		13.671875
2403		23.437500
2404		9.765625
2405		19.531250
2406		7.812500
2407		15.625000
2408		1.953125
2409		11.718750
2410		-1.953125
2411		7.812500
2412		-3.906250
2413		3.906250
2414		-7.812500
2415		-1.953125
2416		-13.671875
2417		-5.859375
2418		-17.578125
2419		-9.765625
2420		-21.484375
2421		-13.671875
2422		-27.343750
2423		-17.578125
2424		-31.250000
2425		-21.484375
2426		-35.156250
2427		-27.343750
2428		-39.062500
2429		-29.296875
2430		-41.015625
2431		-37.109375
2432		-44.921875
2433		-41.015625
2434		-50.781250
2435		-42.968750
2436		-56.640625
2437		-46.875000
2438		-60.546875
2439		-50.781250
2440		-64.453125
2441		-54.687500
2442		-66.406250
2443		-58.593750
2444		-70.312500
2445		-62.500000
2446		-74.218750
2447		-66.406250
2448		-78.125000
2449		-72.265625
2450		-82.031250
2451		-76.171875
2452		-85.937500
2453		-78.125000
2454		-89.843750
2455		-82.031250
2456		-95.703125
2457		-85.937500
2458		-97.656250
2459		-87.890625
2460		-99.609375
2461		-91.796875
2462		-103.515625
2463		-95.703125
2464		-105.468750
2465		-101.562500
2466		-109.375000
2467		-103.515625
2468		-113.281250
2469		-107.421875
2470		-117.187500
2471		-109.375000
2472		-119.140625
2473		-113.281250
2474		-123.046875
2475		-115.234375
2476		-125.000000
2477		-117.187500
2478		-128.906250
2479		-121.093750
2480		-128.906250
2481		-123.046875
2482		-132.812500
2483		-128.906250
2484		-136.718750
2485		-130.859375
2486		-138.671875
2487		-132.812500
2488		-140.625000
2489		-134.765625
2490		-142.578125
2491		-136.718750
2492		-146.484375
2493		-138.671875
2494		-148.437500
2495		-138.671875
2496		-148.437500
2497		-142.578125
2498		-148.437500
2499		-146.484375
2500		-152.343750
2501		-146.484375
2502		-154.296875
2503		-146.484375
2504		-156.250000
2505		-148.437500
2506		-156.250000
2507		-150.390625
2508		-158.203125
2509		-150.390625
2510		-158.203125
2511		-152.343750
2512		-160.156250
2513		-152.343750
2514		-158.203125
2515		-156.250000
2516		-158.203125
2517		-156.250000
2518		-162.109375
2519		-156.250000
2520		-162.109375
2521		-156.250000
2522		-162.109375
2523		-156.250000
2524		-162.109375
2525		-156.250000
2526		-162.109375
2527		-156.250000
2528		-162.109375
2529		-156.250000
2530		-162.109375
2531		-156.250000
2532		-160.156250
2533		-158.203125
2534		-160.156250
2535		-156.250000
2536		-160.156250
2537		-154.296875
2538		-160.156250
2539		-154.296875
2540		-158.203125
2541		-152.343750
2542		-158.203125
2543		-152.343750
2544		-156.250000
2545		-150.390625
2546		-156.250000
2547		-148.437500
2548		-152.343750
2549		-148.437500
2550		-150.390625
2551		-148.437500
2552		-152.343750
2553		-144.531250
2554		-150.390625
2555		-142.578125
2556		-148.437500
2557		-140.625000
2558		-146.484375
2559		-138.671875
2560		-144.531250
2561		-136.718750
2562		-142.578125
2563		-134.765625
2564		-138.671875
2565		-132.812500
2566		-134.765625
2567		-130.859375
2568		-132.812500
2569		-126.953125
2570		-130.859375
2571		-125.000000
2572		-128.906250
2573		-121.093750
2574		-126.953125
2575		-119.140625
2576		-123.046875
2577		-115.234375
2578		-119.140625
2579		-113.281250
2580		-117.187500
2581		-111.328125
2582		-113.281250
2583		-107.421875
2584		-109.375000
2585		-103.515625
2586		-107.421875
2587		-99.609375
2588		-103.515625
2589		-95.703125
2590		-101.562500
2591		-91.796875
2592		-97.656250
2593		-87.890625
2594		-93.750000
2595		-85.937500
2596		-89.843750
2597		-80.078125
2598		-83.984375
2599		-78.125000
2600		-80.078125
2601		-74.218750
2602		-76.171875
2603		-68.359375
2604		-74.218750
2605		-66.406250
2606		-70.312500
2607		-62.500000
2608		-66.406250
2609		-58.593750
2610		-62.500000
2611		-54.687500
2612		-58.593750
2613		-48.828125
2614		-54.687500
2615		-46.875000
2616		-48.828125
2617		-42.968750
2618		-42.968750
2619		-37.109375
2620		-41.015625
2621		-33.203125
2622		-37.109375
2623		-27.343750
2624		-31.250000
2625		-23.437500
2626		-29.296875
2627		-19.531250
2628		-25.390625
2629		-15.625000
2630		-19.531250
2631		-11.718750
2632		-13.671875
2633		-9.765625
2634		-9.765625
2635		-3.906250
2636		-7.812500
2637		1.953125
2638		-3.906250
2639		5.859375
2640		0.000000
2641		9.765625
2642		3.906250
2643		13.671875
2644		9.765625
2645		17.578125
2646		13.671875
2647		21.484375
2648		15.625000
2649		23.437500
2650		23.437500
2651		29.296875
2652		27.343750
2653		35.156250
2654		29.296875
2655		37.109375
2656		33.203125
2657		41.015625
2658		37.109375
2659		44.921875
2660		41.015625
2661		50.781250
2662		44.921875
2663		54.687500
2664		48.828125
2665		56.640625
2666		54.687500
2667		58.593750
2668		58.593750
2669		64.453125
2670		60.546875
2671		68.359375
2672		62.500000
2673		70.312500
2674		66.406250
2675		74.218750
2676		70.312500
2677		78.125000
2678		72.265625
2679		82.031250
2680		76.171875
2681		83.984375
2682		82.031250
2683		85.937500
2684		83.984375
2685		89.843750
2686		87.890625
2687		91.796875
2688		89.843750
2689		95.703125
2690		91.796875
2691		99.609375
2692		95.703125
2693		101.562500
2694		97.656250
2695		103.515625
2696		101.562500
2697		107.421875
2698		103.515625
2699		109.375000
2700		107.421875
2701		111.328125
2702		109.375000
2703		113.281250
2704		109.375000
2705		117.187500
2706		113.281250
2707		119.140625
2708		113.281250
2709		121.093750
2710		117.187500
2711		123.046875
2712		119.140625
2713		125.000000
2714		121.093750
2715		126.953125
2716		125.000000
2717		128.906250
2718		126.953125
2719		128.906250
2720		126.953125
2721		132.812500
2722		128.906250
2723		134.765625
2724		128.906250
2725		136.718750
2726		130.859375
2727		138.671875
2728		130.859375
2729		138.671875
2730		132.812500
2731		140.625000
2732		134.765625
2733		140.625000
2734		138.671875
2735		142.578125
2736		138.671875
2737		142.578125
2738		138.671875
2739		144.531250
2740		138.671875
2741		146.484375
2742		140.625000
2743		146.484375
2744		140.625000
2745		146.484375
2746		142.578125
2747		148.437500
2748		142.578125
2749		148.437500
2750		144.531250
2751		146.484375
2752		144.531250
2753		148.437500
2754		142.578125
2755		148.437500
2756		142.578125
2757		150.390625
2758		144.531250
2759		150.390625
2760		144.531250
2761		150.390625
2762		142.578125
2763		150.390625
2764		144.531250
2765		150.390625
2766		146.484375
2767		148.437500
2768		144.531250
2769		148.437500
2770		144.531250
2771		148.437500
2772		142.578125
2773		148.437500
2774		142.578125
2775		148.437500
2776		140.625000
2777		148.437500
2778		140.625000
2779		148.437500
2780		140.625000
2781		146.484375
2782		138.671875
2783		146.484375
2784		140.625000
2785		142.578125
2786		138.671875
2787		142.578125
2788		136.718750
2789		142.578125
2790		134.765625
2791		142.578125
2792		134.765625
2793		140.625000
2794		132.812500
2795		140.625000
2796		130.859375
2797		138.671875
2798		128.906250
2799		136.718750
2800		128.906250
2801		132.812500
2802		128.906250
2803		130.859375
2804		125.000000
2805		130.859375
2806		123.046875
2807		128.906250
2808		121.093750
2809		126.953125
2810		117.187500
2811		125.000000
2812		115.234375
2813		123.046875
2814		113.281250
2815		121.093750
2816		113.281250
2817		119.140625
2818		111.328125
2819		115.234375
2820		105.468750
2821		113.281250
2822		103.515625
2823		111.328125
2824		101.562500
2825		109.375000
2826		99.609375
2827		105.468750
2828		95.703125
2829		103.515625
2830		93.750000
2831		101.562500
2832		91.796875
2833		97.656250
2834		89.843750
2835		93.750000
2836		85.937500
2837		89.843750
2838		80.078125
2839		89.843750
2840		78.125000
2841		85.937500
2842		74.218750
2843		82.031250
2844		70.312500
2845		78.125000
2846		68.359375
2847		76.171875
2848		64.453125
2849		72.265625
2850		62.500000
2851		68.359375
2852		58.593750
2853		62.500000
2854		54.687500
2855		60.546875
2856		46.875000
2857		58.593750
2858		44.921875
2859		52.734375
2860		41.015625
2861		50.781250
2862		39.062500
2863		46.875000
2864		33.203125
2865		42.968750
2866		31.250000
2867		39.062500
2868		27.343750
2869		33.203125
2870		23.437500
2871		29.296875
2872		17.578125
2873		27.343750
2874		13.671875
2875		21.484375
2876		9.765625
2877		17.578125
2878		5.859375
2879		13.671875
2880		0.000000
2881		9.765625
2882		-3.906250
2883		5.859375
2884		-5.859375
2885		0.000000
2886		-9.765625
2887		-3.906250
2888		-15.625000
2889		-7.812500
2890		-19.531250
2891		-11.718750
2892		-23.437500
2893		-15.625000
2894		-29.296875
2895		-19.531250
2896		-33.203125
2897		-23.437500
2898		-37.109375
2899		-27.343750
2900		-39.062500
2901		-31.250000
2902		-42.968750
2903		-37.109375
2904		-48.828125
2905		-41.015625
2906		-52.734375
2907		-42.968750
2908		-56.640625
2909		-46.875000
2910		-60.546875
2911		-52.734375
2912		-66.406250
2913		-56.640625
2914		-68.359375
2915		-60.546875
2916		-72.265625
2917		-64.453125
2918		-74.218750
2919		-70.312500
2920		-78.125000
2921		-74.218750
2922		-83.984375
2923		-76.171875
2924		-89.843750
2925		-78.125000
2926		-91.796875
2927		-83.984375
2928		-93.750000
2929		-85.937500
2930		-99.609375
2931		-89.843750
2932		-103.515625
2933		-93.750000
2934		-103.515625
2935		-97.656250
2936		-107.421875
2937		-103.515625
2938		-111.328125
2939		-105.468750
2940		-115.234375
2941		-107.421875
2942		-119.140625
2943		-111.328125
2944		-121.093750
2945		-113.281250
2946		-125.000000
2947		-117.187500
2948		-126.953125
2949		-119.140625
2950		-128.906250
2951		-121.093750
2952		-130.859375
2953		-126.953125
2954		-134.765625
2955		-128.906250
2956		-138.671875
2957		-130.859375
2958		-140.625000
2959		-132.812500
2960		-142.578125
2961		-134.765625
2962		-144.531250
2963		-136.718750
2964		-146.484375
2965		-138.671875
2966		-148.437500
2967		-140.625000
2968		-148.437500
2969		-144.531250
2970		-150.390625
2971		-146.484375
2972		-154.296875
2973		-148.437500
2974		-154.296875
2975		-148.437500
2976		-156.250000
2977		-150.390625
2978		-158.203125
2979		-150.390625
2980		-158.203125
2981		-152.343750
2982		-160.156250
2983		-152.343750
2984		-160.156250
2985		-154.296875
2986		-160.156250
2987		-156.250000
2988		-162.109375
2989		-156.250000
2990		-162.109375
2991		-156.250000
2992		-164.062500
2993		-156.250000
2994		-164.062500
2995		-156.250000
2996		-164.062500
2997		-158.203125
2998		-164.062500
2999		-156.250000
3000		-164.062500
3001		-156.250000
3002		-160.156250
3003		-158.203125
3004		-162.109375
3005		-158.203125
3006		-162.109375
3007		-156.250000
3008		-162.109375
3009		-156.250000
3010		-162.109375
3011		-154.296875
3012		-160.156250
3013		-154.296875
3014		-160.156250
3015		-152.343750
3016		-158.203125
3017		-150.390625
3018		-156.250000
3019		-152.343750
3020		-154.296875
3021		-150.390625
3022		-152.343750
3023		-146.484375
3024		-152.343750
3025		-146.484375
3026		-150.390625
3027		-144.531250
3028		-148.437500
3029		-140.625000
3030		-146.484375
3031		-138.671875
3032		-146.484375
3033		-136.718750
3034		-142.578125
3035		-136.718750
3036		-138.671875
3037		-134.765625
3038		-136.718750
3039		-130.859375
3040		-134.765625
3041		-126.953125
3042		-132.812500
3043		-125.000000
3044		-130.859375
3045		-123.046875
3046		-126.953125
3047		-119.140625
3048		-125.000000
3049		-115.234375
3050		-121.093750
3051		-113.281250
3052		-115.234375
3053		-111.328125
3054		-113.281250
3055		-107.421875
3056		-109.375000
3057		-103.515625
3058		-109.375000
3059		-99.609375
3060		-105.468750
3061		-95.703125
3062		-99.609375
3063		-91.796875
3064		-97.656250
3065		-89.843750
3066		-93.750000
3067		-85.937500
3068		-89.843750
3069		-83.984375
3070		-83.984375
3071		-80.078125
3072		-80.078125
3073		-74.218750
3074		-78.125000
3075		-70.312500
3076		-74.218750
3077		-66.406250
3078		-70.312500
3079		-60.546875
3080		-68.359375
3081		-58.593750
3082		-62.500000
3083		-52.734375
3084		-58.593750
3085		-50.781250
3086		-52.734375
3087		-46.875000
3088		-48.828125
3089		-42.968750
3090		-44.921875
3091		-37.109375
3092		-41.015625
3093		-33.203125
3094		-37.109375
3095		-27.343750
3096		-33.203125
3097		-25.390625
3098		-29.296875
3099		-19.531250
3100		-23.437500
3101		-15.625000
3102		-21.484375
3103		-13.671875
3104		-13.671875
3105		-9.765625
3106		-9.765625
3107		-1.953125
3108		-5.859375
3109		1.953125
3110		-3.906250
3111		3.906250
3112		0.000000
3113		9.765625
3114		3.906250
3115		13.671875
3116		9.765625
3117		19.531250
3118		11.718750
3119		19.531250
3120		19.531250
3121		23.437500
3122		23.437500
3123		29.296875
3124		25.390625
3125		35.156250
3126		29.296875
3127		37.109375
3128		33.203125
3129		41.015625
3130		37.109375
3131		46.875000
3132		41.015625
3133		50.781250
3134		42.968750
3135		52.734375
3136		50.781250
3137		54.687500
3138		54.687500
3139		58.593750
3140		56.640625
3141		64.453125
3142		58.593750
3143		68.359375
3144		64.453125
3145		70.312500
3146		66.406250
3147		74.218750
3148		70.312500
3149		78.125000
3150		72.265625
3151		80.078125
3152		76.171875
3153		82.031250
3154		80.078125
3155		85.937500
3156		83.984375
3157		89.843750
3158		85.937500
3159		93.750000
3160		87.890625
3161		97.656250
3162		91.796875
3163		99.609375
3164		93.750000
3165		101.562500
3166		97.656250
3167		105.468750
3168		99.609375
3169		107.421875
3170		103.515625
3171		107.421875
3172		107.421875
3173		111.328125
3174		107.421875
3175		113.281250
3176		109.375000
3177		117.187500
3178		111.328125
3179		119.140625
3180		113.281250
3181		121.093750
3182		117.187500
3183		123.046875
3184		117.187500
3185		125.000000
3186		121.093750
3187		125.000000
3188		123.046875
3189		126.953125
3190		125.000000
3191		130.859375
3192		125.000000
3193		132.812500
3194		126.953125
3195		134.765625
3196		128.906250
3197		134.765625
3198		130.859375
3199		136.718750
3200		130.859375
3201		138.671875
3202		132.812500
3203		140.625000
3204		136.718750
3205		138.671875
3206		136.718750
3207		140.625000
3208		136.718750
3209		142.578125
3210		136.718750
3211		144.531250
3212		138.671875
3213		144.531250
3214		138.671875
3215		146.484375
3216		140.625000
3217		146.484375
3218		140.625000
3219		146.484375
3220		142.578125
3221		144.531250
3222		142.578125
3223		146.484375
3224		142.578125
3225		148.437500
3226		142.578125
3227		148.437500
3228		142.578125
3229		148.437500
3230		142.578125
3231		148.437500
3232		142.578125
3233		148.437500
3234		142.578125
3235		150.390625
3236		142.578125
3237		148.437500
3238		144.531250
3239		146.484375
3240		142.578125
3241		146.484375
3242		142.578125
3243		148.437500
3244		140.625000
3245		148.437500
3246		140.625000
3247		148.437500
3248		140.625000
3249		146.484375
3250		138.671875
3251		146.484375
3252		138.671875
3253		144.531250
3254		140.625000
3255		142.578125
3256		138.671875
3257		142.578125
3258		134.765625
3259		142.578125
3260		134.765625
3261		142.578125
3262		132.812500
3263		140.625000
3264		132.812500
3265		140.625000
3266		130.859375
3267		138.671875
3268		128.906250
3269		136.718750
3270		128.906250
3271		134.765625
3272		128.906250
3273		130.859375
3274		125.000000
3275		130.859375
3276		123.046875
3277		128.906250
3278		121.093750
3279		126.953125
3280		117.187500
3281		126.953125
3282		117.187500
3283		123.046875
3284		115.234375
3285		121.093750
3286		113.281250
3287		119.140625
3288		111.328125
3289		115.234375
3290		109.375000
3291		113.281250
3292		105.468750
3293		111.328125
3294		103.515625
3295		111.328125
3296		99.609375
3297		107.421875
3298		97.656250
3299		103.515625
3300		93.750000
3301		103.515625
3302		91.796875
3303		99.609375
3304		89.843750
3305		93.750000
3306		87.890625
3307		91.796875
3308		82.031250
3309		87.890625
3310		78.125000
3311		85.937500
3312		76.171875
3313		83.984375
3314		72.265625
3315		80.078125
3316		68.359375
3317		78.125000
3318		64.453125
3319		74.218750
3320		62.500000
3321		70.312500
3322		60.546875
3323		64.453125
3324		56.640625
3325		60.546875
3326		50.781250
3327		60.546875
3328		46.875000
3329		54.687500
3330		44.921875
3331		50.781250
3332		41.015625
3333		48.828125
3334		35.156250
3335		44.921875
3336		31.250000
3337		41.015625
3338		29.296875
3339		35.156250
3340		25.390625
3341		31.250000
3342		19.531250
3343		27.343750
3344		15.625000
3345		23.437500
3346		11.718750
3347		19.531250
3348		7.812500
3349		15.625000
3350		1.953125
3351		11.718750
3352		0.000000
3353		7.812500
3354		-3.906250
3355		3.906250
3356		-7.812500
3357		-1.953125
3358		-13.671875
3359		-5.859375
3360		-19.531250
3361		-9.765625
3362		-21.484375
3363		-13.671875
3364		-27.343750
3365		-17.578125
3366		-29.296875
3367		-21.484375
3368		-35.156250
3369		-25.390625
3370		-37.109375
3371		-29.296875
3372		-41.015625
3373		-35.156250
3374		-44.921875
3375		-39.062500
3376		-50.781250
3377		-42.968750
3378		-54.687500
3379		-46.875000
3380		-60.546875
3381		-50.781250
3382		-62.500000
3383		-54.687500
3384		-68.359375
3385		-58.593750
3386		-70.312500
3387		-62.500000
3388		-74.218750
3389		-68.359375
3390		-78.125000
3391		-72.265625
3392		-82.031250
3393		-76.171875
3394		-87.890625
3395		-78.125000
3396		-89.843750
3397		-82.031250
3398		-93.750000
3399		-85.937500
3400		-97.656250
3401		-87.890625
3402		-101.562500
3403		-93.750000
3404		-103.515625
3405		-97.656250
3406		-105.468750
3407		-101.562500
3408		-109.375000
3409		-105.468750
3410		-115.234375
3411		-105.468750
3412		-117.187500
3413		-109.375000
3414		-121.093750
3415		-111.328125
3416		-125.000000
3417		-115.234375
3418		-126.953125
3419		-119.140625
3420		-128.906250
3421		-123.046875
3422		-130.859375
3423		-126.953125
3424		-132.812500
3425		-128.906250
3426		-138.671875
3427		-130.859375
3428		-140.625000
3429		-132.812500
3430		-142.578125
3431		-134.765625
3432		-144.531250
3433		-136.718750
3434		-146.484375
3435		-140.625000
3436		-148.437500
3437		-142.578125
3438		-150.390625
3439		-142.578125
3440		-150.390625
3441		-146.484375
3442		-154.296875
3443		-148.437500
3444		-156.250000
3445		-148.437500
3446		-158.203125
3447		-150.390625
3448		-160.156250
3449		-152.343750
3450		-160.156250
3451		-154.296875
3452		-162.109375
3453		-154.296875
3454		-162.109375
3455		-154.296875
3456		-162.109375
3457		-158.203125
3458		-162.109375
3459		-160.156250
3460		-164.062500
3461		-158.203125
3462		-166.015625
3463		-158.203125
3464		-166.015625
3465		-158.203125
3466		-166.015625
3467		-160.156250
3468		-166.015625
3469		-158.203125
3470		-166.015625
3471		-160.156250
3472		-164.062500
3473		-160.156250
3474		-164.062500
3475		-160.156250
3476		-164.062500
3477		-158.203125
3478		-164.062500
3479		-158.203125
3480		-164.062500
3481		-158.203125
3482		-164.062500
3483		-156.250000
3484		-162.109375
3485		-156.250000
3486		-162.109375
3487		-154.296875
3488		-160.156250
3489		-154.296875
3490		-156.250000
3491		-154.296875
3492		-156.250000
3493		-152.343750
3494		-156.250000
3495		-150.390625
3496		-154.296875
3497		-146.484375
3498		-152.343750
3499		-146.484375
3500		-152.343750
3501		-144.531250
3502		-148.437500
3503		-140.625000
3504		-146.484375
3505		-140.625000
3506		-142.578125
3507		-138.671875
3508		-140.625000
3509		-136.718750
3510		-138.671875
3511		-130.859375
3512		-136.718750
3513		-128.906250
3514		-134.765625
3515		-126.953125
3516		-132.812500
3517		-123.046875
3518		-128.906250
3519		-121.093750
3520		-126.953125
3521		-119.140625
3522		-123.046875
3523		-117.187500
3524		-119.140625
3525		-113.281250
3526		-115.234375
3527		-107.421875
3528		-113.281250
3529		-107.421875
3530		-109.375000
3531		-101.562500
3532		-105.468750
3533		-97.656250
3534		-101.562500
3535		-95.703125
3536		-99.609375
3537		-91.796875
3538		-93.750000
3539		-87.890625
3540		-89.843750
3541		-83.984375
3542		-85.937500
3543		-80.078125
3544		-83.984375
3545		-76.171875
3546		-80.078125
3547		-70.312500
3548		-76.171875
3549		-66.406250
3550		-70.312500
3551		-62.500000
3552		-68.359375
3553		-58.593750
3554		-64.453125
3555		-54.687500
3556		-58.593750
3557		-52.734375
3558		-52.734375
3559		-48.828125
3560		-48.828125
3561		-41.015625
3562		-46.875000
3563		-37.109375
3564		-42.968750
3565		-33.203125
3566		-39.062500
3567		-29.296875
3568		-35.156250
3569		-25.390625
3570		-29.296875
3571		-19.531250
3572		-25.390625
3573		-17.578125
3574		-19.531250
3575		-13.671875
3576		-15.625000
3577		-9.765625
3578		-13.671875
3579		-3.906250
3580		-7.812500
3581		0.000000
3582		-3.906250
3583		3.906250
3584		0.000000
3585		7.812500
3586		3.906250
3587		13.671875
3588		9.765625
3589		15.625000
3590		13.671875
3591		19.531250
3592		17.578125
3593		23.437500
3594		21.484375
3595		29.296875
3596		25.390625
3597		33.203125
3598		27.343750
3599		37.109375
3600		33.203125
3601		41.015625
3602		37.109375
3603		44.921875
3604		41.015625
3605		48.828125
3606		42.968750
3607		50.781250
3608		48.828125
3609		54.687500
3610		52.734375
3611		58.593750
3612		54.687500
3613		64.453125
3614		58.593750
3615		66.406250
3616		62.500000
3617		70.312500
3618		66.406250
3619		72.265625
3620		68.359375
3621		76.171875
3622		72.265625
3623		80.078125
3624		78.125000
3625		82.031250
3626		80.078125
3627		85.937500
3628		82.031250
3629		89.843750
3630		83.984375
3631		91.796875
3632		87.890625
3633		95.703125
3634		89.843750
3635		97.656250
3636		93.750000
3637		101.562500
3638		95.703125
3639		105.468750
3640		99.609375
3641		105.468750
3642		103.515625
3643		107.421875
3644		105.468750
3645		111.328125
3646		107.421875
3647		113.281250
3648		109.375000
3649		115.234375
3650		111.328125
3651		119.140625
3652		113.281250
3653		121.093750
3654		115.234375
3655		123.046875
3656		117.187500
3657		123.046875
3658		121.093750
3659		125.000000
3660		123.046875
3661		126.953125
3662		123.046875
3663		130.859375
3664		125.000000
3665		130.859375
3666		125.000000
3667		132.812500
3668		128.906250
3669		134.765625
3670		128.906250
3671		136.718750
3672		128.906250
3673		136.718750
3674		134.765625
3675		136.718750
3676		134.765625
3677		138.671875
3678		134.765625
3679		140.625000
3680		134.765625
3681		140.625000
3682		136.718750
3683		142.578125
3684		136.718750
3685		144.531250
3686		138.671875
3687		144.531250
3688		138.671875
3689		144.531250
3690		140.625000
3691		144.531250
3692		142.578125
3693		144.531250
3694		142.578125
3695		146.484375
3696		140.625000
3697		148.437500
3698		140.625000
3699		148.437500
3700		140.625000
3701		148.437500
3702		140.625000
3703		146.484375
3704		140.625000
3705		148.437500
3706		140.625000
3707		146.484375
3708		142.578125
3709		144.531250
3710		142.578125
3711		144.531250
3712		140.625000
3713		146.484375
3714		140.625000
3715		146.484375
3716		140.625000
3717		146.484375
3718		138.671875
3719		146.484375
3720		138.671875
3721		144.531250
3722		136.718750
3723		144.531250
3724		138.671875
3725		142.578125
3726		138.671875
3727		140.625000
3728		134.765625
3729		140.625000
3730		134.765625
3731		140.625000
3732		132.812500
3733		140.625000
3734		132.812500
3735		138.671875
3736		130.859375
3737		136.718750
3738		128.906250
3739		136.718750
3740		128.906250
3741		134.765625
3742		126.953125
3743		130.859375
3744		125.000000
3745		128.906250
3746		123.046875
3747		128.906250
3748		121.093750
3749		126.953125
3750		119.140625
3751		125.000000
3752		115.234375
3753		123.046875
3754		117.187500
3755		123.046875
3756		113.281250
3757		121.093750
3758		111.328125
3759		115.234375
3760		109.375000
3761		113.281250
3762		105.468750
3763		111.328125
3764		103.515625
3765		109.375000
3766		101.562500
3767		107.421875
3768		97.656250
3769		105.468750
3770		93.750000
3771		101.562500
3772		93.750000
3773		99.609375
3774		89.843750
3775		95.703125
3776		87.890625
3777		91.796875
3778		83.984375
3779		89.843750
3780		82.031250
3781		85.937500
3782		78.125000
3783		83.984375
3784		74.218750
3785		80.078125
3786		72.265625
3787		76.171875
3788		66.406250
3789		72.265625
3790		64.453125
3791		70.312500
3792		60.546875
3793		66.406250
3794		56.640625
3795		62.500000
3796		54.687500
3797		58.593750
3798		48.828125
3799		54.687500
3800		46.875000
3801		50.781250
3802		42.968750
3803		50.781250
3804		39.062500
3805		42.968750
3806		35.156250
3807		41.015625
3808		31.250000
3809		37.109375
3810		25.390625
3811		31.250000
3812		23.437500
3813		27.343750
3814		17.578125
3815		23.437500
3816		13.671875
3817		19.531250
3818		9.765625
3819		15.625000
3820		5.859375
3821		11.718750
3822		1.953125
3823		7.812500
3824		-1.953125
3825		3.906250
3826		-5.859375
3827		0.000000
3828		-11.718750
3829		-5.859375
3830		-15.625000
3831		-9.765625
3832		-19.531250
3833		-11.718750
3834		-23.437500
3835		-17.578125
3836		-27.343750
3837		-21.484375
3838		-31.250000
3839		-25.390625
3840		-37.109375
3841		-29.296875
3842		-39.062500
3843		-33.203125
3844		-42.968750
3845		-39.062500
3846		-48.828125
3847		-42.968750
3848		-52.734375
3849		-44.921875
3850		-56.640625
3851		-50.781250
3852		-60.546875
3853		-54.687500
3854		-64.453125
3855		-58.593750
3856		-68.359375
3857		-62.500000
3858		-72.265625
3859		-66.406250
3860		-76.171875
3861		-70.312500
3862		-80.078125
3863		-74.218750
3864		-83.984375
3865		-78.125000
3866		-87.890625
3867		-82.031250
3868		-91.796875
3869		-85.937500
3870		-95.703125
3871		-89.843750
3872		-97.656250
3873		-93.750000
3874		-101.562500
3875		-95.703125
3876		-105.468750
3877		-99.609375
3878		-109.375000
3879		-103.515625
3880		-111.328125
3881		-107.421875
3882		-115.234375
3883		-109.375000
3884		-119.140625
3885		-113.281250
3886		-121.093750
3887		-117.187500
3888		-125.000000
3889		-119.140625
3890		-126.953125
3891		-123.046875
3892		-130.859375
3893		-125.000000
3894		-132.812500
3895		-128.906250
3896		-136.718750
3897		-130.859375
3898		-138.671875
3899		-132.812500
3900		-140.625000
3901		-134.765625
3902		-142.578125
3903		-138.671875
3904		-144.531250
3905		-140.625000
3906		-146.484375
3907		-142.578125
3908		-150.390625
3909		-144.531250
3910		-150.390625
3911		-146.484375
3912		-152.343750
3913		-148.437500
3914		-154.296875
3915		-150.390625
3916		-156.250000
3917		-152.343750
3918		-158.203125
3919		-154.296875
3920		-158.203125
3921		-156.250000
3922		-160.156250
3923		-156.250000
3924		-162.109375
3925		-158.203125
3926		-162.109375
3927		-158.203125
3928		-162.109375
3929		-160.156250
3930		-164.062500
3931		-160.156250
3932		-164.062500
3933		-160.156250
3934		-164.062500
3935		-162.109375
3936		-164.062500
3937		-162.109375
3938		-166.015625
3939		-162.109375
3940		-166.015625
3941		-162.109375
3942		-166.015625
3943		-162.109375
3944		-164.062500
3945		-162.109375
3946		-166.015625
3947		-160.156250
3948		-164.062500
3949		-162.109375
3950		-164.062500
3951		-160.156250
3952		-164.062500
3953		-160.156250
3954		-162.109375
3955		-160.156250
3956		-162.109375
3957		-158.203125
3958		-162.109375
3959		-158.203125
3960		-160.156250
3961		-156.250000
3962		-158.203125
3963		-154.296875
3964		-158.203125
3965		-154.296875
3966		-156.250000
3967		-152.343750
3968		-154.296875
3969		-150.390625
3970		-152.343750
3971		-148.437500
3972		-150.390625
3973		-146.484375
3974		-148.437500
3975		-144.531250
3976		-146.484375
3977		-142.578125
3978		-144.531250
3979		-140.625000
3980		-142.578125
3981		-136.718750
3982		-138.671875
3983		-134.765625
3984		-136.718750
3985		-132.812500
3986		-132.812500
3987		-128.906250
3988		-130.859375
3989		-126.953125
3990		-128.906250
3991		-123.046875
3992		-125.000000
3993		-121.093750
3994		-123.046875
3995		-117.187500
3996		-119.140625
3997		-113.281250
3998		-117.187500
3999		-111.328125
4000		-113.281250
4001		-107.421875
4002		-109.375000
4003		-103.515625
4004		-105.468750
4005		-99.609375
4006		-101.562500
4007		-95.703125
4008		-97.656250
4009		-91.796875
4010		-93.750000
4011		-89.843750
4012		-89.843750
4013		-85.937500
4014		-87.890625
4015		-82.031250
4016		-83.984375
4017		-78.125000
4018		-78.125000
4019		-74.218750
4020		-76.171875
4021		-70.312500
4022		-70.312500
4023		-64.453125
4024		-66.406250
4025		-60.546875
4026		-62.500000
4027		-56.640625
4028		-58.593750
4029		-52.734375
4030		-54.687500
4031		-46.875000
4032		-50.781250
4033		-42.968750
4034		-46.875000
4035		-39.062500
4036		-41.015625
4037		-35.156250
4038		-37.109375
4039		-31.250000
4040		-33.203125
4041		-27.343750
4042		-29.296875
4043		-23.437500
4044		-23.437500
4045		-19.531250
4046		-19.531250
4047		-13.671875
4048		-15.625000
4049		-9.765625
4050		-11.718750
4051		-5.859375
4052		-7.812500
4053		-1.953125
4054		-3.906250
4055		1.953125
4056		0.000000
4057		7.812500
4058		5.859375
4059		11.718750
4060		7.812500
4061		15.625000
4062		13.671875
4063		19.531250
4064		17.578125
4065		23.437500
4066		21.484375
4067		27.343750
4068		25.390625
4069		31.250000
4070		29.296875
4071		35.156250
4072		33.203125
4073		39.062500
4074		37.109375
4075		42.968750
4076		41.015625
4077		46.875000
4078		44.921875
4079		50.781250
4080		48.828125
4081		54.687500
4082		50.781250
4083		58.593750
4084		56.640625
4085		60.546875
4086		60.546875
4087		64.453125
4088		62.500000
4089		70.312500
4090		66.406250
4091		72.265625
4092		70.312500
4093		74.218750
4094		72.265625
4095		78.125000
4096		76.171875
4097		82.031250
4098		80.078125
4099		83.984375
4100		82.031250
4101		87.890625
4102		85.937500
4103		89.843750
4104		89.843750
4105		93.750000
4106		91.796875
4107		97.656250
4108		93.750000
4109		99.609375
4110		97.656250
4111		101.562500
4112		101.562500
4113		103.515625
4114		103.515625
4115		107.421875
4116		105.468750
4117		109.375000
4118		107.421875
4119		111.328125
4120		109.375000
4121		113.281250
4122		111.328125
4123		117.187500
4124		115.234375
4125		119.140625
4126		117.187500
4127		121.093750
4128		119.140625
4129		123.046875
4130		121.093750
4131		125.000000
4132		123.046875
4133		126.953125
4134		125.000000
4135		128.906250
4136		126.953125
4137		130.859375
4138		126.953125
4139		132.812500
4140		128.906250
4141		132.812500
4142		130.859375
4143		134.765625
4144		130.859375
4145		136.718750
4146		132.812500
4147		136.718750
4148		134.765625
4149		138.671875
4150		136.718750
4151		138.671875
4152		136.718750
4153		140.625000
4154		138.671875
4155		140.625000
4156		138.671875
4157		142.578125
4158		138.671875
4159		142.578125
4160		138.671875
4161		142.578125
4162		140.625000
4163		142.578125
4164		140.625000
4165		144.531250
4166		140.625000
4167		144.531250
4168		142.578125
4169		144.531250
4170		142.578125
4171		146.484375
4172		142.578125
4173		146.484375
4174		142.578125
4175		146.484375
4176		142.578125
4177		146.484375
4178		142.578125
4179		144.531250
4180		142.578125
4181		144.531250
4182		142.578125
4183		146.484375
4184		142.578125
4185		144.531250
4186		140.625000
4187		144.531250
4188		140.625000
4189		144.531250
4190		140.625000
4191		144.531250
4192		138.671875
4193		142.578125
4194		138.671875
4195		142.578125
4196		138.671875
4197		140.625000
4198		136.718750
4199		140.625000
4200		134.765625
4201		138.671875
4202		134.765625
4203		138.671875
4204		132.812500
4205		138.671875
4206		132.812500
4207		136.718750
4208		130.859375
4209		134.765625
4210		128.906250
4211		132.812500
4212		128.906250
4213		132.812500
4214		126.953125
4215		130.859375
4216		125.000000
4217		128.906250
4218		123.046875
4219		126.953125
4220		121.093750
4221		125.000000
4222		119.140625
4223		123.046875
4224		117.187500
4225		121.093750
4226		115.234375
4227		119.140625
4228		113.281250
4229		117.187500
4230		111.328125
4231		115.234375
4232		107.421875
4233		111.328125
4234		105.468750
4235		109.375000
4236		103.515625
4237		107.421875
4238		99.609375
4239		105.468750
4240		97.656250
4241		103.515625
4242		95.703125
4243		99.609375
4244		91.796875
4245		97.656250
4246		89.843750
4247		93.750000
4248		85.937500
4249		89.843750
4250		82.031250
4251		87.890625
4252		78.125000
4253		83.984375
4254		76.171875
4255		82.031250
4256		72.265625
4257		78.125000
4258		70.312500
4259		74.218750
4260		66.406250
4261		72.265625
4262		62.500000
4263		68.359375
4264		58.593750
4265		64.453125
4266		54.687500
4267		60.546875
4268		50.781250
4269		56.640625
4270		46.875000
4271		52.734375
4272		42.968750
4273		50.781250
4274		41.015625
4275		44.921875
4276		35.156250
4277		42.968750
4278		33.203125
4279		37.109375
4280		29.296875
4281		33.203125
4282		23.437500
4283		29.296875
4284		19.531250
4285		27.343750
4286		15.625000
4287		21.484375
4288		11.718750
4289		19.531250
4290		7.812500
4291		13.671875
4292		3.906250
4293		9.765625
4294		0.000000
4295		5.859375
4296		-3.906250
4297		1.953125
4298		-7.812500
4299		-3.906250
4300		-13.671875
4301		-7.812500
4302		-17.578125
4303		-9.765625
4304		-21.484375
4305		-15.625000
4306		-25.390625
4307		-19.531250
4308		-29.296875
4309		-23.437500
4310		-35.156250
4311		-27.343750
4312		-37.109375
4313		-31.250000
4314		-42.968750
4315		-37.109375
4316		-46.875000
4317		-41.015625
4318		-50.781250
4319		-42.968750
4320		-54.687500
4321		-48.828125
4322		-58.593750
4323		-50.781250
4324		-62.500000
4325		-54.687500
4326		-66.406250
4327		-60.546875
4328		-70.312500
4329		-64.453125
4330		-74.218750
4331		-68.359375
4332		-78.125000
4333		-72.265625
4334		-82.031250
4335		-76.171875
4336		-85.937500
4337		-78.125000
4338		-89.843750
4339		-82.031250
4340		-93.750000
4341		-87.890625
4342		-97.656250
4343		-89.843750
4344		-101.562500
4345		-93.750000
4346		-103.515625
4347		-97.656250
4348		-107.421875
4349		-101.562500
4350		-111.328125
4351		-105.468750
4352		-115.234375
4353		-107.421875
4354		-117.187500
4355		-111.328125
4356		-121.093750
4357		-115.234375
4358		-123.046875
4359		-117.187500
4360		-126.953125
4361		-121.093750
4362		-128.906250
4363		-123.046875
4364		-130.859375
4365		-126.953125
4366		-134.765625
4367		-130.859375
4368		-136.718750
4369		-132.812500
4370		-138.671875
4371		-134.765625
4372		-140.625000
4373		-136.718750
4374		-144.531250
4375		-140.625000
4376		-146.484375
4377		-142.578125
4378		-150.390625
4379		-144.531250
4380		-150.390625
4381		-146.484375
4382		-152.343750
4383		-148.437500
4384		-154.296875
4385		-150.390625
4386		-154.296875
4387		-152.343750
4388		-156.250000
4389		-154.296875
4390		-158.203125
4391		-154.296875
4392		-160.156250
4393		-156.250000
4394		-160.156250
4395		-158.203125
4396		-162.109375
4397		-158.203125
4398		-162.109375
4399		-160.156250
4400		-164.062500
4401		-160.156250
4402		-164.062500
4403		-162.109375
4404		-164.062500
4405		-162.109375
4406		-164.062500
4407		-162.109375
4408		-166.015625
4409		-162.109375
4410		-166.015625
4411		-164.062500
4412		-166.015625
4413		-164.062500
4414		-166.015625
4415		-164.062500
4416		-166.015625
4417		-162.109375
4418		-166.015625
4419		-162.109375
4420		-164.062500
4421		-162.109375
4422		-164.062500
4423		-162.109375
4424		-164.062500
4425		-160.156250
4426		-162.109375
4427		-160.156250
4428		-162.109375
4429		-158.203125
4430		-160.156250
4431		-158.203125
4432		-160.156250
4433		-156.250000
4434		-158.203125
4435		-154.296875
4436		-156.250000
4437		-154.296875
4438		-154.296875
4439		-152.343750
4440		-154.296875
4441		-150.390625
4442		-152.343750
4443		-148.437500
4444		-150.390625
4445		-146.484375
4446		-148.437500
4447		-144.531250
4448		-146.484375
4449		-142.578125
4450		-144.531250
4451		-140.625000
4452		-140.625000
4453		-136.718750
4454		-138.671875
4455		-134.765625
4456		-136.718750
4457		-130.859375
4458		-132.812500
4459		-128.906250
4460		-130.859375
4461		-126.953125
4462		-126.953125
4463		-123.046875
4464		-125.000000
4465		-119.140625
4466		-121.093750
4467		-117.187500
4468		-119.140625
4469		-111.328125
4470		-117.187500
4471		-107.421875
4472		-113.281250
4473		-105.468750
4474		-107.421875
4475		-103.515625
4476		-105.468750
4477		-99.609375
4478		-101.562500
4479		-95.703125
4480		-97.656250
4481		-91.796875
4482		-93.750000
4483		-87.890625
4484		-89.843750
4485		-82.031250
4486		-89.843750
4487		-76.171875
4488		-85.937500
4489		-74.218750
4490		-82.031250
4491		-72.265625
4492		-74.218750
4493		-68.359375
4494		-70.312500
4495		-64.453125
4496		-66.406250
4497		-60.546875
4498		-62.500000
4499		-56.640625
4500		-58.593750
4501		-52.734375
4502		-56.640625
4503		-46.875000
4504		-52.734375
4505		-42.968750
4506		-46.875000
4507		-37.109375
4508		-41.015625
4509		-35.156250
4510		-37.109375
4511		-31.250000
4512		-31.250000
4513		-27.343750
4514		-27.343750
4515		-23.437500
4516		-23.437500
4517		-17.578125
4518		-19.531250
4519		-11.718750
4520		-17.578125
4521		-5.859375
4522		-13.671875
4523		-1.953125
4524		-9.765625
4525		-1.953125
4526		-1.953125
4527		3.906250
4528		1.953125
4529		7.812500
4530		5.859375
4531		11.718750
4532		9.765625
4533		15.625000
4534		13.671875
4535		19.531250
4536		15.625000
4537		27.343750
4538		19.531250
4539		31.250000
4540		23.437500
4541		33.203125
4542		31.250000
4543		35.156250
4544		35.156250
4545		39.062500
4546		39.062500
4547		42.968750
4548		42.968750
4549		46.875000
4550		46.875000
4551		50.781250
4552		48.828125
4553		56.640625
4554		52.734375
4555		60.546875
4556		54.687500
4557		64.453125
4558		60.546875
4559		64.453125
4560		64.453125
4561		68.359375
4562		68.359375
4563		72.265625
4564		70.312500
4565		76.171875
4566		74.218750
4567		78.125000
4568		76.171875
4569		85.937500
4570		78.125000
4571		87.890625
4572		80.078125
4573		91.796875
4574		83.984375
4575		91.796875
4576		89.843750
4577		93.750000
4578		91.796875
4579		97.656250
4580		95.703125
4581		99.609375
4582		97.656250
4583		103.515625
4584		101.562500
4585		105.468750
4586		101.562500
4587		109.375000
4588		103.515625
4589		111.328125
4590		105.468750
4591		115.234375
4592		111.328125
4593		115.234375
4594		113.281250
4595		117.187500
4596		115.234375
4597		119.140625
4598		117.187500
4599		121.093750
4600		119.140625
4601		123.046875
4602		119.140625
4603		128.906250
4604		121.093750
4605		128.906250
4606		121.093750
4607		130.859375
4608		123.046875
4609		130.859375
4610		128.906250
4611		130.859375
4612		128.906250
4613		132.812500
4614		130.859375
4615		134.765625
4616		132.812500
4617		134.765625
4618		132.812500
4619		136.718750
4620		132.812500
4621		140.625000
4622		132.812500
4623		140.625000
4624		132.812500
4625		142.578125
4626		138.671875
4627		140.625000
4628		138.671875
4629		140.625000
4630		138.671875
4631		142.578125
4632		140.625000
4633		142.578125
4634		140.625000
4635		142.578125
4636		138.671875
4637		146.484375
4638		138.671875
4639		146.484375
4640		138.671875
4641		148.437500
4642		142.578125
4643		144.531250
4644		142.578125
4645		144.531250
4646		142.578125
4647		144.531250
4648		142.578125
4649		144.531250
4650		142.578125
4651		144.531250
4652		142.578125
4653		144.531250
4654		142.578125
4655		146.484375
4656		138.671875
4657		146.484375
4658		140.625000
4659		144.531250
4660		140.625000
4661		142.578125
4662		140.625000
4663		142.578125
4664		138.671875
4665		142.578125
4666		138.671875
4667		140.625000
4668		138.671875
4669		140.625000
4670		136.718750
4671		138.671875
4672		132.812500
4673		140.625000
4674		132.812500
4675		140.625000
4676		132.812500
4677		136.718750
4678		130.859375
4679		134.765625
4680		130.859375
4681		134.765625
4682		128.906250
4683		132.812500
4684		126.953125
4685		130.859375
4686		126.953125
4687		128.906250
4688		125.000000
4689		126.953125
4690		123.046875
4691		126.953125
4692		121.093750
4693		125.000000
4694		119.140625
4695		123.046875
4696		117.187500
4697		119.140625
4698		113.281250
4699		117.187500
4700		111.328125
4701		115.234375
4702		109.375000
4703		113.281250
4704		107.421875
4705		111.328125
4706		103.515625
4707		109.375000
4708		101.562500
4709		105.468750
4710		99.609375
4711		103.515625
4712		95.703125
4713		101.562500
4714		93.750000
4715		97.656250
4716		89.843750
4717		95.703125
4718		87.890625
4719		91.796875
4720		83.984375
4721		89.843750
4722		82.031250
4723		85.937500
4724		78.125000
4725		83.984375
4726		74.218750
4727		80.078125
4728		72.265625
4729		76.171875
4730		68.359375
4731		72.265625
4732		64.453125
4733		70.312500
4734		60.546875
4735		66.406250
4736		56.640625
4737		62.500000
4738		54.687500
4739		58.593750
4740		50.781250
4741		54.687500
4742		46.875000
4743		50.781250
4744		42.968750
4745		46.875000
4746		39.062500
4747		42.968750
4748		35.156250
4749		39.062500
4750		31.250000
4751		37.109375
4752		27.343750
4753		33.203125
4754		23.437500
4755		27.343750
4756		19.531250
4757		25.390625
4758		13.671875
4759		19.531250
4760		9.765625
4761		15.625000
4762		5.859375
4763		11.718750
4764		1.953125
4765		7.812500
4766		-1.953125
4767		3.906250
4768		-5.859375
4769		0.000000
4770		-9.765625
4771		-5.859375
4772		-13.671875
4773		-7.812500
4774		-19.531250
4775		-13.671875
4776		-23.437500
4777		-17.578125
4778		-27.343750
4779		-21.484375
4780		-31.250000
4781		-25.390625
4782		-35.156250
4783		-29.296875
4784		-39.062500
4785		-33.203125
4786		-44.921875
4787		-39.062500
4788		-48.828125
4789		-41.015625
4790		-50.781250
4791		-44.921875
4792		-56.640625
4793		-50.781250
4794		-60.546875
4795		-54.687500
4796		-64.453125
4797		-58.593750
4798		-68.359375
4799		-62.500000
4800		-72.265625
4801		-66.406250
4802		-76.171875
4803		-70.312500
4804		-80.078125
4805		-74.218750
4806		-83.984375
4807		-78.125000
4808		-87.890625
4809		-82.031250
4810		-91.796875
4811		-85.937500
4812		-93.750000
4813		-87.890625
4814		-97.656250
4815		-93.750000
4816		-101.562500
4817		-97.656250
4818		-105.468750
4819		-99.609375
4820		-109.375000
4821		-103.515625
4822		-111.328125
4823		-105.468750
4824		-115.234375
4825		-109.375000
4826		-117.187500
4827		-113.281250
4828		-121.093750
4829		-117.187500
4830		-125.000000
4831		-119.140625
4832		-126.953125
4833		-123.046875
4834		-130.859375
4835		-125.000000
4836		-132.812500
4837		-128.906250
4838		-134.765625
4839		-128.906250
4840		-136.718750
4841		-132.812500
4842		-140.625000
4843		-136.718750
4844		-142.578125
4845		-138.671875
4846		-144.531250
4847		-140.625000
4848		-146.484375
4849		-142.578125
4850		-148.437500
4851		-144.531250
4852		-150.390625
4853		-146.484375
4854		-152.343750
4855		-148.437500
4856		-154.296875
4857		-150.390625
4858		-156.250000
4859		-152.343750
4860		-158.203125
4861		-154.296875
4862		-160.156250
4863		-154.296875
4864		-160.156250
4865		-156.250000
4866		-162.109375
4867		-158.203125
4868		-162.109375
4869		-158.203125
4870		-162.109375
4871		-160.156250
4872		-164.062500
4873		-158.203125
4874		-164.062500
4875		-160.156250
4876		-164.062500
4877		-162.109375
4878		-166.015625
4879		-162.109375
4880		-166.015625
4881		-162.109375
4882		-166.015625
4883		-164.062500
4884		-166.015625
4885		-162.109375
4886		-164.062500
4887		-162.109375
4888		-166.015625
4889		-162.109375
4890		-164.062500
4891		-162.109375
4892		-164.062500
4893		-162.109375
4894		-164.062500
4895		-160.156250
4896		-164.062500
4897		-160.156250
4898		-162.109375
4899		-158.203125
4900		-162.109375
4901		-158.203125
4902		-160.156250
4903		-156.250000
4904		-158.203125
4905		-154.296875
4906		-158.203125
4907		-154.296875
4908		-156.250000
4909		-152.343750
4910		-154.296875
4911		-150.390625
4912		-154.296875
4913		-148.437500
4914		-152.343750
4915		-146.484375
4916		-148.437500
4917		-144.531250
4918		-146.484375
4919		-142.578125
4920		-144.531250
4921		-140.625000
4922		-144.531250
4923		-138.671875
4924		-140.625000
4925		-136.718750
4926		-136.718750
4927		-132.812500
4928		-134.765625
4929		-130.859375
4930		-132.812500
4931		-126.953125
4932		-128.906250
4933		-125.000000
4934		-126.953125
4935		-121.093750
4936		-123.046875
4937		-119.140625
4938		-119.140625
4939		-115.234375
4940		-117.187500
4941		-111.328125
4942		-113.281250
4943		-109.375000
4944		-109.375000
4945		-105.468750
4946		-107.421875
4947		-101.562500
4948		-103.515625
4949		-97.656250
4950		-99.609375
4951		-93.750000
4952		-95.703125
4953		-91.796875
4954		-91.796875
4955		-85.937500
4956		-89.843750
4957		-83.984375
4958		-83.984375
4959		-80.078125
4960		-80.078125
4961		-76.171875
4962		-76.171875
4963		-72.265625
4964		-72.265625
4965		-66.406250
4966		-68.359375
4967		-62.500000
4968		-64.453125
4969		-58.593750
4970		-60.546875
4971		-54.687500
4972		-56.640625
4973		-50.781250
4974		-50.781250
4975		-46.875000
4976		-46.875000
4977		-42.968750
4978		-44.921875
4979		-37.109375
4980		-39.062500
4981		-33.203125
4982		-35.156250
4983		-29.296875
4984		-31.250000
4985		-25.390625
4986		-27.343750
4987		-19.531250
4988		-21.484375
4989		-15.625000
4990		-17.578125
4991		-11.718750
4992		-13.671875
4993		-7.812500
4994		-9.765625
4995		-3.906250
4996		-5.859375
4997		0.000000
4998		0.000000
4999		3.906250
5000		3.906250
5001		9.765625
5002		7.812500
5003		13.671875
5004		11.718750
5005		17.578125
5006		15.625000
5007		21.484375
5008		19.531250
5009		25.390625
5010		23.437500
5011		29.296875
5012		27.343750
5013		33.203125
5014		31.250000
5015		37.109375
5016		35.156250
5017		41.015625
5018		39.062500
5019		44.921875
5020		42.968750
5021		48.828125
5022		46.875000
5023		52.734375
5024		50.781250
5025		56.640625
5026		54.687500
5027		60.546875
5028		58.593750
5029		62.500000
5030		62.500000
5031		66.406250
5032		64.453125
5033		70.312500
5034		68.359375
5035		74.218750
5036		72.265625
5037		76.171875
5038		76.171875
5039		80.078125
5040		78.125000
5041		82.031250
5042		82.031250
5043		85.937500
5044		83.984375
5045		89.843750
5046		85.937500
5047		91.796875
5048		89.843750
5049		95.703125
5050		93.750000
5051		97.656250
5052		95.703125
5053		99.609375
5054		99.609375
5055		103.515625
5056		101.562500
5057		105.468750
5058		103.515625
5059		107.421875
5060		107.421875
5061		111.328125
5062		109.375000
5063		113.281250
5064		111.328125
5065		115.234375
5066		113.281250
5067		117.187500
5068		115.234375
5069		119.140625
5070		117.187500
5071		121.093750
5072		119.140625
5073		125.000000
5074		121.093750
5075		125.000000
5076		123.046875
5077		126.953125
5078		125.000000
5079		128.906250
5080		126.953125
5081		130.859375
5082		128.906250
5083		132.812500
5084		130.859375
5085		132.812500
5086		130.859375
5087		134.765625
5088		132.812500
5089		136.718750
5090		132.812500
5091		138.671875
5092		132.812500
5093		138.671875
5094		136.718750
5095		138.671875
5096		136.718750
5097		140.625000
5098		138.671875
5099		140.625000
5100		138.671875
5101		140.625000
5102		138.671875
5103		142.578125
5104		140.625000
5105		142.578125
5106		138.671875
5107		144.531250
5108		140.625000
5109		144.531250
5110		142.578125
5111		144.531250
5112		142.578125
5113		144.531250
5114		142.578125
5115		144.531250
5116		142.578125
5117		144.531250
5118		142.578125
5119		144.531250
5120		142.578125
5121		144.531250
5122		142.578125
5123		144.531250
5124		140.625000
5125		146.484375
5126		140.625000
5127		146.484375
5128		140.625000
5129		144.531250
5130		140.625000
5131		142.578125
5132		140.625000
5133		142.578125
5134		138.671875
5135		142.578125
5136		138.671875
5137		142.578125
5138		138.671875
5139		140.625000
5140		134.765625
5141		140.625000
5142		134.765625
5143		140.625000
5144		134.765625
5145		138.671875
5146		134.765625
5147		136.718750
5148		132.812500
5149		136.718750
5150		130.859375
5151		134.765625
5152		130.859375
5153		132.812500
5154		128.906250
5155		130.859375
5156		125.000000
5157		130.859375
5158		123.046875
5159		130.859375
5160		123.046875
5161		128.906250
5162		121.093750
5163		125.000000
5164		119.140625
5165		123.046875
5166		117.187500
5167		121.093750
5168		115.234375
5169		119.140625
5170		113.281250
5171		117.187500
5172		111.328125
5173		115.234375
5174		107.421875
5175		113.281250
5176		105.468750
5177		111.328125
5178		103.515625
5179		107.421875
5180		101.562500
5181		105.468750
5182		97.656250
5183		101.562500
5184		95.703125
5185		99.609375
5186		91.796875
5187		97.656250
5188		89.843750
5189		93.750000
5190		83.984375
5191		89.843750
5192		82.031250
5193		89.843750
5194		80.078125
5195		83.984375
5196		76.171875
5197		82.031250
5198		74.218750
5199		78.125000
5200		70.312500
5201		74.218750
5202		66.406250
5203		72.265625
5204		62.500000
5205		68.359375
5206		58.593750
5207		64.453125
5208		54.687500
5209		62.500000
5210		52.734375
5211		58.593750
5212		48.828125
5213		52.734375
5214		44.921875
5215		50.781250
5216		41.015625
5217		46.875000
5218		37.109375
5219		42.968750
5220		33.203125
5221		39.062500
5222		29.296875
5223		35.156250
5224		23.437500
5225		31.250000
5226		21.484375
5227		27.343750
5228		17.578125
5229		21.484375
5230		13.671875
5231		17.578125
5232		7.812500
5233		13.671875
5234		3.906250
5235		9.765625
5236		0.000000
5237		5.859375
5238		-3.906250
5239		1.953125
5240		-9.765625
5241		-1.953125
5242		-13.671875
5243		-5.859375
5244		-15.625000
5245		-7.812500
5246		-19.531250
5247		-15.625000
5248		-25.390625
5249		-19.531250
5250		-29.296875
5251		-23.437500
5252		-33.203125
5253		-27.343750
5254		-37.109375
5255		-31.250000
5256		-41.015625
5257		-35.156250
5258		-46.875000
5259		-39.062500
5260		-48.828125
5261		-42.968750
5262		-54.687500
5263		-48.828125
5264		-56.640625
5265		-52.734375
5266		-62.500000
5267		-56.640625
5268		-66.406250
5269		-60.546875
5270		-70.312500
5271		-64.453125
5272		-74.218750
5273		-68.359375
5274		-78.125000
5275		-72.265625
5276		-82.031250
5277		-76.171875
5278		-83.984375
5279		-80.078125
5280		-87.890625
5281		-83.984375
5282		-93.750000
5283		-87.890625
5284		-95.703125
5285		-89.843750
5286		-99.609375
5287		-93.750000
5288		-103.515625
5289		-97.656250
5290		-107.421875
5291		-101.562500
5292		-109.375000
5293		-105.468750
5294		-113.281250
5295		-109.375000
5296		-117.187500
5297		-111.328125
5298		-119.140625
5299		-115.234375
5300		-123.046875
5301		-117.187500
5302		-125.000000
5303		-121.093750
5304		-128.906250
5305		-123.046875
5306		-130.859375
5307		-126.953125
5308		-134.765625
5309		-128.906250
5310		-136.718750
5311		-132.812500
5312		-138.671875
5313		-134.765625
5314		-140.625000
5315		-136.718750
5316		-144.531250
5317		-140.625000
5318		-146.484375
5319		-142.578125
5320		-148.437500
5321		-144.531250
5322		-150.390625
5323		-146.484375
5324		-152.343750
5325		-148.437500
5326		-154.296875
5327		-150.390625
5328		-154.296875
5329		-152.343750
5330		-156.250000
5331		-154.296875
5332		-158.203125
5333		-154.296875
5334		-160.156250
5335		-154.296875
5336		-160.156250
5337		-158.203125
5338		-162.109375
5339		-158.203125
5340		-162.109375
5341		-160.156250
5342		-164.062500
5343		-160.156250
5344		-164.062500
5345		-162.109375
5346		-164.062500
5347		-162.109375
5348		-164.062500
5349		-162.109375
5350		-166.015625
5351		-162.109375
5352		-166.015625
5353		-162.109375
5354		-166.015625
5355		-164.062500
5356		-166.015625
5357		-162.109375
5358		-166.015625
5359		-162.109375
5360		-164.062500
5361		-162.109375
5362		-164.062500
5363		-162.109375
5364		-164.062500
5365		-162.109375
5366		-164.062500
5367		-160.156250
5368		-162.109375
5369		-158.203125
5370		-162.109375
5371		-158.203125
5372		-160.156250
5373		-158.203125
5374		-160.156250
5375		-156.250000
5376		-158.203125
5377		-156.250000
5378		-156.250000
5379		-154.296875
5380		-156.250000
5381		-152.343750
5382		-154.296875
5383		-150.390625
5384		-152.343750
5385		-148.437500
5386		-150.390625
5387		-146.484375
5388		-148.437500
5389		-144.531250
5390		-146.484375
5391		-142.578125
5392		-144.531250
5393		-140.625000
5394		-142.578125
5395		-138.671875
5396		-138.671875
5397		-134.765625
5398		-136.718750
5399		-132.812500
5400		-134.765625
5401		-130.859375
5402		-130.859375
5403		-126.953125
5404		-128.906250
5405		-125.000000
5406		-125.000000
5407		-121.093750
5408		-123.046875
5409		-117.187500
5410		-119.140625
5411		-115.234375
5412		-115.234375
5413		-111.328125
5414		-113.281250
5415		-109.375000
5416		-109.375000
5417		-105.468750
5418		-105.468750
5419		-101.562500
5420		-103.515625
5421		-97.656250
5422		-99.609375
5423		-93.750000
5424		-95.703125
5425		-89.843750
5426		-91.796875
5427		-85.937500
5428		-87.890625
5429		-82.031250
5430		-83.984375
5431		-78.125000
5432		-80.078125
5433		-74.218750
5434		-76.171875
5435		-70.312500
5436		-72.265625
5437		-66.406250
5438		-68.359375
5439		-62.500000
5440		-64.453125
5441		-58.593750
5442		-58.593750
5443		-54.687500
5444		-54.687500
5445		-50.781250
5446		-50.781250
5447		-44.921875
5448		-46.875000
5449		-41.015625
5450		-42.968750
5451		-37.109375
5452		-39.062500
5453		-33.203125
5454		-35.156250
5455		-29.296875
5456		-29.296875
5457		-23.437500
5458		-25.390625
5459		-19.531250
5460		-21.484375
5461		-15.625000
5462		-17.578125
5463		-11.718750
5464		-13.671875
5465		-7.812500
5466		-7.812500
5467		-3.906250
5468		-3.906250
5469		1.953125
5470		0.000000
5471		5.859375
5472		3.906250
5473		9.765625
5474		7.812500
5475		13.671875
5476		11.718750
5477		17.578125
5478		17.578125
5479		21.484375
5480		21.484375
5481		25.390625
5482		25.390625
5483		29.296875
5484		29.296875
5485		33.203125
5486		33.203125
5487		37.109375
5488		37.109375
5489		41.015625
5490		41.015625
5491		44.921875
5492		44.921875
5493		48.828125
5494		46.875000
5495		52.734375
5496		50.781250
5497		56.640625
5498		54.687500
5499		60.546875
5500		58.593750
5501		64.453125
5502		62.500000
5503		66.406250
5504		66.406250
5505		70.312500
5506		70.312500
5507		74.218750
5508		72.265625
5509		78.125000
5510		76.171875
5511		80.078125
5512		80.078125
5513		83.984375
5514		82.031250
5515		85.937500
5516		85.937500
5517		89.843750
5518		87.890625
5519		91.796875
5520		91.796875
5521		95.703125
5522		93.750000
5523		97.656250
5524		97.656250
5525		101.562500
5526		99.609375
5527		103.515625
5528		101.562500
5529		107.421875
5530		105.468750
5531		109.375000
5532		107.421875
5533		111.328125
5534		109.375000
5535		113.281250
5536		111.328125
5537		115.234375
5538		115.234375
5539		117.187500
5540		117.187500
5541		119.140625
5542		117.187500
5543		121.093750
5544		121.093750
5545		123.046875
5546		123.046875
5547		125.000000
5548		123.046875
5549		126.953125
5550		125.000000
5551		128.906250
5552		126.953125
5553		130.859375
5554		128.906250
5555		132.812500
5556		130.859375
5557		134.765625
5558		132.812500
5559		134.765625
5560		132.812500
5561		136.718750
5562		134.765625
5563		136.718750
5564		136.718750
5565		138.671875
5566		136.718750
5567		140.625000
5568		138.671875
5569		140.625000
5570		138.671875
5571		142.578125
5572		138.671875
5573		142.578125
5574		140.625000
5575		142.578125
5576		140.625000
5577		142.578125
5578		142.578125
5579		144.531250
5580		142.578125
5581		144.531250
5582		142.578125
5583		144.531250
5584		142.578125
5585		146.484375
5586		142.578125
5587		144.531250
5588		142.578125
5589		144.531250
5590		142.578125
5591		144.531250
5592		142.578125
5593		144.531250
5594		142.578125
5595		144.531250
5596		142.578125
5597		146.484375
5598		142.578125
5599		144.531250
5600		142.578125
5601		144.531250
5602		140.625000
5603		144.531250
5604		140.625000
5605		142.578125
5606		140.625000
5607		142.578125
5608		138.671875
5609		142.578125
5610		138.671875
5611		140.625000
5612		138.671875
5613		140.625000
5614		136.718750
5615		140.625000
5616		134.765625
5617		138.671875
5618		134.765625
5619		136.718750
5620		132.812500
5621		136.718750
5622		132.812500
5623		134.765625
5624		130.859375
5625		132.812500
5626		128.906250
5627		132.812500
5628		126.953125
5629		130.859375
5630		125.000000
5631		128.906250
5632		123.046875
5633		126.953125
5634		121.093750
5635		125.000000
5636		119.140625
5637		123.046875
5638		117.187500
5639		123.046875
5640		115.234375
5641		119.140625
5642		113.281250
5643		117.187500
5644		111.328125
5645		115.234375
5646		109.375000
5647		113.281250
5648		105.468750
5649		109.375000
5650		103.515625
5651		107.421875
5652		101.562500
5653		105.468750
5654		97.656250
5655		101.562500
5656		95.703125
5657		99.609375
5658		91.796875
5659		97.656250
5660		89.843750
5661		93.750000
5662		85.937500
5663		91.796875
5664		83.984375
5665		87.890625
5666		80.078125
5667		85.937500
5668		76.171875
5669		82.031250
5670		74.218750
5671		78.125000
5672		70.312500
5673		74.218750
5674		66.406250
5675		70.312500
5676		62.500000
5677		68.359375
5678		58.593750
5679		64.453125
5680		56.640625
5681		60.546875
5682		52.734375
5683		56.640625
5684		48.828125
5685		52.734375
5686		44.921875
5687		48.828125
5688		41.015625
5689		46.875000
5690		37.109375
5691		42.968750
5692		33.203125
5693		39.062500
5694		29.296875
5695		35.156250
5696		25.390625
5697		29.296875
5698		21.484375
5699		25.390625
5700		17.578125
5701		21.484375
5702		11.718750
5703		17.578125
5704		7.812500
5705		13.671875
5706		3.906250
5707		9.765625
5708		0.000000
5709		5.859375
5710		-3.906250
5711		1.953125
5712		-7.812500
5713		-1.953125
5714		-13.671875
5715		-7.812500
5716		-17.578125
5717		-11.718750
5718		-21.484375
5719		-15.625000
5720		-25.390625
5721		-19.531250
5722		-29.296875
5723		-23.437500
5724		-33.203125
5725		-27.343750
5726		-39.062500
5727		-31.250000
5728		-41.015625
5729		-37.109375
5730		-46.875000
5731		-41.015625
5732		-50.781250
5733		-44.921875
5734		-54.687500
5735		-48.828125
5736		-58.593750
5737		-52.734375
5738		-62.500000
5739		-56.640625
5740		-66.406250
5741		-60.546875
5742		-70.312500
5743		-64.453125
5744		-74.218750
5745		-68.359375
5746		-78.125000
5747		-72.265625
5748		-82.031250
5749		-76.171875
5750		-85.937500
5751		-80.078125
5752		-89.843750
5753		-83.984375
5754		-93.750000
5755		-87.890625
5756		-97.656250
5757		-91.796875
5758		-99.609375
5759		-95.703125
5760		-103.515625
5761		-99.609375
5762		-107.421875
5763		-101.562500
5764		-111.328125
5765		-105.468750
5766		-113.281250
5767		-109.375000
5768		-117.187500
5769		-113.281250
5770		-121.093750
5771		-115.234375
5772		-123.046875
5773		-119.140625
5774		-126.953125
5775		-121.093750
5776		-128.906250
5777		-125.000000
5778		-130.859375
5779		-126.953125
5780		-134.765625
5781		-130.859375
5782		-136.718750
5783		-132.812500
5784		-138.671875
5785		-136.718750
5786		-142.578125
5787		-136.718750
5788		-144.531250
5789		-140.625000
5790		-146.484375
5791		-142.578125
5792		-148.437500
5793		-144.531250
5794		-150.390625
5795		-146.484375
5796		-152.343750
5797		-148.437500
5798		-154.296875
5799		-150.390625
5800		-156.250000
5801		-152.343750
5802		-156.250000
5803		-154.296875
5804		-158.203125
5805		-156.250000
5806		-160.156250
5807		-156.250000
5808		-162.109375
5809		-158.203125
5810		-162.109375
5811		-158.203125
5812		-162.109375
5813		-160.156250
5814		-164.062500
5815		-160.156250
5816		-164.062500
5817		-162.109375
5818		-164.062500
5819		-162.109375
5820		-166.015625
5821		-162.109375
5822		-166.015625
5823		-162.109375
5824		-166.015625
5825		-164.062500
5826		-166.015625
5827		-162.109375
5828		-166.015625
5829		-164.062500
5830		-166.015625
5831		-164.062500
5832		-166.015625
5833		-162.109375
5834		-164.062500
5835		-162.109375
5836		-164.062500
5837		-162.109375
5838		-164.062500
5839		-160.156250
5840		-162.109375
5841		-160.156250
5842		-162.109375
5843		-160.156250
5844		-162.109375
5845		-158.203125
5846		-160.156250
5847		-156.250000
5848		-158.203125
5849		-156.250000
5850		-156.250000
5851		-154.296875
5852		-156.250000
5853		-152.343750
5854		-154.296875
5855		-150.390625
5856		-152.343750
5857		-148.437500
5858		-150.390625
5859		-146.484375
5860		-148.437500
5861		-144.531250
5862		-146.484375
5863		-142.578125
5864		-144.531250
5865		-140.625000
5866		-140.625000
5867		-136.718750
5868		-138.671875
5869		-134.765625
5870		-136.718750
5871		-132.812500
5872		-132.812500
5873		-128.906250
5874		-130.859375
5875		-126.953125
5876		-128.906250
5877		-123.046875
5878		-125.000000
5879		-121.093750
5880		-121.093750
5881		-117.187500
5882		-119.140625
5883		-113.281250
5884		-115.234375
5885		-111.328125
5886		-111.328125
5887		-107.421875
5888		-109.375000
5889		-103.515625
5890		-105.468750
5891		-99.609375
5892		-101.562500
5893		-97.656250
5894		-97.656250
5895		-93.750000
5896		-93.750000
5897		-87.890625
5898		-89.843750
5899		-85.937500
5900		-85.937500
5901		-82.031250
5902		-82.031250
5903		-78.125000
5904		-78.125000
5905		-74.218750
5906		-74.218750
5907		-70.312500
5908		-70.312500
5909		-64.453125
5910		-66.406250
5911		-60.546875
5912		-62.500000
5913		-56.640625
5914		-58.593750
5915		-52.734375
5916		-54.687500
5917		-48.828125
5918		-50.781250
5919		-44.921875
5920		-44.921875
5921		-39.062500
5922		-41.015625
5923		-35.156250
5924		-37.109375
5925		-31.250000
5926		-33.203125
5927		-27.343750
5928		-29.296875
5929		-23.437500
5930		-23.437500
5931		-19.531250
5932		-19.531250
5933		-15.625000
5934		-15.625000
5935		-11.718750
5936		-11.718750
5937		-5.859375
5938		-7.812500
5939		-1.953125
5940		-3.906250
5941		1.953125
5942		1.953125
5943		5.859375
5944		5.859375
5945		9.765625
5946		9.765625
5947		15.625000
5948		13.671875
5949		19.531250
5950		17.578125
5951		23.437500
5952		21.484375
5953		27.343750
5954		25.390625
5955		31.250000
5956		29.296875
5957		35.156250
5958		33.203125
5959		39.062500
5960		37.109375
5961		42.968750
5962		41.015625
5963		46.875000
5964		44.921875
5965		48.828125
5966		48.828125
5967		52.734375
5968		52.734375
5969		56.640625
5970		56.640625
5971		60.546875
5972		60.546875
5973		64.453125
5974		62.500000
5975		68.359375
5976		66.406250
5977		70.312500
5978		70.312500
5979		74.218750
5980		72.265625
5981		78.125000
5982		76.171875
5983		82.031250
5984		80.078125
5985		83.984375
5986		82.031250
5987		87.890625
5988		85.937500
5989		89.843750
5990		87.890625
5991		93.750000
5992		91.796875
5993		95.703125
5994		93.750000
5995		99.609375
5996		97.656250
5997		101.562500
5998		99.609375
5999		103.515625
6000		103.515625
6001		107.421875
6002		105.468750
6003		109.375000
6004		107.421875
6005		111.328125
6006		109.375000
6007		113.281250
6008		111.328125
6009		115.234375
6010		115.234375
6011		119.140625
6012		117.187500
6013		119.140625
6014		119.140625
6015		123.046875
6016		119.140625
6017		123.046875
6018		123.046875
6019		125.000000
6020		125.000000
6021		126.953125
6022		126.953125
6023		128.906250
6024		126.953125
6025		130.859375
6026		128.906250
6027		132.812500
6028		130.859375
6029		134.765625
6030		130.859375
6031		134.765625
6032		132.812500
6033		136.718750
6034		134.765625
6035		136.718750
6036		134.765625
6037		138.671875
6038		136.718750
6039		140.625000
6040		136.718750
6041		140.625000
6042		138.671875
6043		140.625000
6044		138.671875
6045		142.578125
6046		140.625000
6047		142.578125
6048		140.625000
6049		142.578125
6050		140.625000
6051		144.531250
6052		140.625000
6053		144.531250
6054		142.578125
6055		144.531250
6056		142.578125
6057		144.531250
6058		142.578125
6059		144.531250
6060		142.578125
6061		144.531250
6062		142.578125
6063		144.531250
6064		142.578125
6065		144.531250
6066		142.578125
6067		144.531250
6068		142.578125
6069		144.531250
6070		140.625000
6071		144.531250
6072		140.625000
6073		144.531250
6074		140.625000
6075		144.531250
6076		140.625000
6077		142.578125
6078		138.671875
6079		142.578125
6080		138.671875
6081		140.625000
6082		138.671875
6083		140.625000
6084		136.718750
6085		140.625000
6086		136.718750
6087		138.671875
6088		134.765625
6089		136.718750
6090		132.812500
6091		136.718750
6092		132.812500
6093		134.765625
6094		130.859375
6095		134.765625
6096		128.906250
6097		132.812500
6098		126.953125
6099		130.859375
6100		126.953125
6101		128.906250
6102		125.000000
6103		128.906250
6104		123.046875
6105		126.953125
6106		121.093750
6107		125.000000
6108		119.140625
6109		123.046875
6110		117.187500
6111		121.093750
6112		115.234375
6113		119.140625
6114		111.328125
6115		115.234375
6116		109.375000
6117		113.281250
6118		105.468750
6119		111.328125
6120		105.468750
6121		109.375000
6122		101.562500
6123		107.421875
6124		99.609375
6125		105.468750
6126		97.656250
6127		101.562500
6128		93.750000
6129		97.656250
6130		91.796875
6131		95.703125
6132		87.890625
6133		91.796875
6134		85.937500
6135		89.843750
6136		82.031250
6137		87.890625
6138		78.125000
6139		83.984375
6140		74.218750
6141		80.078125
6142		72.265625
6143		76.171875
6144		68.359375
6145		76.171875
6146		64.453125
6147		70.312500
6148		62.500000
6149		66.406250
6150		56.640625
6151		64.453125
6152		54.687500
6153		58.593750
6154		48.828125
6155		56.640625
6156		44.921875
6157		50.781250
6158		42.968750
6159		48.828125
6160		39.062500
6161		44.921875
6162		35.156250
6163		41.015625
6164		31.250000
6165		37.109375
6166		27.343750
6167		33.203125
6168		23.437500
6169		31.250000
6170		19.531250
6171		25.390625
6172		15.625000
6173		21.484375
6174		9.765625
6175		17.578125
6176		7.812500
6177		11.718750
6178		1.953125
6179		9.765625
6180		-1.953125
6181		3.906250
6182		-5.859375
6183		0.000000
6184		-11.718750
6185		-1.953125
6186		-15.625000
6187		-7.812500
6188		-17.578125
6189		-11.718750
6190		-25.390625
6191		-17.578125
6192		-27.343750
6193		-21.484375
6194		-31.250000
6195		-25.390625
6196		-35.156250
6197		-29.296875
6198		-39.062500
6199		-33.203125
6200		-44.921875
6201		-37.109375
6202		-50.781250
6203		-39.062500
6204		-50.781250
6205		-46.875000
6206		-56.640625
6207		-48.828125
6208		-60.546875
6209		-52.734375
6210		-68.359375
6211		-58.593750
6212		-68.359375
6213		-62.500000
6214		-72.265625
6215		-66.406250
6216		-76.171875
6217		-70.312500
6218		-80.078125
6219		-74.218750
6220		-83.984375
6221		-78.125000
6222		-87.890625
6223		-82.031250
6224		-93.750000
6225		-85.937500
6226		-95.703125
6227		-85.937500
6228		-99.609375
6229		-91.796875
6230		-101.562500
6231		-95.703125
6232		-107.421875
6233		-101.562500
6234		-111.328125
6235		-103.515625
6236		-113.281250
6237		-103.515625
6238		-115.234375
6239		-109.375000
6240		-119.140625
6241		-113.281250
6242		-123.046875
6243		-115.234375
6244		-126.953125
6245		-119.140625
6246		-126.953125
6247		-123.046875
6248		-130.859375
6249		-126.953125
6250		-132.812500
6251		-128.906250
6252		-138.671875
6253		-128.906250
6254		-138.671875
6255		-132.812500
6256		-140.625000
6257		-136.718750
6258		-146.484375
6259		-136.718750
6260		-146.484375
6261		-138.671875
6262		-148.437500
6263		-140.625000
6264		-150.390625
6265		-146.484375
6266		-152.343750
6267		-148.437500
6268		-156.250000
6269		-148.437500
6270		-156.250000
6271		-150.390625
6272		-156.250000
6273		-154.296875
6274		-160.156250
6275		-154.296875
6276		-162.109375
6277		-154.296875
6278		-164.062500
6279		-156.250000
6280		-162.109375
6281		-160.156250
6282		-162.109375
6283		-160.156250
6284		-166.015625
6285		-160.156250
6286		-167.968750
6287		-158.203125
6288		-166.015625
6289		-162.109375
6290		-166.015625
6291		-164.062500
6292		-169.921875
6293		-160.156250
6294		-167.968750
6295		-162.109375
6296		-167.968750
6297		-164.062500
6298		-166.015625
6299		-164.062500
6300		-167.968750
6301		-164.062500
6302		-167.968750
6303		-160.156250
6304		-166.015625
6305		-162.109375
6306		-166.015625
6307		-162.109375
6308		-167.968750
6309		-160.156250
6310		-167.968750
6311		-160.156250
6312		-166.015625
6313		-158.203125
6314		-162.109375
6315		-160.156250
6316		-162.109375
6317		-158.203125
6318		-162.109375
6319		-156.250000
6320		-162.109375
6321		-154.296875
6322		-158.203125
6323		-154.296875
6324		-156.250000
6325		-150.390625
6326		-156.250000
6327		-148.437500
6328		-154.296875
6329		-146.484375
6330		-150.390625
6331		-146.484375
6332		-148.437500
6333		-144.531250
6334		-146.484375
6335		-140.625000
6336		-146.484375
6337		-138.671875
6338		-144.531250
6339		-136.718750
6340		-138.671875
6341		-134.765625
6342		-136.718750
6343		-128.906250
6344		-136.718750
6345		-128.906250
6346		-132.812500
6347		-125.000000
6348		-126.953125
6349		-123.046875
6350		-125.000000
6351		-119.140625
6352		-123.046875
6353		-113.281250
6354		-119.140625
6355		-113.281250
6356		-115.234375
6357		-111.328125
6358		-111.328125
6359		-105.468750
6360		-111.328125
6361		-101.562500
6362		-105.468750
6363		-97.656250
6364		-101.562500
6365		-95.703125
6366		-97.656250
6367		-91.796875
6368		-93.750000
6369		-87.890625
6370		-91.796875
6371		-83.984375
6372		-87.890625
6373		-82.031250
6374		-82.031250
6375		-76.171875
6376		-80.078125
6377		-70.312500
6378		-74.218750
6379		-66.406250
6380		-72.265625
6381		-64.453125
6382		-66.406250
6383		-60.546875
6384		-62.500000
6385		-56.640625
6386		-58.593750
6387		-50.781250
6388		-54.687500
6389		-48.828125
6390		-48.828125
6391		-44.921875
6392		-44.921875
6393		-39.062500
6394		-41.015625
6395		-35.156250
6396		-39.062500
6397		-31.250000
6398		-33.203125
6399		-27.343750
6400		-29.296875
6401		-23.437500
6402		-23.437500
6403		-17.578125
6404		-21.484375
6405		-11.718750
6406		-15.625000
6407		-9.765625
6408		-11.718750
6409		-5.859375
6410		-9.765625
6411		-1.953125
6412		-1.953125
6413		1.953125
6414		1.953125
6415		5.859375
6416		5.859375
6417		11.718750
6418		9.765625
6419		15.625000
6420		13.671875
6421		19.531250
6422		17.578125
6423		23.437500
6424		21.484375
6425		27.343750
6426		25.390625
6427		31.250000
6428		29.296875
6429		35.156250
6430		33.203125
6431		39.062500
6432		37.109375
6433		42.968750
6434		41.015625
6435		46.875000
6436		44.921875
6437		50.781250
6438		48.828125
6439		54.687500
6440		52.734375
6441		58.593750
6442		56.640625
6443		60.546875
6444		58.593750
6445		64.453125
6446		62.500000
6447		68.359375
6448		66.406250
6449		72.265625
6450		70.312500
6451		74.218750
6452		72.265625
6453		78.125000
6454		76.171875
6455		82.031250
6456		80.078125
6457		83.984375
6458		82.031250
6459		87.890625
6460		85.937500
6461		89.843750
6462		87.890625
6463		93.750000
6464		91.796875
6465		95.703125
6466		93.750000
6467		99.609375
6468		97.656250
6469		103.515625
6470		99.609375
6471		105.468750
6472		101.562500
6473		107.421875
6474		105.468750
6475		111.328125
6476		107.421875
6477		113.281250
6478		109.375000
6479		115.234375
6480		111.328125
6481		115.234375
6482		115.234375
6483		119.140625
6484		117.187500
6485		121.093750
6486		119.140625
6487		123.046875
6488		119.140625
6489		125.000000
6490		121.093750
6491		126.953125
6492		123.046875
6493		128.906250
6494		125.000000
6495		130.859375
6496		126.953125
6497		130.859375
6498		128.906250
6499		132.812500
6500		130.859375
6501		132.812500
6502		130.859375
6503		134.765625
6504		132.812500
6505		136.718750
6506		132.812500
6507		138.671875
6508		134.765625
6509		140.625000
6510		134.765625
6511		140.625000
6512		136.718750
6513		140.625000
6514		136.718750
6515		142.578125
6516		138.671875
6517		140.625000
6518		138.671875
6519		142.578125
6520		138.671875
6521		144.531250
6522		140.625000
6523		144.531250
6524		138.671875
6525		146.484375
6526		140.625000
6527		146.484375
6528		140.625000
6529		144.531250
6530		140.625000
6531		144.531250
6532		142.578125
6533		144.531250
6534		142.578125
6535		144.531250
6536		140.625000
6537		146.484375
6538		140.625000
6539		144.531250
6540		140.625000
6541		144.531250
6542		138.671875
6543		146.484375
6544		140.625000
6545		144.531250
6546		140.625000
6547		144.531250
6548		138.671875
6549		142.578125
6550		138.671875
6551		142.578125
6552		138.671875
6553		142.578125
6554		136.718750
6555		140.625000
6556		134.765625
6557		140.625000
6558		132.812500
6559		140.625000
6560		134.765625
6561		138.671875
6562		132.812500
6563		138.671875
6564		130.859375
6565		136.718750
6566		130.859375
6567		134.765625
6568		128.906250
6569		132.812500
6570		126.953125
6571		130.859375
6572		125.000000
6573		130.859375
6574		123.046875
6575		128.906250
6576		121.093750
6577		128.906250
6578		121.093750
6579		125.000000
6580		119.140625
6581		123.046875
6582		117.187500
6583		121.093750
6584		115.234375
6585		117.187500
6586		111.328125
6587		115.234375
6588		109.375000
6589		113.281250
6590		107.421875
6591		111.328125
6592		103.515625
6593		109.375000
6594		101.562500
6595		105.468750
6596		99.609375
6597		103.515625
6598		95.703125
6599		101.562500
6600		93.750000
6601		97.656250
6602		89.843750
6603		95.703125
6604		87.890625
6605		93.750000
6606		83.984375
6607		89.843750
6608		80.078125
6609		85.937500
6610		78.125000
6611		82.031250
6612		74.218750
6613		80.078125
6614		70.312500
6615		76.171875
6616		68.359375
6617		72.265625
6618		64.453125
6619		70.312500
6620		60.546875
6621		66.406250
6622		56.640625
6623		62.500000
6624		54.687500
6625		58.593750
6626		50.781250
6627		56.640625
6628		46.875000
6629		50.781250
6630		42.968750
6631		46.875000
6632		39.062500
6633		44.921875
6634		35.156250
6635		41.015625
6636		31.250000
6637		35.156250
6638		27.343750
6639		33.203125
6640		23.437500
6641		27.343750
6642		17.578125
6643		23.437500
6644		13.671875
6645		21.484375
6646		9.765625
6647		15.625000
6648		5.859375
6649		11.718750
6650		1.953125
6651		7.812500
6652		-1.953125
6653		3.906250
6654		-5.859375
6655		0.000000
6656		-9.765625
6657		-3.906250
6658		-13.671875
6659		-9.765625
6660		-19.531250
6661		-11.718750
6662		-23.437500
6663		-17.578125
6664		-27.343750
6665		-21.484375
6666		-31.250000
6667		-25.390625
6668		-35.156250
6669		-29.296875
6670		-39.062500
6671		-35.156250
6672		-44.921875
6673		-39.062500
6674		-48.828125
6675		-42.968750
6676		-52.734375
6677		-46.875000
6678		-56.640625
6679		-50.781250
6680		-60.546875
6681		-54.687500
6682		-64.453125
6683		-58.593750
6684		-68.359375
6685		-62.500000
6686		-72.265625
6687		-66.406250
6688		-76.171875
6689		-70.312500
6690		-80.078125
6691		-76.171875
6692		-83.984375
6693		-78.125000
6694		-87.890625
6695		-82.031250
6696		-91.796875
6697		-85.937500
6698		-95.703125
6699		-89.843750
6700		-99.609375
6701		-93.750000
6702		-101.562500
6703		-97.656250
6704		-105.468750
6705		-101.562500
6706		-109.375000
6707		-103.515625
6708		-113.281250
6709		-107.421875
6710		-115.234375
6711		-111.328125
6712		-119.140625
6713		-113.281250
6714		-121.093750
6715		-117.187500
6716		-125.000000
6717		-121.093750
6718		-128.906250
6719		-123.046875
6720		-130.859375
6721		-126.953125
6722		-132.812500
6723		-128.906250
6724		-136.718750
6725		-130.859375
6726		-138.671875
6727		-134.765625
6728		-140.625000
6729		-136.718750
6730		-144.531250
6731		-140.625000
6732		-146.484375
6733		-140.625000
6734		-148.437500
6735		-144.531250
6736		-150.390625
6737		-146.484375
6738		-152.343750
6739		-146.484375
6740		-154.296875
6741		-150.390625
6742		-156.250000
6743		-152.343750
6744		-158.203125
6745		-154.296875
6746		-158.203125
6747		-154.296875
6748		-160.156250
6749		-156.250000
6750		-162.109375
6751		-158.203125
6752		-162.109375
6753		-158.203125
6754		-162.109375
6755		-160.156250
6756		-164.062500
6757		-160.156250
6758		-166.015625
6759		-162.109375
6760		-166.015625
6761		-162.109375
6762		-166.015625
6763		-162.109375
6764		-166.015625
6765		-162.109375
6766		-166.015625
6767		-162.109375
6768		-166.015625
6769		-164.062500
6770		-166.015625
6771		-164.062500
6772		-166.015625
6773		-164.062500
6774		-166.015625
6775		-162.109375
6776		-166.015625
6777		-162.109375
6778		-166.015625
6779		-162.109375
6780		-164.062500
6781		-162.109375
6782		-164.062500
6783		-160.156250
6784		-162.109375
6785		-160.156250
6786		-162.109375
6787		-158.203125
6788		-162.109375
6789		-158.203125
6790		-160.156250
6791		-156.250000
6792		-158.203125
6793		-154.296875
6794		-156.250000
6795		-154.296875
6796		-156.250000
6797		-152.343750
6798		-154.296875
6799		-150.390625
6800		-152.343750
6801		-148.437500
6802		-150.390625
6803		-146.484375
6804		-148.437500
6805		-142.578125
6806		-146.484375
6807		-140.625000
6808		-142.578125
6809		-138.671875
6810		-140.625000
6811		-136.718750
6812		-138.671875
6813		-132.812500
6814		-134.765625
6815		-130.859375
6816		-132.812500
6817		-126.953125
6818		-128.906250
6819		-125.000000
6820		-126.953125
6821		-121.093750
6822		-125.000000
6823		-119.140625
6824		-121.093750
6825		-115.234375
6826		-117.187500
6827		-111.328125
6828		-113.281250
6829		-109.375000
6830		-111.328125
6831		-105.468750
6832		-107.421875
6833		-101.562500
6834		-103.515625
6835		-97.656250
6836		-99.609375
6837		-93.750000
6838		-95.703125
6839		-89.843750
6840		-91.796875
6841		-85.937500
6842		-87.890625
6843		-82.031250
6844		-83.984375
6845		-78.125000
6846		-80.078125
6847		-74.218750
6848		-76.171875
6849		-70.312500
6850		-72.265625
6851		-66.406250
6852		-68.359375
6853		-62.500000
6854		-64.453125
6855		-58.593750
6856		-60.546875
6857		-52.734375
6858		-56.640625
6859		-50.781250
6860		-50.781250
6861		-46.875000
6862		-46.875000
6863		-41.015625
6864		-42.968750
6865		-37.109375
6866		-39.062500
6867		-31.250000
6868		-35.156250
6869		-29.296875
6870		-31.250000
6871		-25.390625
6872		-25.390625
6873		-21.484375
6874		-23.437500
6875		-15.625000
6876		-17.578125
6877		-11.718750
6878		-13.671875
6879		-7.812500
6880		-9.765625
6881		-3.906250
6882		-3.906250
6883		0.000000
6884		0.000000
6885		5.859375
6886		3.906250
6887		9.765625
6888		7.812500
6889		13.671875
6890		11.718750
6891		17.578125
6892		15.625000
6893		21.484375
6894		19.531250
6895		25.390625
6896		23.437500
6897		31.250000
6898		27.343750
6899		33.203125
6900		31.250000
6901		37.109375
6902		35.156250
6903		41.015625
6904		41.015625
6905		44.921875
6906		42.968750
6907		48.828125
6908		46.875000
6909		52.734375
6910		50.781250
6911		56.640625
6912		54.687500
6913		60.546875
6914		58.593750
6915		64.453125
6916		62.500000
6917		66.406250
6918		64.453125
6919		70.312500
6920		68.359375
6921		74.218750
6922		72.265625
6923		76.171875
6924		76.171875
6925		80.078125
6926		78.125000
6927		83.984375
6928		82.031250
6929		87.890625
6930		85.937500
6931		89.843750
6932		87.890625
6933		91.796875
6934		91.796875
6935		95.703125
6936		93.750000
6937		97.656250
6938		95.703125
6939		101.562500
6940		97.656250
6941		103.515625
6942		101.562500
6943		105.468750
6944		103.515625
6945		107.421875
6946		107.421875
6947		111.328125
6948		109.375000
6949		113.281250
6950		111.328125
6951		115.234375
6952		113.281250
6953		117.187500
6954		115.234375
6955		119.140625
6956		117.187500
6957		121.093750
6958		119.140625
6959		123.046875
6960		121.093750
6961		125.000000
6962		123.046875
6963		126.953125
6964		125.000000
6965		128.906250
6966		126.953125
6967		130.859375
6968		126.953125
6969		130.859375
6970		128.906250
6971		132.812500
6972		130.859375
6973		134.765625
6974		132.812500
6975		136.718750
6976		132.812500
6977		136.718750
6978		134.765625
6979		138.671875
6980		134.765625
6981		138.671875
6982		136.718750
6983		140.625000
6984		136.718750
6985		140.625000
6986		138.671875
6987		140.625000
6988		138.671875
6989		142.578125
6990		138.671875
6991		144.531250
6992		140.625000
6993		142.578125
6994		140.625000
6995		144.531250
6996		140.625000
6997		144.531250
6998		140.625000
6999		144.531250
7000		142.578125
7001		144.531250
7002		142.578125
7003		144.531250
7004		142.578125
7005		144.531250
7006		140.625000
7007		144.531250
7008		140.625000
7009		144.531250
7010		140.625000
7011		144.531250
7012		140.625000
7013		144.531250
7014		140.625000
7015		144.531250
7016		140.625000
7017		144.531250
7018		138.671875
7019		142.578125
7020		138.671875
7021		142.578125
7022		138.671875
7023		140.625000
7024		136.718750
7025		142.578125
7026		136.718750
7027		140.625000
7028		134.765625
7029		138.671875
7030		134.765625
7031		138.671875
7032		132.812500
7033		136.718750
7034		130.859375
7035		136.718750
7036		130.859375
7037		134.765625
7038		128.906250
7039		132.812500
7040		128.906250
7041		132.812500
7042		126.953125
7043		130.859375
7044		125.000000
7045		128.906250
7046		123.046875
7047		126.953125
7048		121.093750
7049		125.000000
7050		119.140625
7051		123.046875
7052		117.187500
7053		123.046875
7054		115.234375
7055		119.140625
7056		111.328125
7057		117.187500
7058		111.328125
7059		115.234375
7060		107.421875
7061		113.281250
7062		105.468750
7063		109.375000
7064		101.562500
7065		107.421875
7066		101.562500
7067		105.468750
7068		97.656250
7069		101.562500
7070		95.703125
7071		99.609375
7072		91.796875
7073		95.703125
7074		89.843750
7075		93.750000
7076		85.937500
7077		91.796875
7078		83.984375
7079		87.890625
7080		80.078125
7081		83.984375
7082		76.171875
7083		82.031250
7084		72.265625
7085		78.125000
7086		70.312500
7087		74.218750
7088		66.406250
7089		72.265625
7090		62.500000
7091		68.359375
7092		60.546875
7093		64.453125
7094		56.640625
7095		62.500000
7096		52.734375
7097		56.640625
7098		48.828125
7099		54.687500
7100		44.921875
7101		48.828125
7102		41.015625
7103		46.875000
7104		37.109375
7105		42.968750
7106		33.203125
7107		39.062500
7108		29.296875
7109		35.156250
7110		25.390625
7111		31.250000
7112		21.484375
7113		27.343750
7114		17.578125
7115		23.437500
7116		11.718750
7117		19.531250
7118		7.812500
7119		13.671875
7120		3.906250
7121		11.718750
7122		0.000000
7123		5.859375
7124		-3.906250
7125		1.953125
7126		-7.812500
7127		-1.953125
7128		-11.718750
7129		-5.859375
7130		-15.625000
7131		-9.765625
7132		-21.484375
7133		-13.671875
7134		-23.437500
7135		-17.578125
7136		-29.296875
7137		-23.437500
7138		-33.203125
7139		-27.343750
7140		-37.109375
7141		-31.250000
7142		-41.015625
7143		-35.156250
7144		-44.921875
7145		-39.062500
7146		-50.781250
7147		-42.968750
7148		-52.734375
7149		-48.828125
7150		-58.593750
7151		-50.781250
7152		-62.500000
7153		-56.640625
7154		-66.406250
7155		-60.546875
7156		-70.312500
7157		-64.453125
7158		-74.218750
7159		-68.359375
7160		-78.125000
7161		-72.265625
7162		-82.031250
7163		-76.171875
7164		-85.937500
7165		-80.078125
7166		-89.843750
7167		-83.984375
7168		-93.750000
7169		-87.890625
7170		-95.703125
7171		-91.796875
7172		-99.609375
7173		-95.703125
7174		-103.515625
7175		-99.609375
7176		-107.421875
7177		-101.562500
7178		-111.328125
7179		-105.468750
7180		-113.281250
7181		-109.375000
7182		-117.187500
7183		-111.328125
7184		-121.093750
7185		-115.234375
7186		-123.046875
7187		-119.140625
7188		-126.953125
7189		-121.093750
7190		-128.906250
7191		-125.000000
7192		-132.812500
7193		-126.953125
7194		-134.765625
7195		-128.906250
7196		-136.718750
7197		-132.812500
7198		-140.625000
7199		-134.765625
7200		-142.578125
7201		-136.718750
7202		-144.531250
7203		-140.625000
7204		-146.484375
7205		-142.578125
7206		-148.437500
7207		-144.531250
7208		-150.390625
7209		-146.484375
7210		-152.343750
7211		-148.437500
7212		-154.296875
7213		-150.390625
7214		-156.250000
7215		-152.343750
7216		-156.250000
7217		-154.296875
7218		-160.156250
7219		-154.296875
7220		-160.156250
7221		-156.250000
7222		-160.156250
7223		-158.203125
7224		-164.062500
7225		-158.203125
7226		-164.062500
7227		-160.156250
7228		-164.062500
7229		-160.156250
7230		-164.062500
7231		-162.109375
7232		-166.015625
7233		-162.109375
7234		-166.015625
7235		-162.109375
7236		-167.968750
7237		-164.062500
7238		-166.015625
7239		-164.062500
7240		-166.015625
7241		-164.062500
7242		-166.015625
7243		-162.109375
7244		-166.015625
7245		-162.109375
7246		-166.015625
7247		-162.109375
7248		-166.015625
7249		-162.109375
7250		-166.015625
7251		-162.109375
7252		-164.062500
7253		-162.109375
7254		-164.062500
7255		-160.156250
7256		-162.109375
7257		-160.156250
7258		-162.109375
7259		-158.203125
7260		-160.156250
7261		-156.250000
7262		-160.156250
7263		-154.296875
7264		-158.203125
7265		-154.296875
7266		-156.250000
7267		-152.343750
7268		-154.296875
7269		-150.390625
7270		-154.296875
7271		-148.437500
7272		-150.390625
7273		-146.484375
7274		-148.437500
7275		-144.531250
7276		-148.437500
7277		-142.578125
7278		-144.531250
7279		-140.625000
7280		-142.578125
7281		-138.671875
7282		-140.625000
7283		-134.765625
7284		-136.718750
7285		-132.812500
7286		-134.765625
7287		-130.859375
7288		-132.812500
7289		-126.953125
7290		-128.906250
7291		-123.046875
7292		-125.000000
7293		-119.140625
7294		-125.000000
7295		-117.187500
7296		-121.093750
7297		-113.281250
7298		-117.187500
7299		-111.328125
7300		-113.281250
7301		-107.421875
7302		-109.375000
7303		-103.515625
7304		-105.468750
7305		-101.562500
7306		-101.562500
7307		-97.656250
7308		-99.609375
7309		-91.796875
7310		-95.703125
7311		-89.843750
7312		-91.796875
7313		-85.937500
7314		-87.890625
7315		-82.031250
7316		-83.984375
7317		-78.125000
7318		-80.078125
7319		-74.218750
7320		-76.171875
7321		-68.359375
7322		-72.265625
7323		-66.406250
7324		-66.406250
7325		-62.500000
7326		-62.500000
7327		-56.640625
7328		-60.546875
7329		-50.781250
7330		-56.640625
7331		-48.828125
7332		-52.734375
7333		-44.921875
7334		-46.875000
7335		-41.015625
7336		-42.968750
7337		-35.156250
7338		-39.062500
7339		-33.203125
7340		-33.203125
7341		-27.343750
7342		-29.296875
7343		-21.484375
7344		-25.390625
7345		-17.578125
7346		-21.484375
7347		-13.671875
7348		-17.578125
7349		-9.765625
7350		-11.718750
7351		-5.859375
7352		-7.812500
7353		0.000000
7354		-5.859375
7355		1.953125
7356		0.000000
7357		5.859375
7358		3.906250
7359		9.765625
7360		7.812500
7361		17.578125
7362		11.718750
7363		19.531250
7364		15.625000
7365		23.437500
7366		19.531250
7367		29.296875
7368		23.437500
7369		31.250000
7370		27.343750
7371		35.156250
7372		31.250000
7373		39.062500
7374		37.109375
7375		42.968750
7376		41.015625
7377		46.875000
7378		42.968750
7379		50.781250
7380		46.875000
7381		54.687500
7382		50.781250
7383		58.593750
7384		54.687500
7385		62.500000
7386		56.640625
7387		64.453125
7388		60.546875
7389		68.359375
7390		66.406250
7391		70.312500
7392		70.312500
7393		74.218750
7394		70.312500
7395		78.125000
7396		74.218750
7397		82.031250
7398		78.125000
7399		85.937500
7400		82.031250
7401		87.890625
7402		83.984375
7403		89.843750
7404		85.937500
7405		93.750000
7406		91.796875
7407		95.703125
7408		93.750000
7409		97.656250
7410		95.703125
7411		103.515625
7412		97.656250
7413		105.468750
7414		101.562500
7415		107.421875
7416		103.515625
7417		109.375000
7418		105.468750
7419		113.281250
7420		109.375000
7421		115.234375
7422		109.375000
7423		115.234375
7424		113.281250
7425		117.187500
7426		115.234375
7427		123.046875
7428		117.187500
7429		123.046875
7430		119.140625
7431		125.000000
7432		121.093750
7433		126.953125
7434		123.046875
7435		128.906250
7436		125.000000
7437		130.859375
7438		125.000000
7439		130.859375
7440		128.906250
7441		132.812500
7442		130.859375
7443		132.812500
7444		130.859375
7445		136.718750
7446		128.906250
7447		138.671875
7448		132.812500
7449		138.671875
7450		132.812500
7451		140.625000
7452		134.765625
7453		140.625000
7454		134.765625
7455		142.578125
7456		136.718750
7457		140.625000
7458		138.671875
7459		142.578125
7460		138.671875
7461		144.531250
7462		138.671875
7463		144.531250
7464		138.671875
7465		146.484375
7466		138.671875
7467		146.484375
7468		140.625000
7469		146.484375
7470		138.671875
7471		146.484375
7472		140.625000
7473		146.484375
7474		142.578125
7475		144.531250
7476		142.578125
7477		144.531250
7478		140.625000
7479		146.484375
7480		140.625000
7481		146.484375
7482		140.625000
7483		146.484375
7484		138.671875
7485		146.484375
7486		138.671875
7487		146.484375
7488		138.671875
7489		144.531250
7490		140.625000
7491		142.578125
7492		138.671875
7493		142.578125
7494		136.718750
7495		142.578125
7496		136.718750
7497		142.578125
7498		134.765625
7499		142.578125
7500		134.765625
7501		140.625000
7502		132.812500
7503		138.671875
7504		130.859375
7505		138.671875
7506		130.859375
7507		138.671875
7508		130.859375
7509		134.765625
7510		126.953125
7511		132.812500
7512		126.953125
7513		132.812500
7514		125.000000
7515		132.812500
7516		123.046875
7517		130.859375
7518		121.093750
7519		126.953125
7520		119.140625
7521		125.000000
7522		117.187500
7523		125.000000
7524		117.187500
7525		121.093750
7526		115.234375
7527		119.140625
7528		111.328125
7529		117.187500
7530		107.421875
7531		117.187500
7532		105.468750
7533		113.281250
7534		103.515625
7535		111.328125
7536		99.609375
7537		107.421875
7538		97.656250
7539		105.468750
7540		97.656250
7541		101.562500
7542		93.750000
7543		99.609375
7544		89.843750
7545		95.703125
7546		85.937500
7547		95.703125
7548		83.984375
7549		91.796875
7550		80.078125
7551		87.890625
7552		78.125000
7553		85.937500
7554		74.218750
7555		82.031250
7556		72.265625
7557		78.125000
7558		70.312500
7559		74.218750
7560		64.453125
7561		70.312500
7562		60.546875
7563		70.312500
7564		56.640625
7565		64.453125
7566		52.734375
7567		62.500000
7568		48.828125
7569		58.593750
7570		46.875000
7571		54.687500
7572		42.968750
7573		50.781250
7574		41.015625
7575		44.921875
7576		37.109375
7577		41.015625
7578		31.250000
7579		39.062500
7580		27.343750
7581		35.156250
7582		23.437500
7583		31.250000
7584		19.531250
7585		27.343750
7586		13.671875
7587		23.437500
7588		11.718750
7589		19.531250
7590		7.812500
7591		15.625000
7592		3.906250
7593		9.765625
7594		-1.953125
7595		5.859375
7596		-5.859375
7597		1.953125
7598		-9.765625
7599		0.000000
7600		-13.671875
7601		-5.859375
7602		-17.578125
7603		-9.765625
7604		-23.437500
7605		-13.671875
7606		-25.390625
7607		-17.578125
7608		-29.296875
7609		-23.437500
7610		-33.203125
7611		-27.343750
7612		-39.062500
7613		-31.250000
7614		-42.968750
7615		-33.203125
7616		-46.875000
7617		-39.062500
7618		-52.734375
7619		-42.968750
7620		-56.640625
7621		-46.875000
7622		-60.546875
7623		-50.781250
7624		-62.500000
7625		-56.640625
7626		-66.406250
7627		-60.546875
7628		-72.265625
7629		-64.453125
7630		-76.171875
7631		-68.359375
7632		-80.078125
7633		-70.312500
7634		-83.984375
7635		-76.171875
7636		-87.890625
7637		-78.125000
7638		-91.796875
7639		-82.031250
7640		-93.750000
7641		-85.937500
7642		-97.656250
7643		-91.796875
7644		-99.609375
7645		-95.703125
7646		-107.421875
7647		-97.656250
7648		-109.375000
7649		-101.562500
7650		-113.281250
7651		-103.515625
7652		-115.234375
7653		-107.421875
7654		-119.140625
7655		-111.328125
7656		-123.046875
7657		-115.234375
7658		-123.046875
7659		-119.140625
7660		-126.953125
7661		-121.093750
7662		-130.859375
7663		-123.046875
7664		-134.765625
7665		-126.953125
7666		-136.718750
7667		-128.906250
7668		-138.671875
7669		-132.812500
7670		-142.578125
7671		-134.765625
7672		-144.531250
7673		-136.718750
7674		-144.531250
7675		-138.671875
7676		-146.484375
7677		-142.578125
7678		-150.390625
7679		-144.531250
7680		-152.343750
7681		-144.531250
7682		-154.296875
7683		-146.484375
7684		-156.250000
7685		-148.437500
7686		-158.203125
7687		-152.343750
7688		-160.156250
7689		-152.343750
7690		-162.109375
7691		-154.296875
7692		-160.156250
7693		-158.203125
7694		-162.109375
7695		-158.203125
7696		-164.062500
7697		-158.203125
7698		-166.015625
7699		-158.203125
7700		-166.015625
7701		-160.156250
7702		-167.968750
7703		-160.156250
7704		-167.968750
7705		-162.109375
7706		-167.968750
7707		-162.109375
7708		-166.015625
7709		-164.062500
7710		-166.015625
7711		-164.062500
7712		-167.968750
7713		-162.109375
7714		-167.968750
7715		-162.109375
7716		-167.968750
7717		-162.109375
7718		-167.968750
7719		-162.109375
7720		-167.968750
7721		-162.109375
7722		-167.968750
7723		-160.156250
7724		-166.015625
7725		-160.156250
7726		-164.062500
7727		-162.109375
7728		-162.109375
7729		-160.156250
7730		-164.062500
7731		-156.250000
7732		-162.109375
7733		-156.250000
7734		-160.156250
7735		-154.296875
7736		-160.156250
7737		-152.343750
7738		-158.203125
7739		-150.390625
7740		-156.250000
7741		-150.390625
7742		-154.296875
7743		-148.437500
7744		-150.390625
7745		-148.437500
7746		-150.390625
7747		-142.578125
7748		-148.437500
7749		-142.578125
7750		-146.484375
7751		-138.671875
7752		-144.531250
7753		-136.718750
7754		-140.625000
7755		-132.812500
7756		-138.671875
7757		-132.812500
7758		-136.718750
7759		-130.859375
7760		-132.812500
7761		-126.953125
7762		-128.906250
7763		-123.046875
7764		-128.906250
7765		-119.140625
7766		-125.000000
7767		-115.234375
7768		-121.093750
7769		-113.281250
7770		-117.187500
7771		-109.375000
7772		-115.234375
7773		-107.421875
7774		-111.328125
7775		-103.515625
7776		-105.468750
7777		-101.562500
7778		-101.562500
7779		-97.656250
7780		-99.609375
7781		-91.796875
7782		-97.656250
7783		-87.890625
7784		-91.796875
7785		-83.984375
7786		-89.843750
7787		-80.078125
7788		-83.984375
7789		-76.171875
7790		-82.031250
7791		-72.265625
7792		-76.171875
7793		-70.312500
7794		-72.265625
7795		-66.406250
7796		-68.359375
7797		-60.546875
7798		-66.406250
7799		-54.687500
7800		-60.546875
7801		-50.781250
7802		-56.640625
7803		-46.875000
7804		-52.734375
7805		-42.968750
7806		-46.875000
7807		-39.062500
7808		-42.968750
7809		-37.109375
7810		-37.109375
7811		-33.203125
7812		-33.203125
7813		-27.343750
7814		-31.250000
7815		-21.484375
7816		-27.343750
7817		-19.531250
7818		-23.437500
7819		-13.671875
7820		-17.578125
7821		-9.765625
7822		-13.671875
7823		-5.859375
7824		-9.765625
7825		-1.953125
7826		-3.906250
7827		1.953125
7828		0.000000
7829		5.859375
7830		3.906250
7831		11.718750
7832		7.812500
7833		15.625000
7834		11.718750
7835		19.531250
7836		15.625000
7837		25.390625
7838		19.531250
7839		29.296875
7840		23.437500
7841		31.250000
7842		29.296875
7843		35.156250
7844		33.203125
7845		39.062500
7846		37.109375
7847		42.968750
7848		39.062500
7849		46.875000
7850		42.968750
7851		52.734375
7852		48.828125
7853		56.640625
7854		50.781250
7855		58.593750
7856		54.687500
7857		62.500000
7858		56.640625
7859		64.453125
7860		62.500000
7861		68.359375
7862		66.406250
7863		70.312500
7864		68.359375
7865		76.171875
7866		70.312500
7867		80.078125
7868		76.171875
7869		83.984375
7870		78.125000
7871		85.937500
7872		80.078125
7873		89.843750
7874		83.984375
7875		91.796875
7876		87.890625
7877		93.750000
7878		91.796875
7879		95.703125
7880		93.750000
7881		99.609375
7882		95.703125
7883		103.515625
7884		97.656250
7885		105.468750
7886		99.609375
7887		107.421875
7888		103.515625
7889		111.328125
7890		105.468750
7891		113.281250
7892		107.421875
7893		115.234375
7894		111.328125
7895		115.234375
7896		115.234375
7897		117.187500
7898		115.234375
7899		121.093750
7900		117.187500
7901		123.046875
7902		117.187500
7903		126.953125
7904		121.093750
7905		126.953125
7906		123.046875
7907		128.906250
7908		123.046875
7909		130.859375
7910		126.953125
7911		130.859375
7912		128.906250
7913		132.812500
7914		128.906250
7915		136.718750
7916		128.906250
7917		136.718750
7918		130.859375
7919		138.671875
7920		132.812500
7921		138.671875
7922		132.812500
7923		140.625000
7924		134.765625
7925		140.625000
7926		136.718750
7927		140.625000
7928		138.671875
7929		140.625000
7930		138.671875
7931		144.531250
7932		138.671875
7933		144.531250
7934		138.671875
7935		144.531250
7936		138.671875
7937		146.484375
7938		138.671875
7939		146.484375
7940		138.671875
7941		146.484375
7942		140.625000
7943		146.484375
7944		142.578125
7945		144.531250
7946		142.578125
7947		144.531250
7948		140.625000
7949		146.484375
7950		140.625000
7951		146.484375
7952		140.625000
7953		146.484375
7954		140.625000
7955		146.484375
7956		138.671875
7957		146.484375
7958		138.671875
7959		144.531250
7960		138.671875
7961		144.531250
7962		140.625000
7963		142.578125
7964		138.671875
7965		142.578125
7966		136.718750
7967		142.578125
7968		134.765625
7969		142.578125
7970		134.765625
7971		140.625000
7972		134.765625
7973		140.625000
7974		132.812500
7975		138.671875
7976		130.859375
7977		138.671875
7978		132.812500
7979		134.765625
7980		130.859375
7981		132.812500
7982		126.953125
7983		134.765625
7984		125.000000
7985		132.812500
7986		123.046875
7987		130.859375
7988		123.046875
7989		128.906250
7990		121.093750
7991		126.953125
7992		119.140625
7993		125.000000
7994		119.140625
7995		123.046875
7996		115.234375
7997		119.140625
7998		111.328125
7999		119.140625
8000		111.328125
8001		117.187500
8002		107.421875
8003		115.234375
8004		103.515625
8005		113.281250
8006		103.515625
8007		111.328125
8008		99.609375
8009		107.421875
8010		97.656250
8011		105.468750
8012		95.703125
8013		101.562500
8014		93.750000
8015		97.656250
8016		89.843750
8017		97.656250
8018		85.937500
8019		93.750000
8020		82.031250
8021		91.796875
8022		80.078125
8023		87.890625
8024		76.171875
8025		83.984375
8026		74.218750
8027		82.031250
8028		72.265625
8029		76.171875
8030		68.359375
8031		72.265625
8032		62.500000
8033		70.312500
8034		60.546875
8035		68.359375
8036		56.640625
8037		64.453125
8038		52.734375
8039		60.546875
8040		46.875000
8041		56.640625
8042		44.921875
8043		52.734375
8044		42.968750
8045		48.828125
8046		39.062500
8047		44.921875
8048		33.203125
8049		41.015625
8050		29.296875
8051		39.062500
8052		25.390625
8053		35.156250
8054		21.484375
8055		31.250000
8056		15.625000
8057		25.390625
8058		13.671875
8059		21.484375
8060		9.765625
8061		19.531250
8062		5.859375
8063		11.718750
8064		1.953125
8065		7.812500
8066		-3.906250
8067		5.859375
8068		-7.812500
8069		1.953125
8070		-11.718750
8071		-1.953125
8072		-15.625000
8073		-7.812500
8074		-17.578125
8075		-11.718750
8076		-23.437500
8077		-15.625000
8078		-27.343750
8079		-19.531250
8080		-31.250000
8081		-25.390625
8082		-35.156250
8083		-29.296875
8084		-41.015625
8085		-31.250000
8086		-44.921875
8087		-35.156250
8088		-50.781250
8089		-41.015625
8090		-52.734375
8091		-44.921875
8092		-56.640625
8093		-48.828125
8094		-60.546875
8095		-52.734375
8096		-62.500000
8097		-58.593750
8098		-68.359375
8099		-62.500000
8100		-72.265625
8101		-64.453125
8102		-78.125000
8103		-68.359375
8104		-82.031250
8105		-72.265625
8106		-85.937500
8107		-76.171875
8108		-89.843750
8109		-80.078125
8110		-91.796875
8111		-83.984375
8112		-93.750000
8113		-87.890625
8114		-97.656250
8115		-93.750000
8116		-103.515625
8117		-95.703125
8118		-105.468750
8119		-99.609375
8120		-109.375000
8121		-101.562500
8122		-113.281250
8123		-103.515625
8124		-117.187500
8125		-109.375000
8126		-119.140625
8127		-113.281250
8128		-121.093750
8129		-115.234375
8130		-125.000000
8131		-119.140625
8132		-128.906250
8133		-123.046875
8134		-130.859375
8135		-123.046875
8136		-134.765625
8137		-126.953125
8138		-136.718750
8139		-128.906250
8140		-140.625000
8141		-132.812500
8142		-142.578125
8143		-132.812500
8144		-144.531250
8145		-136.718750
8146		-144.531250
8147		-140.625000
8148		-146.484375
8149		-142.578125
8150		-150.390625
8151		-144.531250
8152		-152.343750
8153		-146.484375
8154		-154.296875
8155		-148.437500
8156		-156.250000
8157		-150.390625
8158		-156.250000
8159		-152.343750
8160		-158.203125
8161		-152.343750
8162		-158.203125
8163		-154.296875
8164		-160.156250
8165		-156.250000
8166		-164.062500
8167		-158.203125
8168		-164.062500
8169		-158.203125
8170		-166.015625
8171		-158.203125
8172		-166.015625
8173		-160.156250
8174		-167.968750
8175		-160.156250
8176		-167.968750
8177		-160.156250
8178		-167.968750
8179		-162.109375
8180		-166.015625
8181		-164.062500
8182		-167.968750
8183		-164.062500
8184		-167.968750
8185		-162.109375
8186		-167.968750
8187		-162.109375
8188		-167.968750
8189		-162.109375
8190		-167.968750
8191		-160.156250
8192		-167.968750
8193		-160.156250
8194		-166.015625
8195		-160.156250
8196		-164.062500
8197		-160.156250
8198		-164.062500
8199		-160.156250
8200		-164.062500
8201		-156.250000
8202		-162.109375
8203		-156.250000
8204		-162.109375
8205		-154.296875
8206		-160.156250
8207		-152.343750
8208		-158.203125
8209		-152.343750
8210		-156.250000
8211		-150.390625
8212		-156.250000
8213		-150.390625
8214		-152.343750
8215		-148.437500
8216		-150.390625
8217		-144.531250
8218		-150.390625
8219		-142.578125
8220		-148.437500
8221		-140.625000
8222		-144.531250
8223		-136.718750
8224		-142.578125
8225		-134.765625
8226		-140.625000
8227		-132.812500
8228		-138.671875
8229		-130.859375
8230		-132.812500
8231		-128.906250
8232		-130.859375
8233		-126.953125
8234		-128.906250
8235		-121.093750
8236		-126.953125
8237		-119.140625
8238		-123.046875
8239		-115.234375
8240		-121.093750
8241		-111.328125
8242		-117.187500
8243		-107.421875
8244		-113.281250
8245		-105.468750
8246		-109.375000
8247		-103.515625
8248		-105.468750
8249		-99.609375
8250		-101.562500
8251		-93.750000
8252		-99.609375
8253		-89.843750
8254		-93.750000
8255		-85.937500
8256		-89.843750
8257		-83.984375
8258		-87.890625
8259		-80.078125
8260		-83.984375
8261		-74.218750
8262		-80.078125
8263		-72.265625
8264		-74.218750
8265		-68.359375
8266		-70.312500
8267		-64.453125
8268		-68.359375
8269		-58.593750
8270		-62.500000
8271		-54.687500
8272		-58.593750
8273		-50.781250
8274		-54.687500
8275		-46.875000
8276		-50.781250
8277		-41.015625
8278		-46.875000
8279		-37.109375
8280		-41.015625
8281		-35.156250
8282		-37.109375
8283		-31.250000
8284		-33.203125
8285		-25.390625
8286		-29.296875
8287		-19.531250
8288		-25.390625
8289		-15.625000
8290		-21.484375
8291		-11.718750
8292		-15.625000
8293		-7.812500
8294		-13.671875
8295		-3.906250
8296		-7.812500
8297		-1.953125
8298		-1.953125
8299		3.906250
8300		1.953125
8301		9.765625
8302		3.906250
8303		11.718750
8304		7.812500
8305		17.578125
8306		11.718750
8307		21.484375
8308		17.578125
8309		27.343750
8310		21.484375
8311		29.296875
8312		25.390625
8313		31.250000
8314		31.250000
8315		35.156250
8316		35.156250
8317		39.062500
8318		37.109375
8319		44.921875
8320		41.015625
8321		48.828125
8322		44.921875
8323		54.687500
8324		46.875000
8325		56.640625
8326		52.734375
8327		60.546875
8328		54.687500
8329		64.453125
8330		60.546875
8331		64.453125
8332		64.453125
8333		68.359375
8334		68.359375
8335		74.218750
8336		68.359375
8337		78.125000
8338		72.265625
8339		80.078125
8340		76.171875
8341		83.984375
8342		78.125000
8343		85.937500
8344		82.031250
8345		89.843750
8346		85.937500
8347		91.796875
8348		89.843750
8349		93.750000
8350		91.796875
8351		97.656250
8352		93.750000
8353		101.562500
8354		97.656250
8355		103.515625
8356		99.609375
8357		107.421875
8358		101.562500
8359		109.375000
8360		103.515625
8361		111.328125
8362		105.468750
8363		113.281250
8364		109.375000
8365		115.234375
8366		113.281250
8367		117.187500
8368		113.281250
8369		121.093750
8370		115.234375
8371		123.046875
8372		117.187500
8373		125.000000
8374		119.140625
8375		125.000000
8376		121.093750
8377		128.906250
8378		123.046875
8379		130.859375
8380		123.046875
8381		130.859375
8382		128.906250
8383		130.859375
8384		128.906250
8385		134.765625
8386		128.906250
8387		136.718750
8388		128.906250
8389		136.718750
8390		130.859375
8391		138.671875
8392		132.812500
8393		140.625000
8394		134.765625
8395		140.625000
8396		132.812500
8397		140.625000
8398		138.671875
8399		140.625000
8400		138.671875
8401		140.625000
8402		136.718750
8403		144.531250
8404		138.671875
8405		144.531250
8406		138.671875
8407		144.531250
8408		138.671875
8409		146.484375
8410		138.671875
8411		146.484375
8412		138.671875
8413		146.484375
8414		140.625000
8415		144.531250
8416		142.578125
8417		144.531250
8418		140.625000
8419		146.484375
8420		140.625000
8421		146.484375
8422		140.625000
8423		146.484375
8424		140.625000
8425		146.484375
8426		138.671875
8427		146.484375
8428		138.671875
8429		146.484375
8430		138.671875
8431		144.531250
8432		140.625000
8433		142.578125
8434		140.625000
8435		142.578125
8436		136.718750
8437		144.531250
8438		136.718750
8439		142.578125
8440		134.765625
8441		142.578125
8442		134.765625
8443		140.625000
8444		132.812500
8445		138.671875
8446		130.859375
8447		138.671875
8448		132.812500
8449		136.718750
8450		130.859375
8451		134.765625
8452		126.953125
8453		134.765625
8454		126.953125
8455		132.812500
8456		125.000000
8457		132.812500
8458		123.046875
8459		130.859375
8460		121.093750
8461		128.906250
8462		119.140625
8463		126.953125
8464		119.140625
8465		125.000000
8466		117.187500
8467		121.093750
8468		113.281250
8469		119.140625
8470		111.328125
8471		119.140625
8472		109.375000
8473		117.187500
8474		107.421875
8475		115.234375
8476		105.468750
8477		111.328125
8478		101.562500
8479		109.375000
8480		99.609375
8481		107.421875
8482		97.656250
8483		103.515625
8484		95.703125
8485		99.609375
8486		89.843750
8487		97.656250
8488		87.890625
8489		95.703125
8490		83.984375
8491		93.750000
8492		82.031250
8493		89.843750
8494		78.125000
8495		87.890625
8496		76.171875
8497		83.984375
8498		74.218750
8499		80.078125
8500		70.312500
8501		76.171875
8502		64.453125
8503		72.265625
8504		60.546875
8505		70.312500
8506		58.593750
8507		66.406250
8508		54.687500
8509		62.500000
8510		50.781250
8511		60.546875
8512		46.875000
8513		54.687500
8514		44.921875
8515		52.734375
8516		41.015625
8517		46.875000
8518		37.109375
8519		42.968750
8520		31.250000
8521		41.015625
8522		29.296875
8523		37.109375
8524		23.437500
8525		33.203125
8526		19.531250
8527		29.296875
8528		15.625000
8529		23.437500
8530		11.718750
8531		19.531250
8532		9.765625
8533		15.625000
8534		5.859375
8535		11.718750
8536		-1.953125
8537		5.859375
8538		-3.906250
8539		3.906250
8540		-9.765625
8541		0.000000
8542		-13.671875
8543		-3.906250
8544		-17.578125
8545		-7.812500
8546		-21.484375
8547		-13.671875
8548		-23.437500
8549		-15.625000
8550		-27.343750
8551		-21.484375
8552		-35.156250
8553		-25.390625
8554		-37.109375
8555		-29.296875
8556		-42.968750
8557		-33.203125
8558		-44.921875
8559		-37.109375
8560		-50.781250
8561		-41.015625
8562		-54.687500
8563		-44.921875
8564		-58.593750
8565		-50.781250
8566		-60.546875
8567		-54.687500
8568		-64.453125
8569		-60.546875
8570		-70.312500
8571		-62.500000
8572		-74.218750
8573		-66.406250
8574		-80.078125
8575		-70.312500
8576		-82.031250
8577		-74.218750
8578		-85.937500
8579		-78.125000
8580		-89.843750
8581		-82.031250
8582		-91.796875
8583		-85.937500
8584		-95.703125
8585		-89.843750
8586		-101.562500
8587		-93.750000
8588		-103.515625
8589		-95.703125
8590		-109.375000
8591		-99.609375
8592		-111.328125
8593		-103.515625
8594		-115.234375
8595		-105.468750
8596		-117.187500
8597		-109.375000
8598		-119.140625
8599		-113.281250
8600		-121.093750
8601		-117.187500
8602		-125.000000
8603		-121.093750
8604		-128.906250
8605		-121.093750
8606		-132.812500
8607		-125.000000
8608		-134.765625
8609		-126.953125
8610		-138.671875
8611		-130.859375
8612		-140.625000
8613		-132.812500
8614		-142.578125
8615		-134.765625
8616		-142.578125
8617		-138.671875
8618		-144.531250
8619		-140.625000
8620		-150.390625
8621		-142.578125
8622		-152.343750
8623		-144.531250
8624		-154.296875
8625		-146.484375
8626		-154.296875
8627		-148.437500
8628		-156.250000
8629		-148.437500
8630		-158.203125
8631		-150.390625
8632		-158.203125
8633		-152.343750
8634		-158.203125
8635		-156.250000
8636		-160.156250
8637		-156.250000
8638		-164.062500
8639		-156.250000
8640		-166.015625
8641		-158.203125
8642		-166.015625
8643		-158.203125
8644		-166.015625
8645		-158.203125
8646		-166.015625
8647		-160.156250
8648		-166.015625
8649		-160.156250
8650		-166.015625
8651		-162.109375
8652		-166.015625
8653		-162.109375
8654		-166.015625
8655		-160.156250
8656		-167.968750
8657		-160.156250
8658		-167.968750
8659		-160.156250
8660		-166.015625
8661		-160.156250
8662		-167.968750
8663		-160.156250
8664		-166.015625
8665		-160.156250
8666		-164.062500
8667		-160.156250
8668		-162.109375
8669		-160.156250
8670		-162.109375
8671		-158.203125
8672		-162.109375
8673		-156.250000
8674		-162.109375
8675		-154.296875
8676		-160.156250
8677		-152.343750
8678		-158.203125
8679		-152.343750
8680		-158.203125
8681		-150.390625
8682		-156.250000
8683		-150.390625
8684		-152.343750
8685		-148.437500
8686		-150.390625
8687		-146.484375
8688		-150.390625
8689		-142.578125
8690		-148.437500
8691		-140.625000
8692		-146.484375
8693		-138.671875
8694		-142.578125
8695		-136.718750
8696		-142.578125
8697		-134.765625
8698		-138.671875
8699		-130.859375
8700		-136.718750
8701		-130.859375
8702		-130.859375
8703		-126.953125
8704		-128.906250
8705		-123.046875
8706		-126.953125
8707		-119.140625
8708		-125.000000
8709		-115.234375
8710		-121.093750
8711		-113.281250
8712		-117.187500
8713		-109.375000
8714		-115.234375
8715		-107.421875
8716		-111.328125
8717		-105.468750
8718		-107.421875
8719		-101.562500
8720		-101.562500
8721		-97.656250
8722		-101.562500
8723		-91.796875
8724		-97.656250
8725		-89.843750
8726		-93.750000
8727		-83.984375
8728		-89.843750
8729		-80.078125
8730		-85.937500
8731		-78.125000
8732		-82.031250
8733		-72.265625
8734		-76.171875
8735		-70.312500
8736		-72.265625
8737		-66.406250
8738		-68.359375
8739		-60.546875
8740		-64.453125
8741		-56.640625
8742		-62.500000
8743		-52.734375
8744		-56.640625
8745		-48.828125
8746		-52.734375
8747		-42.968750
8748		-48.828125
8749		-39.062500
8750		-42.968750
8751		-37.109375
8752		-39.062500
8753		-33.203125
8754		-35.156250
8755		-27.343750
8756		-31.250000
8757		-23.437500
8758		-27.343750
8759		-19.531250
8760		-23.437500
8761		-13.671875
8762		-19.531250
8763		-9.765625
8764		-15.625000
8765		-5.859375
8766		-11.718750
8767		-3.906250
8768		-3.906250
8769		0.000000
8770		0.000000
8771		5.859375
8772		1.953125
8773		11.718750
8774		7.812500
8775		15.625000
8776		9.765625
8777		19.531250
8778		15.625000
8779		23.437500
8780		19.531250
8781		27.343750
8782		21.484375
8783		31.250000
8784		27.343750
8785		33.203125
8786		33.203125
8787		37.109375
8788		37.109375
8789		42.968750
8790		39.062500
8791		46.875000
8792		41.015625
8793		50.781250
8794		46.875000
8795		54.687500
8796		48.828125
8797		58.593750
8798		52.734375
8799		62.500000
8800		56.640625
8801		64.453125
8802		62.500000
8803		66.406250
8804		66.406250
8805		70.312500
8806		66.406250
8807		76.171875
8808		70.312500
8809		78.125000
8810		74.218750
8811		82.031250
8812		76.171875
8813		85.937500
8814		80.078125
8815		89.843750
8816		83.984375
8817		91.796875
8818		87.890625
8819		91.796875
8820		91.796875
8821		95.703125
8822		93.750000
8823		99.609375
8824		95.703125
8825		103.515625
8826		97.656250
8827		105.468750
8828		99.609375
8829		107.421875
8830		101.562500
8831		109.375000
8832		105.468750
8833		113.281250
8834		107.421875
8835		113.281250
8836		111.328125
8837		115.234375
8838		113.281250
8839		119.140625
8840		115.234375
8841		121.093750
8842		115.234375
8843		123.046875
8844		119.140625
8845		125.000000
8846		119.140625
8847		126.953125
8848		123.046875
8849		128.906250
8850		123.046875
8851		130.859375
8852		126.953125
8853		130.859375
8854		128.906250
8855		132.812500
8856		128.906250
8857		134.765625
8858		128.906250
8859		136.718750
8860		130.859375
8861		138.671875
8862		132.812500
8863		138.671875
8864		132.812500
8865		140.625000
8866		134.765625
8867		142.578125
8868		136.718750
8869		140.625000
8870		138.671875
8871		140.625000
8872		138.671875
8873		144.531250
8874		138.671875
8875		144.531250
8876		138.671875
8877		144.531250
8878		138.671875
8879		146.484375
8880		138.671875
8881		146.484375
8882		140.625000
8883		148.437500
8884		140.625000
8885		146.484375
8886		142.578125
8887		144.531250
8888		142.578125
8889		146.484375
8890		140.625000
8891		148.437500
8892		140.625000
8893		148.437500
8894		140.625000
8895		148.437500
8896		140.625000
8897		146.484375
8898		140.625000
8899		146.484375
8900		140.625000
8901		146.484375
8902		142.578125
8903		144.531250
8904		140.625000
8905		144.531250
8906		138.671875
8907		144.531250
8908		138.671875
8909		144.531250
8910		136.718750
8911		144.531250
8912		134.765625
8913		142.578125
8914		134.765625
8915		142.578125
8916		132.812500
8917		140.625000
8918		132.812500
8919		140.625000
8920		132.812500
8921		136.718750
8922		130.859375
8923		136.718750
8924		128.906250
8925		136.718750
8926		126.953125
8927		134.765625
8928		125.000000
8929		132.812500
8930		123.046875
8931		130.859375
8932		123.046875
8933		128.906250
8934		121.093750
8935		126.953125
8936		121.093750
8937		123.046875
8938		119.140625
8939		121.093750
8940		115.234375
8941		121.093750
8942		111.328125
8943		119.140625
8944		109.375000
8945		117.187500
8946		107.421875
8947		115.234375
8948		105.468750
8949		111.328125
8950		101.562500
8951		109.375000
8952		101.562500
8953		107.421875
8954		99.609375
8955		103.515625
8956		95.703125
8957		101.562500
8958		89.843750
8959		99.609375
8960		87.890625
8961		97.656250
8962		85.937500
8963		93.750000
8964		82.031250
8965		89.843750
8966		80.078125
8967		87.890625
8968		78.125000
8969		83.984375
8970		74.218750
8971		78.125000
8972		70.312500
8973		76.171875
8974		66.406250
8975		74.218750
8976		62.500000
8977		70.312500
8978		58.593750
8979		66.406250
8980		54.687500
8981		64.453125
8982		52.734375
8983		60.546875
8984		46.875000
8985		56.640625
8986		46.875000
8987		52.734375
8988		41.015625
8989		46.875000
8990		37.109375
8991		42.968750
8992		33.203125
8993		41.015625
8994		29.296875
8995		37.109375
8996		25.390625
8997		33.203125
8998		21.484375
8999		27.343750
9000		17.578125
9001		25.390625
9002		13.671875
9003		19.531250
9004		9.765625
9005		15.625000
9006		3.906250
9007		11.718750
9008		0.000000
9009		9.765625
9010		-3.906250
9011		3.906250
9012		-9.765625
9013		0.000000
9014		-13.671875
9015		-3.906250
9016		-17.578125
9017		-7.812500
9018		-21.484375
9019		-11.718750
9020		-23.437500
9021		-17.578125
9022		-27.343750
9023		-21.484375
9024		-33.203125
9025		-25.390625
9026		-39.062500
9027		-29.296875
9028		-41.015625
9029		-33.203125
9030		-44.921875
9031		-37.109375
9032		-50.781250
9033		-41.015625
9034		-54.687500
9035		-44.921875
9036		-56.640625
9037		-48.828125
9038		-60.546875
9039		-54.687500
9040		-66.406250
9041		-58.593750
9042		-70.312500
9043		-60.546875
9044		-74.218750
9045		-66.406250
9046		-78.125000
9047		-70.312500
9048		-80.078125
9049		-74.218750
9050		-85.937500
9051		-76.171875
9052		-87.890625
9053		-80.078125
9054		-91.796875
9055		-85.937500
9056		-93.750000
9057		-89.843750
9058		-101.562500
9059		-91.796875
9060		-103.515625
9061		-93.750000
9062		-107.421875
9063		-97.656250
9064		-109.375000
9065		-101.562500
9066		-113.281250
9067		-105.468750
9068		-115.234375
9069		-109.375000
9070		-117.187500
9071		-111.328125
9072		-121.093750
9073		-117.187500
9074		-126.953125
9075		-119.140625
9076		-126.953125
9077		-121.093750
9078		-130.859375
9079		-123.046875
9080		-134.765625
9081		-126.953125
9082		-136.718750
9083		-128.906250
9084		-138.671875
9085		-132.812500
9086		-140.625000
9087		-134.765625
9088		-142.578125
9089		-138.671875
9090		-144.531250
9091		-140.625000
9092		-148.437500
9093		-140.625000
9094		-150.390625
9095		-142.578125
9096		-152.343750
9097		-144.531250
9098		-154.296875
9099		-146.484375
9100		-156.250000
9101		-148.437500
9102		-156.250000
9103		-150.390625
9104		-156.250000
9105		-154.296875
9106		-158.203125
9107		-154.296875
9108		-160.156250
9109		-154.296875
9110		-162.109375
9111		-154.296875
9112		-162.109375
9113		-156.250000
9114		-164.062500
9115		-156.250000
9116		-164.062500
9117		-158.203125
9118		-166.015625
9119		-158.203125
9120		-164.062500
9121		-160.156250
9122		-164.062500
9123		-162.109375
9124		-166.015625
9125		-160.156250
9126		-166.015625
9127		-160.156250
9128		-166.015625
9129		-160.156250
9130		-166.015625
9131		-160.156250
9132		-166.015625
9133		-158.203125
9134		-164.062500
9135		-158.203125
9136		-164.062500
9137		-158.203125
9138		-162.109375
9139		-160.156250
9140		-160.156250
9141		-158.203125
9142		-162.109375
9143		-154.296875
9144		-162.109375
9145		-154.296875
9146		-160.156250
9147		-152.343750
9148		-158.203125
9149		-152.343750
9150		-158.203125
9151		-150.390625
9152		-156.250000
9153		-148.437500
9154		-154.296875
9155		-148.437500
9156		-150.390625
9157		-146.484375
9158		-148.437500
9159		-142.578125
9160		-148.437500
9161		-140.625000
9162		-148.437500
9163		-138.671875
9164		-144.531250
9165		-136.718750
9166		-142.578125
9167		-134.765625
9168		-138.671875
9169		-132.812500
9170		-136.718750
9171		-130.859375
9172		-132.812500
9173		-126.953125
9174		-128.906250
9175		-123.046875
9176		-128.906250
9177		-121.093750
9178		-125.000000
9179		-117.187500
9180		-121.093750
9181		-113.281250
9182		-119.140625
9183		-111.328125
9184		-115.234375
9185		-107.421875
9186		-111.328125
9187		-105.468750
9188		-107.421875
9189		-101.562500
9190		-103.515625
9191		-99.609375
9192		-101.562500
9193		-93.750000
9194		-97.656250
9195		-89.843750
9196		-93.750000
9197		-85.937500
9198		-89.843750
9199		-82.031250
9200		-87.890625
9201		-78.125000
9202		-82.031250
9203		-74.218750
9204		-78.125000
9205		-72.265625
9206		-72.265625
9207		-68.359375
9208		-68.359375
9209		-62.500000
9210		-66.406250
9211		-58.593750
9212		-62.500000
9213		-54.687500
9214		-58.593750
9215		-50.781250
9216		-54.687500
9217		-44.921875
9218		-50.781250
9219		-39.062500
9220		-44.921875
9221		-37.109375
9222		-41.015625
9223		-35.156250
9224		-35.156250
9225		-29.296875
9226		-33.203125
9227		-25.390625
9228		-29.296875
9229		-21.484375
9230		-25.390625
9231		-15.625000
9232		-21.484375
9233		-11.718750
9234		-17.578125
9235		-7.812500
9236		-11.718750
9237		-3.906250
9238		-5.859375
9239		0.000000
9240		-1.953125
9241		3.906250
9242		1.953125
9243		9.765625
9244		3.906250
9245		13.671875
9246		9.765625
9247		17.578125
9248		13.671875
9249		21.484375
9250		17.578125
9251		25.390625
9252		19.531250
9253		29.296875
9254		25.390625
9255		31.250000
9256		31.250000
9257		35.156250
9258		35.156250
9259		41.015625
9260		35.156250
9261		44.921875
9262		39.062500
9263		48.828125
9264		44.921875
9265		52.734375
9266		48.828125
9267		56.640625
9268		52.734375
9269		60.546875
9270		54.687500
9271		62.500000
9272		60.546875
9273		64.453125
9274		64.453125
9275		68.359375
9276		66.406250
9277		74.218750
9278		68.359375
9279		78.125000
9280		72.265625
9281		82.031250
9282		76.171875
9283		83.984375
9284		80.078125
9285		87.890625
9286		82.031250
9287		89.843750
9288		85.937500
9289		91.796875
9290		89.843750
9291		93.750000
9292		91.796875
9293		99.609375
9294		93.750000
9295		103.515625
9296		95.703125
9297		103.515625
9298		97.656250
9299		107.421875
9300		101.562500
9301		109.375000
9302		103.515625
9303		111.328125
9304		107.421875
9305		113.281250
9306		111.328125
9307		115.234375
9308		113.281250
9309		117.187500
9310		115.234375
9311		121.093750
9312		115.234375
9313		123.046875
9314		117.187500
9315		125.000000
9316		119.140625
9317		126.953125
9318		121.093750
9319		128.906250
9320		123.046875
9321		130.859375
9322		126.953125
9323		130.859375
9324		128.906250
9325		132.812500
9326		128.906250
9327		134.765625
9328		128.906250
9329		136.718750
9330		130.859375
9331		138.671875
9332		130.859375
9333		138.671875
9334		132.812500
9335		140.625000
9336		134.765625
9337		140.625000
9338		136.718750
9339		140.625000
9340		138.671875
9341		140.625000
9342		138.671875
9343		142.578125
9344		138.671875
9345		144.531250
9346		138.671875
9347		146.484375
9348		138.671875
9349		146.484375
9350		140.625000
9351		146.484375
9352		140.625000
9353		146.484375
9354		140.625000
9355		146.484375
9356		142.578125
9357		146.484375
9358		142.578125
9359		146.484375
9360		142.578125
9361		148.437500
9362		140.625000
9363		148.437500
9364		140.625000
9365		148.437500
9366		140.625000
9367		148.437500
9368		140.625000
9369		146.484375
9370		140.625000
9371		146.484375
9372		140.625000
9373		146.484375
9374		140.625000
9375		144.531250
9376		140.625000
9377		144.531250
9378		138.671875
9379		144.531250
9380		136.718750
9381		144.531250
9382		136.718750
9383		144.531250
9384		134.765625
9385		142.578125
9386		134.765625
9387		142.578125
9388		134.765625
9389		140.625000
9390		134.765625
9391		136.718750
9392		132.812500
9393		136.718750
9394		130.859375
9395		136.718750
9396		128.906250
9397		134.765625
9398		126.953125
9399		134.765625
9400		125.000000
9401		132.812500
9402		123.046875
9403		130.859375
9404		123.046875
9405		128.906250
9406		121.093750
9407		126.953125
9408		119.140625
9409		123.046875
9410		115.234375
9411		121.093750
9412		113.281250
9413		121.093750
9414		111.328125
9415		119.140625
9416		107.421875
9417		117.187500
9418		105.468750
9419		113.281250
9420		103.515625
9421		111.328125
9422		101.562500
9423		109.375000
9424		99.609375
9425		105.468750
9426		97.656250
9427		101.562500
9428		91.796875
9429		101.562500
9430		89.843750
9431		97.656250
9432		87.890625
9433		95.703125
9434		85.937500
9435		91.796875
9436		80.078125
9437		89.843750
9438		78.125000
9439		85.937500
9440		76.171875
9441		82.031250
9442		72.265625
9443		78.125000
9444		66.406250
9445		74.218750
9446		64.453125
9447		74.218750
9448		60.546875
9449		68.359375
9450		58.593750
9451		66.406250
9452		52.734375
9453		62.500000
9454		48.828125
9455		58.593750
9456		46.875000
9457		54.687500
9458		44.921875
9459		50.781250
9460		39.062500
9461		44.921875
9462		35.156250
9463		42.968750
9464		31.250000
9465		39.062500
9466		27.343750
9467		35.156250
9468		23.437500
9469		31.250000
9470		21.484375
9471		27.343750
9472		15.625000
9473		23.437500
9474		13.671875
9475		17.578125
9476		7.812500
9477		13.671875
9478		1.953125
9479		9.765625
9480		-1.953125
9481		7.812500
9482		-5.859375
9483		3.906250
9484		-9.765625
9485		0.000000
9486		-13.671875
9487		-5.859375
9488		-17.578125
9489		-9.765625
9490		-21.484375
9491		-13.671875
9492		-25.390625
9493		-19.531250
9494		-29.296875
9495		-23.437500
9496		-35.156250
9497		-25.390625
9498		-39.062500
9499		-31.250000
9500		-44.921875
9501		-35.156250
9502		-46.875000
9503		-39.062500
9504		-50.781250
9505		-42.968750
9506		-54.687500
9507		-46.875000
9508		-58.593750
9509		-52.734375
9510		-62.500000
9511		-56.640625
9512		-66.406250
9513		-58.593750
9514		-72.265625
9515		-62.500000
9516		-74.218750
9517		-66.406250
9518		-80.078125
9519		-70.312500
9520		-83.984375
9521		-74.218750
9522		-87.890625
9523		-78.125000
9524		-89.843750
9525		-82.031250
9526		-91.796875
9527		-87.890625
9528		-97.656250
9529		-91.796875
9530		-101.562500
9531		-91.796875
9532		-103.515625
9533		-97.656250
9534		-109.375000
9535		-99.609375
9536		-113.281250
9537		-103.515625
9538		-115.234375
9539		-105.468750
9540		-117.187500
9541		-109.375000
9542		-119.140625
9543		-115.234375
9544		-123.046875
9545		-117.187500
9546		-126.953125
9547		-119.140625
9548		-130.859375
9549		-123.046875
9550		-132.812500
9551		-125.000000
9552		-134.765625
9553		-126.953125
9554		-136.718750
9555		-130.859375
9556		-140.625000
9557		-132.812500
9558		-140.625000
9559		-136.718750
9560		-142.578125
9561		-138.671875
9562		-146.484375
9563		-140.625000
9564		-148.437500
9565		-140.625000
9566		-150.390625
9567		-144.531250
9568		-152.343750
9569		-144.531250
9570		-154.296875
9571		-146.484375
9572		-156.250000
9573		-148.437500
9574		-156.250000
9575		-150.390625
9576		-156.250000
9577		-154.296875
9578		-158.203125
9579		-154.296875
9580		-162.109375
9581		-154.296875
9582		-162.109375
9583		-154.296875
9584		-164.062500
9585		-156.250000
9586		-164.062500
9587		-158.203125
9588		-164.062500
9589		-158.203125
9590		-166.015625
9591		-158.203125
9592		-164.062500
9593		-160.156250
9594		-164.062500
9595		-162.109375
9596		-166.015625
9597		-160.156250
9598		-166.015625
9599		-160.156250
9600		-166.015625
9601		-160.156250
9602		-166.015625
9603		-160.156250
9604		-166.015625
9605		-158.203125
9606		-166.015625
9607		-158.203125
9608		-164.062500
9609		-158.203125
9610		-162.109375
9611		-158.203125
9612		-162.109375
9613		-156.250000
9614		-162.109375
9615		-154.296875
9616		-160.156250
9617		-154.296875
9618		-160.156250
9619		-152.343750
9620		-158.203125
9621		-150.390625
9622		-156.250000
9623		-150.390625
9624		-154.296875
9625		-148.437500
9626		-152.343750
9627		-148.437500
9628		-150.390625
9629		-144.531250
9630		-150.390625
9631		-142.578125
9632		-146.484375
9633		-140.625000
9634		-146.484375
9635		-138.671875
9636		-144.531250
9637		-134.765625
9638		-140.625000
9639		-132.812500
9640		-138.671875
9641		-130.859375
9642		-134.765625
9643		-128.906250
9644		-130.859375
9645		-126.953125
9646		-128.906250
9647		-123.046875
9648		-126.953125
9649		-117.187500
9650		-123.046875
9651		-115.234375
9652		-121.093750
9653		-113.281250
9654		-117.187500
9655		-109.375000
9656		-115.234375
9657		-107.421875
9658		-111.328125
9659		-103.515625
9660		-105.468750
9661		-101.562500
9662		-101.562500
9663		-95.703125
9664		-101.562500
9665		-91.796875
9666		-97.656250
9667		-87.890625
9668		-91.796875
9669		-83.984375
9670		-87.890625
9671		-80.078125
9672		-85.937500
9673		-76.171875
9674		-82.031250
9675		-74.218750
9676		-76.171875
9677		-70.312500
9678		-72.265625
9679		-66.406250
9680		-70.312500
9681		-60.546875
9682		-66.406250
9683		-56.640625
9684		-60.546875
9685		-52.734375
9686		-56.640625
9687		-48.828125
9688		-52.734375
9689		-44.921875
9690		-48.828125
9691		-41.015625
9692		-44.921875
9693		-37.109375
9694		-39.062500
9695		-33.203125
9696		-35.156250
9697		-27.343750
9698		-33.203125
9699		-23.437500
9700		-29.296875
9701		-19.531250
9702		-23.437500
9703		-13.671875
9704		-19.531250
9705		-9.765625
9706		-13.671875
9707		-5.859375
9708		-9.765625
9709		-3.906250
9710		-5.859375
9711		0.000000
9712		0.000000
9713		7.812500
9714		1.953125
9715		9.765625
9716		5.859375
9717		13.671875
9718		9.765625
9719		19.531250
9720		13.671875
9721		23.437500
9722		17.578125
9723		27.343750
9724		23.437500
9725		31.250000
9726		27.343750
9727		33.203125
9728		31.250000
9729		37.109375
9730		35.156250
9731		42.968750
9732		39.062500
9733		46.875000
9734		41.015625
9735		50.781250
9736		44.921875
9737		52.734375
9738		48.828125
9739		58.593750
9740		52.734375
9741		62.500000
9742		56.640625
9743		62.500000
9744		62.500000
9745		66.406250
9746		64.453125
9747		72.265625
9748		66.406250
9749		74.218750
9750		70.312500
9751		78.125000
9752		74.218750
9753		82.031250
9754		76.171875
9755		83.984375
9756		80.078125
9757		87.890625
9758		82.031250
9759		89.843750
9760		87.890625
9761		91.796875
9762		89.843750
9763		95.703125
9764		91.796875
9765		99.609375
9766		93.750000
9767		103.515625
9768		95.703125
9769		105.468750
9770		99.609375
9771		107.421875
9772		101.562500
9773		109.375000
9774		105.468750
9775		113.281250
9776		107.421875
9777		113.281250
9778		111.328125
9779		115.234375
9780		113.281250
9781		119.140625
9782		113.281250
9783		121.093750
9784		115.234375
9785		123.046875
9786		117.187500
9787		125.000000
9788		121.093750
9789		126.953125
9790		121.093750
9791		128.906250
9792		123.046875
9793		130.859375
9794		126.953125
9795		130.859375
9796		128.906250
9797		132.812500
9798		128.906250
9799		134.765625
9800		128.906250
9801		136.718750
9802		130.859375
9803		138.671875
9804		132.812500
9805		138.671875
9806		132.812500
9807		140.625000
9808		134.765625
9809		142.578125
9810		138.671875
9811		140.625000
9812		138.671875
9813		140.625000
9814		136.718750
9815		144.531250
9816		138.671875
9817		144.531250
9818		138.671875
9819		144.531250
9820		138.671875
9821		146.484375
9822		140.625000
9823		146.484375
9824		140.625000
9825		148.437500
9826		142.578125
9827		146.484375
9828		142.578125
9829		146.484375
9830		142.578125
9831		148.437500
9832		140.625000
9833		148.437500
9834		142.578125
9835		148.437500
9836		140.625000
9837		148.437500
9838		140.625000
9839		148.437500
9840		140.625000
9841		146.484375
9842		140.625000
9843		146.484375
9844		142.578125
9845		144.531250
9846		142.578125
9847		144.531250
9848		138.671875
9849		146.484375
9850		138.671875
9851		144.531250
9852		136.718750
9853		144.531250
9854		136.718750
9855		142.578125
9856		134.765625
9857		142.578125
9858		134.765625
9859		140.625000
9860		134.765625
9861		140.625000
9862		134.765625
9863		136.718750
9864		130.859375
9865		138.671875
9866		130.859375
9867		136.718750
9868		128.906250
9869		136.718750
9870		126.953125
9871		132.812500
9872		125.000000
9873		132.812500
9874		123.046875
9875		130.859375
9876		123.046875
9877		128.906250
9878		121.093750
9879		125.000000
9880		119.140625
9881		123.046875
9882		117.187500
9883		123.046875
9884		113.281250
9885		121.093750
9886		111.328125
9887		119.140625
9888		109.375000
9889		117.187500
9890		107.421875
9891		115.234375
9892		105.468750
9893		111.328125
9894		103.515625
9895		107.421875
9896		101.562500
9897		105.468750
9898		97.656250
9899		103.515625
9900		93.750000
9901		101.562500
9902		89.843750
9903		99.609375
9904		87.890625
9905		95.703125
9906		83.984375
9907		91.796875
9908		82.031250
9909		89.843750
9910		80.078125
9911		85.937500
9912		76.171875
9913		82.031250
9914		72.265625
9915		78.125000
9916		68.359375
9917		76.171875
9918		66.406250
9919		74.218750
9920		60.546875
9921		70.312500
9922		56.640625
9923		66.406250
9924		54.687500
9925		62.500000
9926		50.781250
9927		58.593750
9928		48.828125
9929		52.734375
9930		44.921875
9931		48.828125
9932		39.062500
9933		46.875000
9934		35.156250
9935		42.968750
9936		31.250000
9937		39.062500
9938		27.343750
9939		35.156250
9940		21.484375
9941		31.250000
9942		19.531250
9943		27.343750
9944		15.625000
9945		23.437500
9946		11.718750
9947		17.578125
9948		5.859375
9949		13.671875
9950		1.953125
9951		11.718750
9952		-1.953125
9953		7.812500
9954		-5.859375
9955		3.906250
9956		-9.765625
9957		-1.953125
9958		-13.671875
9959		-5.859375
9960		-15.625000
9961		-9.765625
9962		-21.484375
9963		-15.625000
9964		-25.390625
9965		-19.531250
9966		-31.250000
9967		-21.484375
9968		-35.156250
9969		-25.390625
9970		-39.062500
9971		-29.296875
9972		-42.968750
9973		-35.156250
9974		-48.828125
9975		-39.062500
9976		-52.734375
9977		-42.968750
9978		-54.687500
9979		-48.828125
9980		-58.593750
9981		-52.734375
9982		-64.453125
9983		-56.640625
9984		-68.359375
9985		-58.593750
9986		-72.265625
9987		-64.453125
9988		-76.171875
9989		-68.359375
9990		-78.125000
9991		-72.265625
9992		-82.031250
9993		-74.218750
9994		-85.937500
9995		-78.125000
9996		-89.843750
9997		-83.984375
9998		-93.750000
9999		-87.890625
10000		-97.656250
