Channel              :		CH1
Frequency            :		1.987kHz
Period               :		0.503ms
PK-PK                :		189.5mV
Probe attenuation    :		1X
Voltage per ADC value:		0.122070mV
Time interval        :		2.00000us

index		CH1_Voltage(mV)
1		64.453125
2		64.453125
3		70.312500
4		66.406250
5		76.171875
6		68.359375
7		78.125000
8		72.265625
9		80.078125
10		74.218750
11		82.031250
12		76.171875
13		83.984375
14		78.125000
15		85.937500
16		80.078125
17		85.937500
18		83.984375
19		87.890625
20		83.984375
21		91.796875
22		85.937500
23		91.796875
24		85.937500
25		93.750000
26		87.890625
27		93.750000
28		87.890625
29		95.703125
30		87.890625
31		95.703125
32		89.843750
33		95.703125
34		91.796875
35		93.750000
36		91.796875
37		95.703125
38		89.843750
39		95.703125
40		87.890625
41		95.703125
42		87.890625
43		95.703125
44		87.890625
45		93.750000
46		85.937500
47		93.750000
48		85.937500
49		91.796875
50		85.937500
51		89.843750
52		83.984375
53		87.890625
54		80.078125
55		87.890625
56		78.125000
57		85.937500
58		76.171875
59		83.984375
60		74.218750
61		82.031250
62		70.312500
63		80.078125
64		68.359375
65		78.125000
66		68.359375
67		74.218750
68		64.453125
69		68.359375
70		60.546875
71		66.406250
72		56.640625
73		64.453125
74		52.734375
75		62.500000
76		48.828125
77		58.593750
78		44.921875
79		54.687500
80		42.968750
81		50.781250
82		39.062500
83		46.875000
84		35.156250
85		41.015625
86		31.250000
87		37.109375
88		25.390625
89		35.156250
90		21.484375
91		31.250000
92		15.625000
93		25.390625
94		11.718750
95		21.484375
96		7.812500
97		17.578125
98		1.953125
99		13.671875
100		0.000000
101		7.812500
102		-3.906250
103		1.953125
104		-11.718750
105		-1.953125
106		-15.625000
107		-5.859375
108		-19.531250
109		-9.765625
110		-23.437500
111		-13.671875
112		-29.296875
113		-19.531250
114		-33.203125
115		-23.437500
116		-35.156250
117		-27.343750
118		-39.062500
119		-33.203125
120		-44.921875
121		-39.062500
122		-48.828125
123		-41.015625
124		-52.734375
125		-44.921875
126		-56.640625
127		-46.875000
128		-60.546875
129		-50.781250
130		-64.453125
131		-54.687500
132		-66.406250
133		-58.593750
134		-68.359375
135		-64.453125
136		-70.312500
137		-66.406250
138		-76.171875
139		-68.359375
140		-78.125000
141		-70.312500
142		-80.078125
143		-72.265625
144		-82.031250
145		-74.218750
146		-83.984375
147		-76.171875
148		-85.937500
149		-78.125000
150		-85.937500
151		-80.078125
152		-85.937500
153		-83.984375
154		-89.843750
155		-82.031250
156		-89.843750
157		-82.031250
158		-89.843750
159		-83.984375
160		-89.843750
161		-83.984375
162		-89.843750
163		-83.984375
164		-89.843750
165		-82.031250
166		-89.843750
167		-82.031250
168		-85.937500
169		-83.984375
170		-85.937500
171		-82.031250
172		-85.937500
173		-80.078125
174		-85.937500
175		-78.125000
176		-83.984375
177		-76.171875
178		-82.031250
179		-74.218750
180		-80.078125
181		-72.265625
182		-78.125000
183		-68.359375
184		-72.265625
185		-68.359375
186		-70.312500
187		-64.453125
188		-66.406250
189		-60.546875
190		-66.406250
191		-56.640625
192		-62.500000
193		-52.734375
194		-58.593750
195		-50.781250
196		-56.640625
197		-46.875000
198		-52.734375
199		-42.968750
200		-48.828125
201		-41.015625
202		-42.968750
203		-37.109375
204		-37.109375
205		-31.250000
206		-37.109375
207		-25.390625
208		-31.250000
209		-21.484375
210		-27.343750
211		-17.578125
212		-21.484375
213		-11.718750
214		-17.578125
215		-7.812500
216		-13.671875
217		-3.906250
218		-7.812500
219		-1.953125
220		-1.953125
221		3.906250
222		1.953125
223		9.765625
224		5.859375
225		13.671875
226		9.765625
227		19.531250
228		13.671875
229		23.437500
230		17.578125
231		27.343750
232		23.437500
233		33.203125
234		27.343750
235		35.156250
236		33.203125
237		39.062500
238		37.109375
239		44.921875
240		39.062500
241		48.828125
242		42.968750
243		52.734375
244		46.875000
245		56.640625
246		50.781250
247		58.593750
248		52.734375
249		62.500000
250		56.640625
251		64.453125
252		62.500000
253		66.406250
254		66.406250
255		70.312500
256		66.406250
257		74.218750
258		68.359375
259		78.125000
260		72.265625
261		80.078125
262		74.218750
263		82.031250
264		76.171875
265		83.984375
266		78.125000
267		85.937500
268		80.078125
269		85.937500
270		83.984375
271		87.890625
272		83.984375
273		91.796875
274		85.937500
275		93.750000
276		85.937500
277		93.750000
278		87.890625
279		93.750000
280		87.890625
281		95.703125
282		87.890625
283		95.703125
284		89.843750
285		95.703125
286		91.796875
287		93.750000
288		91.796875
289		93.750000
290		87.890625
291		95.703125
292		87.890625
293		95.703125
294		87.890625
295		93.750000
296		85.937500
297		93.750000
298		85.937500
299		93.750000
300		83.984375
301		91.796875
302		85.937500
303		89.843750
304		83.984375
305		87.890625
306		80.078125
307		87.890625
308		76.171875
309		85.937500
310		76.171875
311		83.984375
312		72.265625
313		80.078125
314		70.312500
315		78.125000
316		68.359375
317		76.171875
318		66.406250
319		72.265625
320		64.453125
321		68.359375
322		60.546875
323		64.453125
324		56.640625
325		64.453125
326		50.781250
327		60.546875
328		48.828125
329		56.640625
330		44.921875
331		52.734375
332		41.015625
333		48.828125
334		37.109375
335		44.921875
336		35.156250
337		39.062500
338		29.296875
339		35.156250
340		23.437500
341		33.203125
342		19.531250
343		29.296875
344		15.625000
345		25.390625
346		9.765625
347		21.484375
348		5.859375
349		15.625000
350		1.953125
351		11.718750
352		0.000000
353		7.812500
354		-5.859375
355		0.000000
356		-11.718750
357		-3.906250
358		-15.625000
359		-5.859375
360		-21.484375
361		-11.718750
362		-25.390625
363		-15.625000
364		-31.250000
365		-19.531250
366		-35.156250
367		-25.390625
368		-37.109375
369		-29.296875
370		-41.015625
371		-35.156250
372		-44.921875
373		-39.062500
374		-50.781250
375		-41.015625
376		-54.687500
377		-44.921875
378		-58.593750
379		-48.828125
380		-60.546875
381		-52.734375
382		-64.453125
383		-56.640625
384		-68.359375
385		-60.546875
386		-68.359375
387		-64.453125
388		-72.265625
389		-68.359375
390		-76.171875
391		-70.312500
392		-80.078125
393		-72.265625
394		-82.031250
395		-72.265625
396		-83.984375
397		-76.171875
398		-83.984375
399		-78.125000
400		-85.937500
401		-80.078125
402		-87.890625
403		-80.078125
404		-85.937500
405		-83.984375
406		-89.843750
407		-82.031250
408		-89.843750
409		-82.031250
410		-89.843750
411		-83.984375
412		-89.843750
413		-83.984375
414		-89.843750
415		-83.984375
416		-89.843750
417		-82.031250
418		-89.843750
419		-82.031250
420		-85.937500
421		-83.984375
422		-85.937500
423		-82.031250
424		-85.937500
425		-78.125000
426		-83.984375
427		-76.171875
428		-82.031250
429		-74.218750
430		-80.078125
431		-72.265625
432		-78.125000
433		-70.312500
434		-76.171875
435		-66.406250
436		-74.218750
437		-66.406250
438		-68.359375
439		-64.453125
440		-66.406250
441		-58.593750
442		-64.453125
443		-56.640625
444		-60.546875
445		-52.734375
446		-58.593750
447		-48.828125
448		-52.734375
449		-44.921875
450		-50.781250
451		-41.015625
452		-46.875000
453		-39.062500
454		-41.015625
455		-35.156250
456		-37.109375
457		-29.296875
458		-33.203125
459		-23.437500
460		-29.296875
461		-19.531250
462		-25.390625
463		-15.625000
464		-21.484375
465		-11.718750
466		-15.625000
467		-5.859375
468		-11.718750
469		-1.953125
470		-7.812500
471		0.000000
472		0.000000
473		5.859375
474		3.906250
475		11.718750
476		5.859375
477		15.625000
478		11.718750
479		21.484375
480		15.625000
481		25.390625
482		19.531250
483		29.296875
484		23.437500
485		33.203125
486		27.343750
487		35.156250
488		35.156250
489		39.062500
490		39.062500
491		46.875000
492		41.015625
493		50.781250
494		42.968750
495		54.687500
496		46.875000
497		56.640625
498		50.781250
499		60.546875
500		54.687500
501		62.500000
502		58.593750
503		66.406250
504		64.453125
505		68.359375
506		66.406250
507		70.312500
508		68.359375
509		76.171875
510		70.312500
511		78.125000
512		72.265625
513		82.031250
514		76.171875
515		83.984375
516		78.125000
517		85.937500
518		80.078125
519		87.890625
520		80.078125
521		87.890625
522		85.937500
523		89.843750
524		85.937500
525		91.796875
526		85.937500
527		93.750000
528		85.937500
529		93.750000
530		87.890625
531		95.703125
532		87.890625
533		95.703125
534		87.890625
535		95.703125
536		89.843750
537		95.703125
538		91.796875
539		93.750000
540		91.796875
541		93.750000
542		87.890625
543		95.703125
544		87.890625
545		95.703125
546		87.890625
547		95.703125
548		85.937500
549		93.750000
550		85.937500
551		93.750000
552		83.984375
553		91.796875
554		83.984375
555		89.843750
556		83.984375
557		85.937500
558		80.078125
559		85.937500
560		76.171875
561		85.937500
562		76.171875
563		83.984375
564		72.265625
565		80.078125
566		70.312500
567		78.125000
568		66.406250
569		76.171875
570		66.406250
571		72.265625
572		62.500000
573		68.359375
574		58.593750
575		64.453125
576		54.687500
577		64.453125
578		50.781250
579		60.546875
580		46.875000
581		56.640625
582		44.921875
583		52.734375
584		41.015625
585		48.828125
586		35.156250
587		44.921875
588		33.203125
589		39.062500
590		29.296875
591		35.156250
592		23.437500
593		31.250000
594		19.531250
595		29.296875
596		13.671875
597		23.437500
598		9.765625
599		19.531250
600		5.859375
601		15.625000
602		0.000000
603		9.765625
604		-1.953125
605		5.859375
606		-5.859375
607		0.000000
608		-13.671875
609		-5.859375
610		-17.578125
611		-7.812500
612		-21.484375
613		-11.718750
614		-27.343750
615		-15.625000
616		-31.250000
617		-21.484375
618		-35.156250
619		-25.390625
620		-37.109375
621		-29.296875
622		-41.015625
623		-35.156250
624		-44.921875
625		-39.062500
626		-50.781250
627		-42.968750
628		-54.687500
629		-46.875000
630		-58.593750
631		-48.828125
632		-62.500000
633		-52.734375
634		-66.406250
635		-56.640625
636		-68.359375
637		-60.546875
638		-70.312500
639		-62.500000
640		-72.265625
641		-68.359375
642		-76.171875
643		-70.312500
644		-78.125000
645		-70.312500
646		-82.031250
647		-72.265625
648		-83.984375
649		-76.171875
650		-85.937500
651		-78.125000
652		-85.937500
653		-78.125000
654		-87.890625
655		-80.078125
656		-85.937500
657		-83.984375
658		-87.890625
659		-83.984375
660		-89.843750
661		-83.984375
662		-89.843750
663		-82.031250
664		-89.843750
665		-82.031250
666		-89.843750
667		-82.031250
668		-89.843750
669		-82.031250
670		-89.843750
671		-82.031250
672		-85.937500
673		-82.031250
674		-83.984375
675		-82.031250
676		-85.937500
677		-78.125000
678		-83.984375
679		-76.171875
680		-82.031250
681		-74.218750
682		-80.078125
683		-72.265625
684		-78.125000
685		-70.312500
686		-74.218750
687		-66.406250
688		-72.265625
689		-66.406250
690		-68.359375
691		-62.500000
692		-64.453125
693		-58.593750
694		-62.500000
695		-54.687500
696		-60.546875
697		-50.781250
698		-56.640625
699		-46.875000
700		-54.687500
701		-42.968750
702		-48.828125
703		-41.015625
704		-44.921875
705		-37.109375
706		-39.062500
707		-33.203125
708		-35.156250
709		-29.296875
710		-33.203125
711		-21.484375
712		-29.296875
713		-19.531250
714		-23.437500
715		-13.671875
716		-19.531250
717		-9.765625
718		-15.625000
719		-3.906250
720		-9.765625
721		0.000000
722		-5.859375
723		1.953125
724		0.000000
725		5.859375
726		5.859375
727		13.671875
728		7.812500
729		17.578125
730		11.718750
731		21.484375
732		15.625000
733		25.390625
734		19.531250
735		31.250000
736		25.390625
737		35.156250
738		29.296875
739		37.109375
740		35.156250
741		41.015625
742		39.062500
743		46.875000
744		41.015625
745		50.781250
746		44.921875
747		54.687500
748		48.828125
749		58.593750
750		52.734375
751		62.500000
752		56.640625
753		64.453125
754		58.593750
755		66.406250
756		64.453125
757		68.359375
758		68.359375
759		72.265625
760		68.359375
761		76.171875
762		70.312500
763		80.078125
764		74.218750
765		82.031250
766		76.171875
767		83.984375
768		78.125000
769		85.937500
770		80.078125
771		87.890625
772		83.984375
773		87.890625
774		85.937500
775		89.843750
776		85.937500
777		91.796875
778		85.937500
779		93.750000
780		87.890625
781		95.703125
782		87.890625
783		95.703125
784		89.843750
785		95.703125
786		87.890625
787		95.703125
788		89.843750
789		95.703125
790		91.796875
791		93.750000
792		91.796875
793		93.750000
794		89.843750
795		95.703125
796		89.843750
797		95.703125
798		87.890625
799		95.703125
800		85.937500
801		93.750000
802		85.937500
803		93.750000
804		83.984375
805		91.796875
806		83.984375
807		91.796875
808		83.984375
809		85.937500
810		78.125000
811		85.937500
812		76.171875
813		85.937500
814		74.218750
815		83.984375
816		72.265625
817		80.078125
818		70.312500
819		78.125000
820		66.406250
821		76.171875
822		66.406250
823		72.265625
824		62.500000
825		68.359375
826		58.593750
827		64.453125
828		54.687500
829		62.500000
830		50.781250
831		60.546875
832		46.875000
833		56.640625
834		42.968750
835		52.734375
836		39.062500
837		48.828125
838		35.156250
839		44.921875
840		33.203125
841		39.062500
842		29.296875
843		33.203125
844		21.484375
845		31.250000
846		17.578125
847		27.343750
848		13.671875
849		23.437500
850		9.765625
851		19.531250
852		5.859375
853		13.671875
854		0.000000
855		9.765625
856		-1.953125
857		5.859375
858		-7.812500
859		-1.953125
860		-11.718750
861		-5.859375
862		-17.578125
863		-7.812500
864		-23.437500
865		-13.671875
866		-27.343750
867		-17.578125
868		-33.203125
869		-21.484375
870		-35.156250
871		-25.390625
872		-39.062500
873		-29.296875
874		-41.015625
875		-37.109375
876		-44.921875
877		-41.015625
878		-50.781250
879		-42.968750
880		-54.687500
881		-44.921875
882		-58.593750
883		-48.828125
884		-62.500000
885		-54.687500
886		-66.406250
887		-56.640625
888		-68.359375
889		-60.546875
890		-70.312500
891		-62.500000
892		-72.265625
893		-68.359375
894		-78.125000
895		-70.312500
896		-80.078125
897		-70.312500
898		-82.031250
899		-74.218750
900		-83.984375
901		-76.171875
902		-83.984375
903		-78.125000
904		-85.937500
905		-78.125000
906		-87.890625
907		-80.078125
908		-85.937500
909		-83.984375
910		-85.937500
911		-83.984375
912		-89.843750
913		-82.031250
914		-89.843750
915		-82.031250
916		-89.843750
917		-82.031250
918		-89.843750
919		-82.031250
920		-89.843750
921		-82.031250
922		-87.890625
923		-80.078125
924		-85.937500
925		-82.031250
926		-83.984375
927		-80.078125
928		-83.984375
929		-78.125000
930		-82.031250
931		-76.171875
932		-82.031250
933		-74.218750
934		-80.078125
935		-72.265625
936		-78.125000
937		-70.312500
938		-74.218750
939		-66.406250
940		-72.265625
941		-66.406250
942		-66.406250
943		-62.500000
944		-64.453125
945		-56.640625
946		-62.500000
947		-54.687500
948		-58.593750
949		-50.781250
950		-56.640625
951		-46.875000
952		-50.781250
953		-42.968750
954		-46.875000
955		-39.062500
956		-44.921875
957		-35.156250
958		-39.062500
959		-33.203125
960		-33.203125
961		-27.343750
962		-31.250000
963		-21.484375
964		-27.343750
965		-17.578125
966		-23.437500
967		-13.671875
968		-19.531250
969		-7.812500
970		-13.671875
971		-3.906250
972		-9.765625
973		0.000000
974		-3.906250
975		3.906250
976		1.953125
977		7.812500
978		5.859375
979		13.671875
980		7.812500
981		19.531250
982		13.671875
983		23.437500
984		17.578125
985		27.343750
986		21.484375
987		31.250000
988		25.390625
989		35.156250
990		29.296875
991		39.062500
992		37.109375
993		42.968750
994		41.015625
995		46.875000
996		41.015625
997		52.734375
998		44.921875
999		54.687500
1000		48.828125
1001		58.593750
1002		52.734375
1003		62.500000
1004		56.640625
1005		66.406250
1006		60.546875
1007		68.359375
1008		64.453125
1009		70.312500
1010		68.359375
1011		72.265625
1012		70.312500
1013		78.125000
1014		72.265625
1015		80.078125
1016		74.218750
1017		82.031250
1018		76.171875
1019		83.984375
1020		78.125000
1021		85.937500
1022		80.078125
1023		87.890625
1024		82.031250
1025		89.843750
1026		85.937500
1027		89.843750
1028		85.937500
1029		91.796875
1030		85.937500
1031		93.750000
1032		87.890625
1033		93.750000
1034		87.890625
1035		95.703125
1036		87.890625
1037		95.703125
1038		89.843750
1039		95.703125
1040		89.843750
1041		95.703125
1042		91.796875
1043		93.750000
1044		91.796875
1045		93.750000
1046		87.890625
1047		95.703125
1048		87.890625
1049		95.703125
1050		87.890625
1051		95.703125
1052		85.937500
1053		93.750000
1054		85.937500
1055		93.750000
1056		83.984375
1057		91.796875
1058		83.984375
1059		89.843750
1060		82.031250
1061		85.937500
1062		78.125000
1063		85.937500
1064		76.171875
1065		83.984375
1066		74.218750
1067		82.031250
1068		70.312500
1069		80.078125
1070		68.359375
1071		78.125000
1072		66.406250
1073		74.218750
1074		64.453125
1075		72.265625
1076		62.500000
1077		66.406250
1078		58.593750
1079		62.500000
1080		52.734375
1081		62.500000
1082		48.828125
1083		58.593750
1084		44.921875
1085		54.687500
1086		42.968750
1087		50.781250
1088		39.062500
1089		46.875000
1090		33.203125
1091		42.968750
1092		31.250000
1093		37.109375
1094		27.343750
1095		33.203125
1096		21.484375
1097		29.296875
1098		15.625000
1099		25.390625
1100		11.718750
1101		21.484375
1102		7.812500
1103		17.578125
1104		1.953125
1105		13.671875
1106		-1.953125
1107		7.812500
1108		-3.906250
1109		3.906250
1110		-7.812500
1111		-1.953125
1112		-15.625000
1113		-7.812500
1114		-19.531250
1115		-9.765625
1116		-25.390625
1117		-13.671875
1118		-29.296875
1119		-19.531250
1120		-31.250000
1121		-23.437500
1122		-37.109375
1123		-27.343750
1124		-41.015625
1125		-31.250000
1126		-42.968750
1127		-37.109375
1128		-46.875000
1129		-41.015625
1130		-52.734375
1131		-44.921875
1132		-56.640625
1133		-46.875000
1134		-60.546875
1135		-50.781250
1136		-64.453125
1137		-54.687500
1138		-66.406250
1139		-58.593750
1140		-70.312500
1141		-60.546875
1142		-70.312500
1143		-64.453125
1144		-74.218750
1145		-68.359375
1146		-78.125000
1147		-70.312500
1148		-80.078125
1149		-72.265625
1150		-82.031250
1151		-74.218750
1152		-83.984375
1153		-76.171875
1154		-85.937500
1155		-78.125000
1156		-87.890625
1157		-80.078125
1158		-87.890625
1159		-80.078125
1160		-87.890625
1161		-83.984375
1162		-87.890625
1163		-83.984375
1164		-89.843750
1165		-83.984375
1166		-89.843750
1167		-83.984375
1168		-89.843750
1169		-83.984375
1170		-89.843750
1171		-82.031250
1172		-89.843750
1173		-82.031250
1174		-87.890625
1175		-82.031250
1176		-85.937500
1177		-82.031250
1178		-83.984375
1179		-80.078125
1180		-83.984375
1181		-78.125000
1182		-83.984375
1183		-76.171875
1184		-82.031250
1185		-74.218750
1186		-80.078125
1187		-70.312500
1188		-76.171875
1189		-68.359375
1190		-74.218750
1191		-66.406250
1192		-72.265625
1193		-64.453125
1194		-66.406250
1195		-62.500000
1196		-62.500000
1197		-56.640625
1198		-62.500000
1199		-52.734375
1200		-58.593750
1201		-50.781250
1202		-54.687500
1203		-44.921875
1204		-50.781250
1205		-41.015625
1206		-46.875000
1207		-39.062500
1208		-42.968750
1209		-35.156250
1210		-37.109375
1211		-31.250000
1212		-33.203125
1213		-27.343750
1214		-29.296875
1215		-21.484375
1216		-27.343750
1217		-17.578125
1218		-21.484375
1219		-11.718750
1220		-17.578125
1221		-7.812500
1222		-13.671875
1223		-3.906250
1224		-7.812500
1225		1.953125
1226		-3.906250
1227		3.906250
1228		1.953125
1229		7.812500
1230		7.812500
1231		15.625000
1232		9.765625
1233		19.531250
1234		13.671875
1235		23.437500
1236		17.578125
1237		27.343750
1238		23.437500
1239		33.203125
1240		27.343750
1241		37.109375
1242		31.250000
1243		39.062500
1244		37.109375
1245		42.968750
1246		41.015625
1247		46.875000
1248		42.968750
1249		52.734375
1250		46.875000
1251		56.640625
1252		50.781250
1253		60.546875
1254		54.687500
1255		62.500000
1256		58.593750
1257		66.406250
1258		60.546875
1259		70.312500
1260		62.500000
1261		70.312500
1262		68.359375
1263		74.218750
1264		72.265625
1265		78.125000
1266		72.265625
1267		80.078125
1268		74.218750
1269		82.031250
1270		76.171875
1271		83.984375
1272		78.125000
1273		85.937500
1274		80.078125
1275		87.890625
1276		82.031250
1277		89.843750
1278		85.937500
1279		89.843750
1280		85.937500
1281		91.796875
1282		85.937500
1283		93.750000
1284		87.890625
1285		95.703125
1286		87.890625
1287		95.703125
1288		89.843750
1289		95.703125
1290		89.843750
1291		95.703125
1292		89.843750
1293		95.703125
1294		91.796875
1295		93.750000
1296		91.796875
1297		93.750000
1298		87.890625
1299		95.703125
1300		87.890625
1301		95.703125
1302		87.890625
1303		95.703125
1304		85.937500
1305		93.750000
1306		83.984375
1307		91.796875
1308		83.984375
1309		91.796875
1310		82.031250
1311		89.843750
1312		82.031250
1313		85.937500
1314		78.125000
1315		83.984375
1316		76.171875
1317		83.984375
1318		74.218750
1319		82.031250
1320		70.312500
1321		80.078125
1322		68.359375
1323		78.125000
1324		64.453125
1325		74.218750
1326		62.500000
1327		70.312500
1328		60.546875
1329		66.406250
1330		58.593750
1331		62.500000
1332		52.734375
1333		60.546875
1334		48.828125
1335		58.593750
1336		44.921875
1337		52.734375
1338		41.015625
1339		50.781250
1340		37.109375
1341		46.875000
1342		33.203125
1343		42.968750
1344		31.250000
1345		39.062500
1346		27.343750
1347		33.203125
1348		19.531250
1349		27.343750
1350		15.625000
1351		25.390625
1352		11.718750
1353		21.484375
1354		7.812500
1355		15.625000
1356		1.953125
1357		11.718750
1358		-1.953125
1359		7.812500
1360		-5.859375
1361		3.906250
1362		-9.765625
1363		-3.906250
1364		-15.625000
1365		-7.812500
1366		-21.484375
1367		-9.765625
1368		-25.390625
1369		-15.625000
1370		-29.296875
1371		-19.531250
1372		-33.203125
1373		-23.437500
1374		-37.109375
1375		-29.296875
1376		-41.015625
1377		-31.250000
1378		-44.921875
1379		-39.062500
1380		-46.875000
1381		-42.968750
1382		-52.734375
1383		-46.875000
1384		-58.593750
1385		-48.828125
1386		-60.546875
1387		-50.781250
1388		-64.453125
1389		-54.687500
1390		-68.359375
1391		-58.593750
1392		-70.312500
1393		-62.500000
1394		-70.312500
1395		-64.453125
1396		-74.218750
1397		-70.312500
1398		-78.125000
1399		-72.265625
1400		-80.078125
1401		-72.265625
1402		-82.031250
1403		-74.218750
1404		-83.984375
1405		-76.171875
1406		-85.937500
1407		-78.125000
1408		-87.890625
1409		-80.078125
1410		-87.890625
1411		-80.078125
1412		-85.937500
1413		-83.984375
1414		-87.890625
1415		-83.984375
1416		-89.843750
1417		-82.031250
1418		-89.843750
1419		-83.984375
1420		-89.843750
1421		-83.984375
1422		-89.843750
1423		-82.031250
1424		-89.843750
1425		-82.031250
1426		-87.890625
1427		-80.078125
1428		-87.890625
1429		-80.078125
1430		-83.984375
1431		-80.078125
1432		-83.984375
1433		-76.171875
1434		-82.031250
1435		-74.218750
1436		-80.078125
1437		-72.265625
1438		-78.125000
1439		-70.312500
1440		-76.171875
1441		-68.359375
1442		-74.218750
1443		-66.406250
1444		-70.312500
1445		-64.453125
1446		-66.406250
1447		-60.546875
1448		-62.500000
1449		-56.640625
1450		-62.500000
1451		-52.734375
1452		-58.593750
1453		-48.828125
1454		-54.687500
1455		-44.921875
1456		-50.781250
1457		-41.015625
1458		-46.875000
1459		-37.109375
1460		-42.968750
1461		-33.203125
1462		-37.109375
1463		-31.250000
1464		-31.250000
1465		-25.390625
1466		-27.343750
1467		-19.531250
1468		-25.390625
1469		-15.625000
1470		-21.484375
1471		-11.718750
1472		-17.578125
1473		-5.859375
1474		-11.718750
1475		-1.953125
1476		-7.812500
1477		1.953125
1478		-1.953125
1479		5.859375
1480		3.906250
1481		9.765625
1482		7.812500
1483		15.625000
1484		9.765625
1485		21.484375
1486		15.625000
1487		25.390625
1488		19.531250
1489		29.296875
1490		23.437500
1491		33.203125
1492		27.343750
1493		37.109375
1494		31.250000
1495		41.015625
1496		39.062500
1497		42.968750
1498		42.968750
1499		46.875000
1500		44.921875
1501		52.734375
1502		46.875000
1503		56.640625
1504		50.781250
1505		60.546875
1506		54.687500
1507		64.453125
1508		58.593750
1509		66.406250
1510		62.500000
1511		70.312500
1512		64.453125
1513		72.265625
1514		70.312500
1515		74.218750
1516		72.265625
1517		78.125000
1518		72.265625
1519		82.031250
1520		74.218750
1521		83.984375
1522		78.125000
1523		85.937500
1524		80.078125
1525		87.890625
1526		80.078125
1527		89.843750
1528		82.031250
1529		89.843750
1530		85.937500
1531		89.843750
1532		87.890625
1533		91.796875
1534		85.937500
1535		93.750000
1536		87.890625
1537		95.703125
1538		87.890625
1539		95.703125
1540		87.890625
1541		97.656250
1542		89.843750
1543		97.656250
1544		89.843750
1545		95.703125
1546		91.796875
1547		93.750000
1548		91.796875
1549		93.750000
1550		87.890625
1551		95.703125
1552		87.890625
1553		95.703125
1554		87.890625
1555		93.750000
1556		85.937500
1557		93.750000
1558		85.937500
1559		91.796875
1560		83.984375
1561		91.796875
1562		82.031250
1563		89.843750
1564		82.031250
1565		85.937500
1566		78.125000
1567		83.984375
1568		74.218750
1569		83.984375
1570		74.218750
1571		82.031250
1572		70.312500
1573		78.125000
1574		68.359375
1575		76.171875
1576		64.453125
1577		74.218750
1578		62.500000
1579		70.312500
1580		60.546875
1581		66.406250
1582		56.640625
1583		62.500000
1584		50.781250
1585		60.546875
1586		48.828125
1587		56.640625
1588		44.921875
1589		54.687500
1590		41.015625
1591		50.781250
1592		35.156250
1593		46.875000
1594		31.250000
1595		41.015625
1596		31.250000
1597		37.109375
1598		25.390625
1599		31.250000
1600		21.484375
1601		27.343750
1602		15.625000
1603		23.437500
1604		11.718750
1605		19.531250
1606		5.859375
1607		15.625000
1608		1.953125
1609		9.765625
1610		-1.953125
1611		5.859375
1612		-5.859375
1613		1.953125
1614		-9.765625
1615		-3.906250
1616		-15.625000
1617		-7.812500
1618		-21.484375
1619		-11.718750
1620		-25.390625
1621		-15.625000
1622		-29.296875
1623		-19.531250
1624		-35.156250
1625		-25.390625
1626		-39.062500
1627		-29.296875
1628		-42.968750
1629		-33.203125
1630		-44.921875
1631		-39.062500
1632		-48.828125
1633		-42.968750
1634		-54.687500
1635		-46.875000
1636		-58.593750
1637		-48.828125
1638		-60.546875
1639		-52.734375
1640		-66.406250
1641		-56.640625
1642		-68.359375
1643		-60.546875
1644		-70.312500
1645		-62.500000
1646		-72.265625
1647		-64.453125
1648		-74.218750
1649		-70.312500
1650		-78.125000
1651		-72.265625
1652		-80.078125
1653		-72.265625
1654		-82.031250
1655		-74.218750
1656		-83.984375
1657		-76.171875
1658		-85.937500
1659		-78.125000
1660		-87.890625
1661		-80.078125
1662		-87.890625
1663		-80.078125
1664		-85.937500
1665		-83.984375
1666		-85.937500
1667		-83.984375
1668		-89.843750
1669		-82.031250
1670		-89.843750
1671		-82.031250
1672		-89.843750
1673		-82.031250
1674		-89.843750
1675		-82.031250
1676		-89.843750
1677		-82.031250
1678		-87.890625
1679		-80.078125
1680		-85.937500
1681		-80.078125
1682		-82.031250
1683		-80.078125
1684		-82.031250
1685		-76.171875
1686		-82.031250
1687		-74.218750
1688		-80.078125
1689		-72.265625
1690		-78.125000
1691		-68.359375
1692		-76.171875
1693		-66.406250
1694		-72.265625
1695		-64.453125
1696		-68.359375
1697		-62.500000
1698		-64.453125
1699		-60.546875
1700		-62.500000
1701		-56.640625
1702		-58.593750
1703		-50.781250
1704		-56.640625
1705		-46.875000
1706		-52.734375
1707		-42.968750
1708		-48.828125
1709		-39.062500
1710		-44.921875
1711		-35.156250
1712		-41.015625
1713		-31.250000
1714		-37.109375
1715		-29.296875
1716		-31.250000
1717		-25.390625
1718		-25.390625
1719		-19.531250
1720		-23.437500
1721		-13.671875
1722		-17.578125
1723		-9.765625
1724		-15.625000
1725		-3.906250
1726		-11.718750
1727		0.000000
1728		-5.859375
1729		3.906250
1730		0.000000
1731		7.812500
1732		5.859375
1733		11.718750
1734		9.765625
1735		15.625000
1736		11.718750
1737		21.484375
1738		15.625000
1739		25.390625
1740		19.531250
1741		31.250000
1742		25.390625
1743		35.156250
1744		29.296875
1745		39.062500
1746		33.203125
1747		42.968750
1748		41.015625
1749		44.921875
1750		42.968750
1751		48.828125
1752		46.875000
1753		54.687500
1754		48.828125
1755		58.593750
1756		52.734375
1757		62.500000
1758		54.687500
1759		64.453125
1760		58.593750
1761		68.359375
1762		64.453125
1763		72.265625
1764		66.406250
1765		72.265625
1766		70.312500
1767		74.218750
1768		72.265625
1769		78.125000
1770		74.218750
1771		82.031250
1772		76.171875
1773		83.984375
1774		78.125000
1775		85.937500
1776		80.078125
1777		87.890625
1778		82.031250
1779		89.843750
1780		83.984375
1781		91.796875
1782		87.890625
1783		89.843750
1784		89.843750
1785		91.796875
1786		87.890625
1787		95.703125
1788		87.890625
1789		95.703125
1790		89.843750
1791		95.703125
1792		89.843750
1793		97.656250
1794		89.843750
1795		97.656250
1796		89.843750
1797		97.656250
1798		91.796875
1799		95.703125
1800		91.796875
1801		93.750000
1802		89.843750
1803		95.703125
1804		87.890625
1805		95.703125
1806		85.937500
1807		93.750000
1808		85.937500
1809		93.750000
1810		85.937500
1811		91.796875
1812		83.984375
1813		91.796875
1814		82.031250
1815		89.843750
1816		82.031250
1817		85.937500
1818		80.078125
1819		83.984375
1820		76.171875
1821		83.984375
1822		72.265625
1823		82.031250
1824		70.312500
1825		80.078125
1826		68.359375
1827		76.171875
1828		64.453125
1829		72.265625
1830		62.500000
1831		70.312500
1832		60.546875
1833		66.406250
1834		56.640625
1835		62.500000
1836		50.781250
1837		58.593750
1838		46.875000
1839		56.640625
1840		44.921875
1841		52.734375
1842		41.015625
1843		48.828125
1844		35.156250
1845		44.921875
1846		31.250000
1847		41.015625
1848		29.296875
1849		37.109375
1850		25.390625
1851		31.250000
1852		19.531250
1853		27.343750
1854		13.671875
1855		25.390625
1856		9.765625
1857		19.531250
1858		5.859375
1859		15.625000
1860		1.953125
1861		11.718750
1862		-1.953125
1863		7.812500
1864		-7.812500
1865		1.953125
1866		-9.765625
1867		-3.906250
1868		-15.625000
1869		-9.765625
1870		-21.484375
1871		-11.718750
1872		-25.390625
1873		-15.625000
1874		-29.296875
1875		-19.531250
1876		-33.203125
1877		-25.390625
1878		-39.062500
1879		-29.296875
1880		-42.968750
1881		-33.203125
1882		-44.921875
1883		-37.109375
1884		-48.828125
1885		-42.968750
1886		-54.687500
1887		-46.875000
1888		-56.640625
1889		-48.828125
1890		-62.500000
1891		-52.734375
1892		-64.453125
1893		-56.640625
1894		-68.359375
1895		-58.593750
1896		-70.312500
1897		-62.500000
1898		-72.265625
1899		-64.453125
1900		-74.218750
1901		-70.312500
1902		-78.125000
1903		-72.265625
1904		-82.031250
1905		-72.265625
1906		-82.031250
1907		-74.218750
1908		-83.984375
1909		-76.171875
1910		-85.937500
1911		-78.125000
1912		-85.937500
1913		-78.125000
1914		-87.890625
1915		-80.078125
1916		-85.937500
1917		-83.984375
1918		-85.937500
1919		-83.984375
1920		-89.843750
1921		-82.031250
1922		-89.843750
1923		-82.031250
1924		-87.890625
1925		-82.031250
1926		-87.890625
1927		-82.031250
1928		-87.890625
1929		-80.078125
1930		-85.937500
1931		-80.078125
1932		-85.937500
1933		-78.125000
1934		-82.031250
1935		-78.125000
1936		-82.031250
1937		-74.218750
1938		-82.031250
1939		-72.265625
1940		-78.125000
1941		-70.312500
1942		-76.171875
1943		-68.359375
1944		-74.218750
1945		-66.406250
1946		-70.312500
1947		-62.500000
1948		-68.359375
1949		-60.546875
1950		-62.500000
1951		-58.593750
1952		-60.546875
1953		-54.687500
1954		-58.593750
1955		-50.781250
1956		-54.687500
1957		-46.875000
1958		-50.781250
1959		-41.015625
1960		-48.828125
1961		-37.109375
1962		-42.968750
1963		-35.156250
1964		-39.062500
1965		-29.296875
1966		-35.156250
1967		-27.343750
1968		-29.296875
1969		-23.437500
1970		-25.390625
1971		-17.578125
1972		-21.484375
1973		-11.718750
1974		-17.578125
1975		-7.812500
1976		-13.671875
1977		-3.906250
1978		-9.765625
1979		0.000000
1980		-3.906250
1981		5.859375
1982		0.000000
1983		7.812500
1984		5.859375
1985		11.718750
1986		11.718750
1987		17.578125
1988		13.671875
1989		23.437500
1990		17.578125
1991		27.343750
1992		21.484375
1993		31.250000
1994		27.343750
1995		35.156250
1996		31.250000
1997		39.062500
1998		35.156250
1999		44.921875
2000		41.015625
2001		46.875000
2002		44.921875
2003		50.781250
2004		48.828125
2005		56.640625
2006		50.781250
2007		60.546875
2008		54.687500
2009		62.500000
2010		56.640625
2011		66.406250
2012		60.546875
2013		70.312500
2014		64.453125
2015		72.265625
2016		66.406250
2017		72.265625
2018		72.265625
2019		76.171875
2020		74.218750
2021		80.078125
2022		74.218750
2023		83.984375
2024		76.171875
2025		85.937500
2026		80.078125
2027		85.937500
2028		82.031250
2029		89.843750
2030		83.984375
2031		91.796875
2032		83.984375
2033		91.796875
2034		87.890625
2035		91.796875
2036		89.843750
2037		91.796875
2038		87.890625
2039		95.703125
2040		89.843750
2041		95.703125
2042		89.843750
2043		95.703125
2044		89.843750
2045		97.656250
2046		89.843750
2047		97.656250
2048		89.843750
2049		97.656250
2050		89.843750
2051		95.703125
2052		91.796875
2053		93.750000
2054		89.843750
2055		95.703125
2056		87.890625
2057		95.703125
2058		87.890625
2059		95.703125
2060		85.937500
2061		93.750000
2062		83.984375
2063		91.796875
2064		83.984375
2065		91.796875
2066		82.031250
2067		89.843750
2068		82.031250
2069		85.937500
2070		78.125000
2071		83.984375
2072		76.171875
2073		83.984375
2074		72.265625
2075		80.078125
2076		70.312500
2077		78.125000
2078		68.359375
2079		76.171875
2080		64.453125
2081		72.265625
2082		60.546875
2083		70.312500
2084		60.546875
2085		64.453125
2086		56.640625
2087		60.546875
2088		50.781250
2089		58.593750
2090		46.875000
2091		56.640625
2092		42.968750
2093		52.734375
2094		39.062500
2095		48.828125
2096		35.156250
2097		44.921875
2098		31.250000
2099		41.015625
2100		29.296875
2101		37.109375
2102		25.390625
2103		31.250000
2104		17.578125
2105		25.390625
2106		11.718750
2107		23.437500
2108		9.765625
2109		19.531250
2110		3.906250
2111		13.671875
2112		0.000000
2113		9.765625
2114		-5.859375
2115		5.859375
2116		-7.812500
2117		1.953125
2118		-11.718750
2119		-5.859375
2120		-15.625000
2121		-9.765625
2122		-23.437500
2123		-13.671875
2124		-27.343750
2125		-17.578125
2126		-31.250000
2127		-21.484375
2128		-37.109375
2129		-25.390625
2130		-39.062500
2131		-29.296875
2132		-42.968750
2133		-33.203125
2134		-44.921875
2135		-37.109375
2136		-48.828125
2137		-42.968750
2138		-54.687500
2139		-48.828125
2140		-58.593750
2141		-50.781250
2142		-62.500000
2143		-52.734375
2144		-64.453125
2145		-56.640625
2146		-68.359375
2147		-60.546875
2148		-72.265625
2149		-62.500000
2150		-74.218750
2151		-66.406250
2152		-74.218750
2153		-70.312500
2154		-76.171875
2155		-72.265625
2156		-80.078125
2157		-72.265625
2158		-82.031250
2159		-74.218750
2160		-83.984375
2161		-76.171875
2162		-85.937500
2163		-78.125000
2164		-85.937500
2165		-80.078125
2166		-87.890625
2167		-80.078125
2168		-85.937500
2169		-83.984375
2170		-85.937500
2171		-83.984375
2172		-87.890625
2173		-82.031250
2174		-87.890625
2175		-82.031250
2176		-87.890625
2177		-82.031250
2178		-87.890625
2179		-80.078125
2180		-87.890625
2181		-80.078125
2182		-85.937500
2183		-78.125000
2184		-83.984375
2185		-78.125000
2186		-82.031250
2187		-78.125000
2188		-80.078125
2189		-74.218750
2190		-80.078125
2191		-72.265625
2192		-78.125000
2193		-70.312500
2194		-76.171875
2195		-66.406250
2196		-74.218750
2197		-64.453125
2198		-70.312500
2199		-62.500000
2200		-66.406250
2201		-58.593750
2202		-62.500000
2203		-56.640625
2204		-58.593750
2205		-54.687500
2206		-56.640625
2207		-48.828125
2208		-52.734375
2209		-44.921875
2210		-48.828125
2211		-41.015625
2212		-46.875000
2213		-37.109375
2214		-41.015625
2215		-33.203125
2216		-37.109375
2217		-29.296875
2218		-33.203125
2219		-25.390625
2220		-27.343750
2221		-21.484375
2222		-23.437500
2223		-15.625000
2224		-21.484375
2225		-11.718750
2226		-15.625000
2227		-5.859375
2228		-11.718750
2229		-1.953125
2230		-7.812500
2231		1.953125
2232		-1.953125
2233		5.859375
2234		1.953125
2235		9.765625
2236		7.812500
2237		13.671875
2238		11.718750
2239		17.578125
2240		15.625000
2241		25.390625
2242		19.531250
2243		29.296875
2244		25.390625
2245		31.250000
2246		29.296875
2247		37.109375
2248		33.203125
2249		41.015625
2250		37.109375
2251		44.921875
2252		42.968750
2253		46.875000
2254		46.875000
2255		50.781250
2256		48.828125
2257		56.640625
2258		50.781250
2259		60.546875
2260		54.687500
2261		64.453125
2262		60.546875
2263		66.406250
2264		62.500000
2265		70.312500
2266		66.406250
2267		72.265625
2268		70.312500
2269		74.218750
2270		72.265625
2271		76.171875
2272		76.171875
2273		80.078125
2274		76.171875
2275		83.984375
2276		78.125000
2277		83.984375
2278		82.031250
2279		85.937500
2280		82.031250
2281		89.843750
2282		85.937500
2283		91.796875
2284		87.890625
2285		91.796875
2286		87.890625
2287		91.796875
2288		89.843750
2289		93.750000
2290		89.843750
2291		95.703125
2292		89.843750
2293		95.703125
2294		91.796875
2295		95.703125
2296		91.796875
2297		97.656250
2298		91.796875
2299		95.703125
2300		91.796875
2301		97.656250
2302		91.796875
2303		95.703125
2304		91.796875
2305		95.703125
2306		89.843750
2307		95.703125
2308		89.843750
2309		95.703125
2310		89.843750
2311		93.750000
2312		87.890625
2313		91.796875
2314		85.937500
2315		89.843750
2316		83.984375
2317		89.843750
2318		83.984375
2319		87.890625
2320		82.031250
2321		85.937500
2322		80.078125
2323		83.984375
2324		76.171875
2325		83.984375
2326		74.218750
2327		80.078125
2328		72.265625
2329		76.171875
2330		68.359375
2331		74.218750
2332		66.406250
2333		70.312500
2334		62.500000
2335		68.359375
2336		58.593750
2337		64.453125
2338		56.640625
2339		60.546875
2340		52.734375
2341		56.640625
2342		48.828125
2343		54.687500
2344		44.921875
2345		50.781250
2346		41.015625
2347		46.875000
2348		37.109375
2349		42.968750
2350		33.203125
2351		39.062500
2352		29.296875
2353		33.203125
2354		25.390625
2355		29.296875
2356		19.531250
2357		25.390625
2358		13.671875
2359		21.484375
2360		11.718750
2361		17.578125
2362		5.859375
2363		13.671875
2364		1.953125
2365		7.812500
2366		-1.953125
2367		3.906250
2368		-7.812500
2369		-1.953125
2370		-11.718750
2371		-5.859375
2372		-15.625000
2373		-9.765625
2374		-21.484375
2375		-15.625000
2376		-25.390625
2377		-19.531250
2378		-29.296875
2379		-23.437500
2380		-35.156250
2381		-27.343750
2382		-37.109375
2383		-31.250000
2384		-42.968750
2385		-35.156250
2386		-46.875000
2387		-41.015625
2388		-48.828125
2389		-44.921875
2390		-54.687500
2391		-48.828125
2392		-56.640625
2393		-52.734375
2394		-60.546875
2395		-54.687500
2396		-62.500000
2397		-58.593750
2398		-66.406250
2399		-60.546875
2400		-68.359375
2401		-64.453125
2402		-72.265625
2403		-66.406250
2404		-74.218750
2405		-70.312500
2406		-76.171875
2407		-72.265625
2408		-78.125000
2409		-74.218750
2410		-80.078125
2411		-76.171875
2412		-82.031250
2413		-78.125000
2414		-83.984375
2415		-80.078125
2416		-83.984375
2417		-80.078125
2418		-85.937500
2419		-82.031250
2420		-85.937500
2421		-82.031250
2422		-85.937500
2423		-83.984375
2424		-85.937500
2425		-82.031250
2426		-85.937500
2427		-83.984375
2428		-85.937500
2429		-82.031250
2430		-85.937500
2431		-82.031250
2432		-83.984375
2433		-82.031250
2434		-83.984375
2435		-80.078125
2436		-82.031250
2437		-78.125000
2438		-80.078125
2439		-78.125000
2440		-78.125000
2441		-76.171875
2442		-78.125000
2443		-74.218750
2444		-74.218750
2445		-70.312500
2446		-72.265625
2447		-68.359375
2448		-70.312500
2449		-66.406250
2450		-68.359375
2451		-62.500000
2452		-64.453125
2453		-58.593750
2454		-60.546875
2455		-56.640625
2456		-56.640625
2457		-52.734375
2458		-54.687500
2459		-48.828125
2460		-50.781250
2461		-44.921875
2462		-46.875000
2463		-41.015625
2464		-42.968750
2465		-37.109375
2466		-39.062500
2467		-33.203125
2468		-35.156250
2469		-29.296875
2470		-31.250000
2471		-25.390625
2472		-25.390625
2473		-19.531250
2474		-21.484375
2475		-15.625000
2476		-17.578125
2477		-11.718750
2478		-13.671875
2479		-7.812500
2480		-7.812500
2481		-1.953125
2482		-3.906250
2483		1.953125
2484		0.000000
2485		5.859375
2486		5.859375
2487		11.718750
2488		9.765625
2489		15.625000
2490		13.671875
2491		19.531250
2492		19.531250
2493		23.437500
2494		23.437500
2495		29.296875
2496		27.343750
2497		33.203125
2498		31.250000
2499		37.109375
2500		35.156250
2501		41.015625
2502		39.062500
2503		44.921875
2504		42.968750
2505		48.828125
2506		46.875000
2507		52.734375
2508		50.781250
2509		56.640625
2510		54.687500
2511		60.546875
2512		58.593750
2513		62.500000
2514		60.546875
2515		66.406250
2516		64.453125
2517		70.312500
2518		68.359375
2519		72.265625
2520		70.312500
2521		74.218750
2522		74.218750
2523		78.125000
2524		76.171875
2525		80.078125
2526		78.125000
2527		82.031250
2528		80.078125
2529		83.984375
2530		82.031250
2531		85.937500
2532		83.984375
2533		87.890625
2534		85.937500
2535		89.843750
2536		87.890625
2537		91.796875
2538		89.843750
2539		91.796875
2540		89.843750
2541		93.750000
2542		89.843750
2543		95.703125
2544		91.796875
2545		95.703125
2546		91.796875
2547		95.703125
2548		93.750000
2549		95.703125
2550		91.796875
2551		95.703125
2552		93.750000
2553		95.703125
2554		91.796875
2555		95.703125
2556		91.796875
2557		95.703125
2558		91.796875
2559		95.703125
2560		89.843750
2561		93.750000
2562		89.843750
2563		93.750000
2564		87.890625
2565		91.796875
2566		87.890625
2567		91.796875
2568		85.937500
2569		89.843750
2570		82.031250
2571		87.890625
2572		82.031250
2573		83.984375
2574		78.125000
2575		82.031250
2576		76.171875
2577		82.031250
2578		74.218750
2579		78.125000
2580		72.265625
2581		76.171875
2582		68.359375
2583		72.265625
2584		66.406250
2585		70.312500
2586		62.500000
2587		68.359375
2588		58.593750
2589		64.453125
2590		54.687500
2591		60.546875
2592		50.781250
2593		56.640625
2594		46.875000
2595		52.734375
2596		44.921875
2597		48.828125
2598		41.015625
2599		44.921875
2600		35.156250
2601		41.015625
2602		31.250000
2603		37.109375
2604		27.343750
2605		33.203125
2606		23.437500
2607		29.296875
2608		17.578125
2609		25.390625
2610		13.671875
2611		21.484375
2612		9.765625
2613		15.625000
2614		3.906250
2615		11.718750
2616		0.000000
2617		5.859375
2618		-3.906250
2619		1.953125
2620		-9.765625
2621		-1.953125
2622		-11.718750
2623		-5.859375
2624		-17.578125
2625		-11.718750
2626		-21.484375
2627		-15.625000
2628		-25.390625
2629		-19.531250
2630		-31.250000
2631		-25.390625
2632		-35.156250
2633		-29.296875
2634		-39.062500
2635		-33.203125
2636		-42.968750
2637		-37.109375
2638		-46.875000
2639		-41.015625
2640		-50.781250
2641		-44.921875
2642		-54.687500
2643		-48.828125
2644		-58.593750
2645		-52.734375
2646		-62.500000
2647		-56.640625
2648		-64.453125
2649		-58.593750
2650		-66.406250
2651		-62.500000
2652		-70.312500
2653		-64.453125
2654		-72.265625
2655		-68.359375
2656		-74.218750
2657		-70.312500
2658		-78.125000
2659		-74.218750
2660		-78.125000
2661		-74.218750
2662		-80.078125
2663		-76.171875
2664		-82.031250
2665		-78.125000
2666		-83.984375
2667		-80.078125
2668		-83.984375
2669		-80.078125
2670		-85.937500
2671		-82.031250
2672		-85.937500
2673		-82.031250
2674		-85.937500
2675		-83.984375
2676		-87.890625
2677		-83.984375
2678		-85.937500
2679		-82.031250
2680		-85.937500
2681		-82.031250
2682		-85.937500
2683		-82.031250
2684		-83.984375
2685		-82.031250
2686		-83.984375
2687		-80.078125
2688		-82.031250
2689		-78.125000
2690		-80.078125
2691		-78.125000
2692		-78.125000
2693		-74.218750
2694		-76.171875
2695		-72.265625
2696		-74.218750
2697		-70.312500
2698		-72.265625
2699		-68.359375
2700		-70.312500
2701		-64.453125
2702		-66.406250
2703		-62.500000
2704		-64.453125
2705		-58.593750
2706		-60.546875
2707		-56.640625
2708		-56.640625
2709		-52.734375
2710		-54.687500
2711		-48.828125
2712		-50.781250
2713		-44.921875
2714		-46.875000
2715		-41.015625
2716		-42.968750
2717		-37.109375
2718		-39.062500
2719		-31.250000
2720		-33.203125
2721		-29.296875
2722		-29.296875
2723		-23.437500
2724		-25.390625
2725		-19.531250
2726		-21.484375
2727		-15.625000
2728		-17.578125
2729		-9.765625
2730		-11.718750
2731		-5.859375
2732		-7.812500
2733		-1.953125
2734		-3.906250
2735		3.906250
2736		1.953125
2737		7.812500
2738		5.859375
2739		11.718750
2740		9.765625
2741		15.625000
2742		15.625000
2743		21.484375
2744		17.578125
2745		25.390625
2746		23.437500
2747		29.296875
2748		27.343750
2749		33.203125
2750		31.250000
2751		39.062500
2752		35.156250
2753		41.015625
2754		41.015625
2755		46.875000
2756		42.968750
2757		48.828125
2758		48.828125
2759		52.734375
2760		52.734375
2761		56.640625
2762		54.687500
2763		60.546875
2764		58.593750
2765		64.453125
2766		62.500000
2767		68.359375
2768		64.453125
2769		70.312500
2770		68.359375
2771		72.265625
2772		70.312500
2773		76.171875
2774		74.218750
2775		78.125000
2776		76.171875
2777		80.078125
2778		78.125000
2779		82.031250
2780		80.078125
2781		85.937500
2782		82.031250
2783		87.890625
2784		83.984375
2785		89.843750
2786		85.937500
2787		89.843750
2788		87.890625
2789		91.796875
2790		89.843750
2791		91.796875
2792		89.843750
2793		93.750000
2794		89.843750
2795		93.750000
2796		91.796875
2797		95.703125
2798		91.796875
2799		95.703125
2800		91.796875
2801		95.703125
2802		93.750000
2803		95.703125
2804		91.796875
2805		95.703125
2806		91.796875
2807		95.703125
2808		91.796875
2809		95.703125
2810		89.843750
2811		93.750000
2812		89.843750
2813		93.750000
2814		87.890625
2815		91.796875
2816		87.890625
2817		91.796875
2818		85.937500
2819		89.843750
2820		83.984375
2821		87.890625
2822		82.031250
2823		85.937500
2824		80.078125
2825		83.984375
2826		78.125000
2827		82.031250
2828		76.171875
2829		80.078125
2830		72.265625
2831		78.125000
2832		70.312500
2833		76.171875
2834		68.359375
2835		72.265625
2836		64.453125
2837		70.312500
2838		60.546875
2839		66.406250
2840		58.593750
2841		62.500000
2842		54.687500
2843		58.593750
2844		50.781250
2845		56.640625
2846		46.875000
2847		52.734375
2848		42.968750
2849		48.828125
2850		39.062500
2851		44.921875
2852		35.156250
2853		41.015625
2854		29.296875
2855		37.109375
2856		25.390625
2857		31.250000
2858		21.484375
2859		27.343750
2860		17.578125
2861		23.437500
2862		13.671875
2863		19.531250
2864		7.812500
2865		15.625000
2866		3.906250
2867		9.765625
2868		0.000000
2869		5.859375
2870		-5.859375
2871		0.000000
2872		-9.765625
2873		-3.906250
2874		-13.671875
2875		-7.812500
2876		-19.531250
2877		-13.671875
2878		-23.437500
2879		-17.578125
2880		-27.343750
2881		-21.484375
2882		-31.250000
2883		-25.390625
2884		-35.156250
2885		-29.296875
2886		-41.015625
2887		-35.156250
2888		-44.921875
2889		-39.062500
2890		-46.875000
2891		-42.968750
2892		-50.781250
2893		-46.875000
2894		-54.687500
2895		-50.781250
2896		-58.593750
2897		-52.734375
2898		-62.500000
2899		-56.640625
2900		-64.453125
2901		-60.546875
2902		-68.359375
2903		-62.500000
2904		-70.312500
2905		-66.406250
2906		-74.218750
2907		-68.359375
2908		-76.171875
2909		-72.265625
2910		-78.125000
2911		-74.218750
2912		-80.078125
2913		-76.171875
2914		-80.078125
2915		-78.125000
2916		-82.031250
2917		-78.125000
2918		-83.984375
2919		-80.078125
2920		-83.984375
2921		-82.031250
2922		-85.937500
2923		-82.031250
2924		-85.937500
2925		-82.031250
2926		-85.937500
2927		-83.984375
2928		-85.937500
2929		-83.984375
2930		-85.937500
2931		-82.031250
2932		-85.937500
2933		-82.031250
2934		-83.984375
2935		-82.031250
2936		-83.984375
2937		-80.078125
2938		-82.031250
2939		-78.125000
2940		-82.031250
2941		-78.125000
2942		-80.078125
2943		-76.171875
2944		-78.125000
2945		-72.265625
2946		-78.125000
2947		-72.265625
2948		-74.218750
2949		-70.312500
2950		-70.312500
2951		-66.406250
2952		-70.312500
2953		-64.453125
2954		-66.406250
2955		-60.546875
2956		-62.500000
2957		-56.640625
2958		-60.546875
2959		-54.687500
2960		-56.640625
2961		-50.781250
2962		-52.734375
2963		-46.875000
2964		-48.828125
2965		-42.968750
2966		-44.921875
2967		-39.062500
2968		-41.015625
2969		-35.156250
2970		-37.109375
2971		-31.250000
2972		-33.203125
2973		-27.343750
2974		-29.296875
2975		-23.437500
2976		-23.437500
2977		-19.531250
2978		-19.531250
2979		-11.718750
2980		-15.625000
2981		-9.765625
2982		-11.718750
2983		-5.859375
2984		-7.812500
2985		0.000000
2986		-1.953125
2987		3.906250
2988		1.953125
2989		7.812500
2990		7.812500
2991		13.671875
2992		11.718750
2993		17.578125
2994		15.625000
2995		21.484375
2996		19.531250
2997		25.390625
2998		25.390625
2999		31.250000
3000		29.296875
3001		35.156250
3002		31.250000
3003		39.062500
3004		37.109375
3005		42.968750
3006		41.015625
3007		46.875000
3008		44.921875
3009		50.781250
3010		48.828125
3011		54.687500
3012		52.734375
3013		58.593750
3014		56.640625
3015		60.546875
3016		58.593750
3017		64.453125
3018		62.500000
3019		68.359375
3020		66.406250
3021		70.312500
3022		68.359375
3023		74.218750
3024		72.265625
3025		76.171875
3026		74.218750
3027		78.125000
3028		78.125000
3029		80.078125
3030		78.125000
3031		83.984375
3032		82.031250
3033		85.937500
3034		83.984375
3035		87.890625
3036		85.937500
3037		87.890625
3038		87.890625
3039		91.796875
3040		87.890625
3041		91.796875
3042		87.890625
3043		91.796875
3044		91.796875
3045		93.750000
3046		91.796875
3047		95.703125
3048		91.796875
3049		95.703125
3050		91.796875
3051		95.703125
3052		93.750000
3053		95.703125
3054		93.750000
3055		95.703125
3056		91.796875
3057		95.703125
3058		91.796875
3059		95.703125
3060		91.796875
3061		93.750000
3062		89.843750
3063		93.750000
3064		89.843750
3065		93.750000
3066		87.890625
3067		91.796875
3068		87.890625
3069		91.796875
3070		85.937500
3071		89.843750
3072		83.984375
3073		87.890625
3074		82.031250
3075		85.937500
3076		80.078125
3077		83.984375
3078		78.125000
3079		82.031250
3080		74.218750
3081		80.078125
3082		72.265625
3083		76.171875
3084		68.359375
3085		76.171875
3086		66.406250
3087		72.265625
3088		64.453125
3089		68.359375
3090		60.546875
3091		64.453125
3092		56.640625
3093		62.500000
3094		52.734375
3095		58.593750
3096		48.828125
3097		54.687500
3098		44.921875
3099		50.781250
3100		41.015625
3101		46.875000
3102		37.109375
3103		42.968750
3104		33.203125
3105		41.015625
3106		29.296875
3107		35.156250
3108		25.390625
3109		31.250000
3110		21.484375
3111		27.343750
3112		15.625000
3113		21.484375
3114		11.718750
3115		17.578125
3116		7.812500
3117		13.671875
3118		3.906250
3119		7.812500
3120		-1.953125
3121		3.906250
3122		-5.859375
3123		0.000000
3124		-9.765625
3125		-3.906250
3126		-15.625000
3127		-7.812500
3128		-19.531250
3129		-13.671875
3130		-23.437500
3131		-17.578125
3132		-29.296875
3133		-21.484375
3134		-33.203125
3135		-27.343750
3136		-37.109375
3137		-31.250000
3138		-41.015625
3139		-35.156250
3140		-44.921875
3141		-39.062500
3142		-48.828125
3143		-42.968750
3144		-52.734375
3145		-46.875000
3146		-56.640625
3147		-50.781250
3148		-60.546875
3149		-54.687500
3150		-62.500000
3151		-58.593750
3152		-66.406250
3153		-60.546875
3154		-68.359375
3155		-64.453125
3156		-72.265625
3157		-66.406250
3158		-74.218750
3159		-68.359375
3160		-76.171875
3161		-72.265625
3162		-78.125000
3163		-74.218750
3164		-80.078125
3165		-76.171875
3166		-82.031250
3167		-78.125000
3168		-83.984375
3169		-78.125000
3170		-83.984375
3171		-80.078125
3172		-85.937500
3173		-82.031250
3174		-85.937500
3175		-82.031250
3176		-85.937500
3177		-82.031250
3178		-85.937500
3179		-83.984375
3180		-85.937500
3181		-82.031250
3182		-85.937500
3183		-82.031250
3184		-85.937500
3185		-82.031250
3186		-83.984375
3187		-82.031250
3188		-83.984375
3189		-80.078125
3190		-82.031250
3191		-78.125000
3192		-82.031250
3193		-78.125000
3194		-80.078125
3195		-76.171875
3196		-78.125000
3197		-74.218750
3198		-76.171875
3199		-72.265625
3200		-74.218750
3201		-68.359375
3202		-70.312500
3203		-66.406250
3204		-68.359375
3205		-62.500000
3206		-64.453125
3207		-60.546875
3208		-62.500000
3209		-56.640625
3210		-58.593750
3211		-54.687500
3212		-54.687500
3213		-50.781250
3214		-50.781250
3215		-46.875000
3216		-48.828125
3217		-41.015625
3218		-44.921875
3219		-39.062500
3220		-41.015625
3221		-35.156250
3222		-35.156250
3223		-31.250000
3224		-31.250000
3225		-25.390625
3226		-27.343750
3227		-21.484375
3228		-23.437500
3229		-17.578125
3230		-19.531250
3231		-11.718750
3232		-15.625000
3233		-7.812500
3234		-9.765625
3235		-3.906250
3236		-5.859375
3237		0.000000
3238		0.000000
3239		5.859375
3240		3.906250
3241		9.765625
3242		7.812500
3243		15.625000
3244		13.671875
3245		19.531250
3246		17.578125
3247		23.437500
3248		21.484375
3249		27.343750
3250		25.390625
3251		31.250000
3252		29.296875
3253		35.156250
3254		33.203125
3255		39.062500
3256		39.062500
3257		44.921875
3258		42.968750
3259		46.875000
3260		46.875000
3261		50.781250
3262		48.828125
3263		54.687500
3264		54.687500
3265		58.593750
3266		56.640625
3267		62.500000
3268		60.546875
3269		66.406250
3270		64.453125
3271		68.359375
3272		66.406250
3273		72.265625
3274		70.312500
3275		74.218750
3276		72.265625
3277		78.125000
3278		76.171875
3279		80.078125
3280		78.125000
3281		82.031250
3282		80.078125
3283		83.984375
3284		82.031250
3285		85.937500
3286		83.984375
3287		87.890625
3288		85.937500
3289		89.843750
3290		87.890625
3291		89.843750
3292		89.843750
3293		91.796875
3294		89.843750
3295		93.750000
3296		91.796875
3297		93.750000
3298		91.796875
3299		95.703125
3300		91.796875
3301		95.703125
3302		91.796875
3303		95.703125
3304		93.750000
3305		95.703125
3306		93.750000
3307		95.703125
3308		93.750000
3309		95.703125
3310		91.796875
3311		95.703125
3312		91.796875
3313		93.750000
3314		89.843750
3315		93.750000
3316		89.843750
3317		93.750000
3318		87.890625
3319		91.796875
3320		87.890625
3321		91.796875
3322		85.937500
3323		89.843750
3324		83.984375
3325		87.890625
3326		80.078125
3327		85.937500
3328		80.078125
3329		83.984375
3330		78.125000
3331		82.031250
3332		74.218750
3333		78.125000
3334		72.265625
3335		78.125000
3336		68.359375
3337		74.218750
3338		66.406250
3339		70.312500
3340		62.500000
3341		68.359375
3342		60.546875
3343		64.453125
3344		54.687500
3345		62.500000
3346		52.734375
3347		58.593750
3348		46.875000
3349		54.687500
3350		44.921875
3351		50.781250
3352		41.015625
3353		46.875000
3354		37.109375
3355		42.968750
3356		33.203125
3357		39.062500
3358		29.296875
3359		35.156250
3360		25.390625
3361		29.296875
3362		19.531250
3363		25.390625
3364		15.625000
3365		21.484375
3366		11.718750
3367		17.578125
3368		5.859375
3369		11.718750
3370		1.953125
3371		7.812500
3372		-1.953125
3373		3.906250
3374		-7.812500
3375		0.000000
3376		-11.718750
3377		-5.859375
3378		-15.625000
3379		-9.765625
3380		-21.484375
3381		-13.671875
3382		-25.390625
3383		-19.531250
3384		-29.296875
3385		-23.437500
3386		-33.203125
3387		-27.343750
3388		-37.109375
3389		-33.203125
3390		-41.015625
3391		-37.109375
3392		-44.921875
3393		-41.015625
3394		-48.828125
3395		-44.921875
3396		-52.734375
3397		-48.828125
3398		-56.640625
3399		-50.781250
3400		-60.546875
3401		-54.687500
3402		-64.453125
3403		-56.640625
3404		-66.406250
3405		-62.500000
3406		-70.312500
3407		-64.453125
3408		-72.265625
3409		-68.359375
3410		-74.218750
3411		-70.312500
3412		-76.171875
3413		-72.265625
3414		-78.125000
3415		-74.218750
3416		-80.078125
3417		-76.171875
3418		-82.031250
3419		-78.125000
3420		-82.031250
3421		-80.078125
3422		-83.984375
3423		-80.078125
3424		-83.984375
3425		-82.031250
3426		-85.937500
3427		-82.031250
3428		-85.937500
3429		-82.031250
3430		-85.937500
3431		-83.984375
3432		-85.937500
3433		-82.031250
3434		-85.937500
3435		-82.031250
3436		-85.937500
3437		-82.031250
3438		-83.984375
3439		-82.031250
3440		-83.984375
3441		-80.078125
3442		-82.031250
3443		-78.125000
3444		-80.078125
3445		-76.171875
3446		-78.125000
3447		-76.171875
3448		-76.171875
3449		-72.265625
3450		-76.171875
3451		-70.312500
3452		-72.265625
3453		-68.359375
3454		-70.312500
3455		-64.453125
3456		-68.359375
3457		-62.500000
3458		-64.453125
3459		-58.593750
3460		-60.546875
3461		-54.687500
3462		-58.593750
3463		-52.734375
3464		-54.687500
3465		-48.828125
3466		-50.781250
3467		-44.921875
3468		-46.875000
3469		-41.015625
3470		-42.968750
3471		-37.109375
3472		-39.062500
3473		-33.203125
3474		-35.156250
3475		-29.296875
3476		-31.250000
3477		-25.390625
3478		-25.390625
3479		-19.531250
3480		-21.484375
3481		-15.625000
3482		-17.578125
3483		-11.718750
3484		-13.671875
3485		-7.812500
3486		-9.765625
3487		-1.953125
3488		-3.906250
3489		1.953125
3490		0.000000
3491		5.859375
3492		3.906250
3493		11.718750
3494		9.765625
3495		15.625000
3496		13.671875
3497		19.531250
3498		17.578125
3499		23.437500
3500		23.437500
3501		29.296875
3502		27.343750
3503		33.203125
3504		31.250000
3505		37.109375
3506		35.156250
3507		41.015625
3508		39.062500
3509		46.875000
3510		42.968750
3511		48.828125
3512		46.875000
3513		52.734375
3514		50.781250
3515		56.640625
3516		54.687500
3517		60.546875
3518		58.593750
3519		64.453125
3520		62.500000
3521		66.406250
3522		64.453125
3523		70.312500
3524		68.359375
3525		72.265625
3526		70.312500
3527		76.171875
3528		74.218750
3529		78.125000
3530		76.171875
3531		80.078125
3532		78.125000
3533		82.031250
3534		80.078125
3535		85.937500
3536		82.031250
3537		85.937500
3538		83.984375
3539		87.890625
3540		85.937500
3541		89.843750
3542		87.890625
3543		91.796875
3544		89.843750
3545		93.750000
3546		89.843750
3547		93.750000
3548		91.796875
3549		93.750000
3550		91.796875
3551		95.703125
3552		91.796875
3553		95.703125
3554		93.750000
3555		95.703125
3556		93.750000
3557		95.703125
3558		93.750000
3559		95.703125
3560		91.796875
3561		95.703125
3562		91.796875
3563		95.703125
3564		91.796875
3565		95.703125
3566		91.796875
3567		93.750000
3568		89.843750
3569		93.750000
3570		87.890625
3571		91.796875
3572		85.937500
3573		89.843750
3574		85.937500
3575		89.843750
3576		83.984375
3577		87.890625
3578		82.031250
3579		85.937500
3580		78.125000
3581		83.984375
3582		78.125000
3583		80.078125
3584		74.218750
3585		78.125000
3586		72.265625
3587		76.171875
3588		68.359375
3589		74.218750
3590		66.406250
3591		72.265625
3592		62.500000
3593		68.359375
3594		58.593750
3595		64.453125
3596		56.640625
3597		60.546875
3598		52.734375
3599		56.640625
3600		48.828125
3601		54.687500
3602		42.968750
3603		50.781250
3604		41.015625
3605		46.875000
3606		37.109375
3607		42.968750
3608		33.203125
3609		39.062500
3610		27.343750
3611		33.203125
3612		23.437500
3613		29.296875
3614		19.531250
3615		25.390625
3616		15.625000
3617		21.484375
3618		9.765625
3619		15.625000
3620		5.859375
3621		11.718750
3622		1.953125
3623		7.812500
3624		-3.906250
3625		1.953125
3626		-7.812500
3627		-1.953125
3628		-11.718750
3629		-5.859375
3630		-15.625000
3631		-9.765625
3632		-21.484375
3633		-15.625000
3634		-25.390625
3635		-19.531250
3636		-29.296875
3637		-23.437500
3638		-33.203125
3639		-27.343750
3640		-37.109375
3641		-31.250000
3642		-42.968750
3643		-37.109375
3644		-44.921875
3645		-41.015625
3646		-50.781250
3647		-44.921875
3648		-54.687500
3649		-48.828125
3650		-56.640625
3651		-52.734375
3652		-60.546875
3653		-54.687500
3654		-64.453125
3655		-58.593750
3656		-66.406250
3657		-62.500000
3658		-70.312500
3659		-64.453125
3660		-72.265625
3661		-66.406250
3662		-74.218750
3663		-70.312500
3664		-76.171875
3665		-72.265625
3666		-78.125000
3667		-74.218750
3668		-80.078125
3669		-76.171875
3670		-82.031250
3671		-78.125000
3672		-82.031250
3673		-78.125000
3674		-83.984375
3675		-80.078125
3676		-83.984375
3677		-82.031250
3678		-85.937500
3679		-82.031250
3680		-87.890625
3681		-82.031250
3682		-85.937500
3683		-83.984375
3684		-85.937500
3685		-82.031250
3686		-85.937500
3687		-82.031250
3688		-83.984375
3689		-82.031250
3690		-83.984375
3691		-80.078125
3692		-83.984375
3693		-80.078125
3694		-82.031250
3695		-78.125000
3696		-80.078125
3697		-76.171875
3698		-78.125000
3699		-74.218750
3700		-76.171875
3701		-72.265625
3702		-74.218750
3703		-70.312500
3704		-72.265625
3705		-66.406250
3706		-68.359375
3707		-62.500000
3708		-66.406250
3709		-62.500000
3710		-64.453125
3711		-58.593750
3712		-60.546875
3713		-54.687500
3714		-58.593750
3715		-52.734375
3716		-52.734375
3717		-48.828125
3718		-48.828125
3719		-42.968750
3720		-46.875000
3721		-41.015625
3722		-42.968750
3723		-37.109375
3724		-39.062500
3725		-33.203125
3726		-35.156250
3727		-27.343750
3728		-29.296875
3729		-23.437500
3730		-25.390625
3731		-19.531250
3732		-21.484375
3733		-15.625000
3734		-17.578125
3735		-9.765625
3736		-11.718750
3737		-5.859375
3738		-7.812500
3739		-1.953125
3740		-3.906250
3741		1.953125
3742		1.953125
3743		7.812500
3744		5.859375
3745		11.718750
3746		9.765625
3747		15.625000
3748		13.671875
3749		21.484375
3750		19.531250
3751		25.390625
3752		23.437500
3753		29.296875
3754		27.343750
3755		33.203125
3756		31.250000
3757		37.109375
3758		35.156250
3759		42.968750
3760		41.015625
3761		44.921875
3762		44.921875
3763		50.781250
3764		48.828125
3765		52.734375
3766		50.781250
3767		56.640625
3768		54.687500
3769		60.546875
3770		58.593750
3771		64.453125
3772		62.500000
3773		66.406250
3774		64.453125
3775		70.312500
3776		68.359375
3777		72.265625
3778		70.312500
3779		76.171875
3780		74.218750
3781		78.125000
3782		76.171875
3783		80.078125
3784		78.125000
3785		82.031250
3786		80.078125
3787		85.937500
3788		82.031250
3789		87.890625
3790		83.984375
3791		89.843750
3792		85.937500
3793		89.843750
3794		87.890625
3795		91.796875
3796		89.843750
3797		93.750000
3798		89.843750
3799		93.750000
3800		91.796875
3801		93.750000
3802		91.796875
3803		95.703125
3804		91.796875
3805		95.703125
3806		93.750000
3807		95.703125
3808		93.750000
3809		95.703125
3810		93.750000
3811		95.703125
3812		91.796875
3813		95.703125
3814		91.796875
3815		95.703125
3816		91.796875
3817		93.750000
3818		89.843750
3819		93.750000
3820		89.843750
3821		93.750000
3822		87.890625
3823		91.796875
3824		85.937500
3825		89.843750
3826		83.984375
3827		87.890625
3828		83.984375
3829		85.937500
3830		80.078125
3831		85.937500
3832		78.125000
3833		83.984375
3834		76.171875
3835		80.078125
3836		72.265625
3837		78.125000
3838		70.312500
3839		76.171875
3840		68.359375
3841		72.265625
3842		64.453125
3843		70.312500
3844		62.500000
3845		66.406250
3846		58.593750
3847		62.500000
3848		54.687500
3849		60.546875
3850		50.781250
3851		56.640625
3852		46.875000
3853		52.734375
3854		42.968750
3855		48.828125
3856		39.062500
3857		44.921875
3858		35.156250
3859		41.015625
3860		31.250000
3861		37.109375
3862		27.343750
3863		33.203125
3864		21.484375
3865		27.343750
3866		17.578125
3867		23.437500
3868		13.671875
3869		19.531250
3870		9.765625
3871		15.625000
3872		5.859375
3873		11.718750
3874		0.000000
3875		5.859375
3876		-3.906250
3877		1.953125
3878		-9.765625
3879		-1.953125
3880		-13.671875
3881		-7.812500
3882		-17.578125
3883		-11.718750
3884		-21.484375
3885		-17.578125
3886		-27.343750
3887		-21.484375
3888		-31.250000
3889		-25.390625
3890		-35.156250
3891		-29.296875
3892		-39.062500
3893		-33.203125
3894		-42.968750
3895		-37.109375
3896		-46.875000
3897		-41.015625
3898		-50.781250
3899		-44.921875
3900		-54.687500
3901		-48.828125
3902		-58.593750
3903		-52.734375
3904		-60.546875
3905		-54.687500
3906		-64.453125
3907		-60.546875
3908		-66.406250
3909		-62.500000
3910		-70.312500
3911		-66.406250
3912		-72.265625
3913		-68.359375
3914		-74.218750
3915		-70.312500
3916		-78.125000
3917		-72.265625
3918		-78.125000
3919		-76.171875
3920		-82.031250
3921		-78.125000
3922		-82.031250
3923		-78.125000
3924		-83.984375
3925		-80.078125
3926		-83.984375
3927		-80.078125
3928		-85.937500
3929		-82.031250
3930		-85.937500
3931		-82.031250
3932		-85.937500
3933		-82.031250
3934		-85.937500
3935		-83.984375
3936		-85.937500
3937		-82.031250
3938		-85.937500
3939		-82.031250
3940		-83.984375
3941		-82.031250
3942		-83.984375
3943		-80.078125
3944		-82.031250
3945		-80.078125
3946		-82.031250
3947		-78.125000
3948		-80.078125
3949		-76.171875
3950		-78.125000
3951		-74.218750
3952		-76.171875
3953		-72.265625
3954		-74.218750
3955		-70.312500
3956		-72.265625
3957		-66.406250
3958		-70.312500
3959		-64.453125
3960		-66.406250
3961		-60.546875
3962		-62.500000
3963		-58.593750
3964		-60.546875
3965		-54.687500
3966		-56.640625
3967		-50.781250
3968		-52.734375
3969		-46.875000
3970		-48.828125
3971		-42.968750
3972		-44.921875
3973		-39.062500
3974		-41.015625
3975		-37.109375
3976		-39.062500
3977		-31.250000
3978		-33.203125
3979		-27.343750
3980		-29.296875
3981		-23.437500
3982		-25.390625
3983		-19.531250
3984		-21.484375
3985		-13.671875
3986		-15.625000
3987		-9.765625
3988		-11.718750
3989		-5.859375
3990		-7.812500
3991		0.000000
3992		-3.906250
3993		3.906250
3994		1.953125
3995		7.812500
3996		5.859375
3997		11.718750
3998		11.718750
3999		17.578125
4000		13.671875
4001		21.484375
4002		19.531250
4003		25.390625
4004		23.437500
4005		31.250000
4006		29.296875
4007		35.156250
4008		31.250000
4009		39.062500
4010		37.109375
4011		42.968750
4012		41.015625
4013		46.875000
4014		44.921875
4015		50.781250
4016		48.828125
4017		52.734375
4018		52.734375
4019		56.640625
4020		56.640625
4021		60.546875
4022		58.593750
4023		64.453125
4024		62.500000
4025		68.359375
4026		64.453125
4027		70.312500
4028		68.359375
4029		74.218750
4030		72.265625
4031		78.125000
4032		74.218750
4033		80.078125
4034		76.171875
4035		80.078125
4036		80.078125
4037		83.984375
4038		82.031250
4039		85.937500
4040		82.031250
4041		87.890625
4042		85.937500
4043		89.843750
4044		85.937500
4045		91.796875
4046		87.890625
4047		91.796875
4048		87.890625
4049		93.750000
4050		89.843750
4051		93.750000
4052		91.796875
4053		93.750000
4054		91.796875
4055		95.703125
4056		91.796875
4057		95.703125
4058		91.796875
4059		97.656250
4060		91.796875
4061		97.656250
4062		91.796875
4063		95.703125
4064		91.796875
4065		95.703125
4066		89.843750
4067		95.703125
4068		91.796875
4069		93.750000
4070		89.843750
4071		93.750000
4072		87.890625
4073		93.750000
4074		85.937500
4075		91.796875
4076		85.937500
4077		89.843750
4078		83.984375
4079		89.843750
4080		82.031250
4081		87.890625
4082		80.078125
4083		85.937500
4084		78.125000
4085		83.984375
4086		74.218750
4087		80.078125
4088		72.265625
4089		78.125000
4090		70.312500
4091		76.171875
4092		66.406250
4093		72.265625
4094		62.500000
4095		70.312500
4096		60.546875
4097		66.406250
4098		56.640625
4099		62.500000
4100		54.687500
4101		60.546875
4102		50.781250
4103		54.687500
4104		46.875000
4105		50.781250
4106		41.015625
4107		48.828125
4108		37.109375
4109		44.921875
4110		33.203125
4111		41.015625
4112		29.296875
4113		37.109375
4114		25.390625
4115		33.203125
4116		21.484375
4117		27.343750
4118		17.578125
4119		23.437500
4120		13.671875
4121		19.531250
4122		7.812500
4123		13.671875
4124		3.906250
4125		9.765625
4126		-1.953125
4127		3.906250
4128		-5.859375
4129		0.000000
4130		-9.765625
4131		-3.906250
4132		-13.671875
4133		-7.812500
4134		-19.531250
4135		-13.671875
4136		-23.437500
4137		-17.578125
4138		-27.343750
4139		-21.484375
4140		-31.250000
4141		-27.343750
4142		-37.109375
4143		-31.250000
4144		-41.015625
4145		-35.156250
4146		-44.921875
4147		-39.062500
4148		-48.828125
4149		-42.968750
4150		-52.734375
4151		-46.875000
4152		-54.687500
4153		-48.828125
4154		-58.593750
4155		-54.687500
4156		-62.500000
4157		-56.640625
4158		-64.453125
4159		-60.546875
4160		-68.359375
4161		-64.453125
4162		-70.312500
4163		-66.406250
4164		-74.218750
4165		-70.312500
4166		-76.171875
4167		-72.265625
4168		-78.125000
4169		-74.218750
4170		-80.078125
4171		-76.171875
4172		-82.031250
4173		-78.125000
4174		-82.031250
4175		-80.078125
4176		-83.984375
4177		-82.031250
4178		-83.984375
4179		-82.031250
4180		-85.937500
4181		-82.031250
4182		-85.937500
4183		-83.984375
4184		-85.937500
4185		-83.984375
4186		-85.937500
4187		-83.984375
4188		-85.937500
4189		-83.984375
4190		-85.937500
4191		-83.984375
4192		-83.984375
4193		-82.031250
4194		-83.984375
4195		-80.078125
4196		-82.031250
4197		-80.078125
4198		-82.031250
4199		-78.125000
4200		-80.078125
4201		-76.171875
4202		-78.125000
4203		-74.218750
4204		-76.171875
4205		-72.265625
4206		-74.218750
4207		-70.312500
4208		-72.265625
4209		-66.406250
4210		-68.359375
4211		-64.453125
4212		-66.406250
4213		-60.546875
4214		-62.500000
4215		-58.593750
4216		-58.593750
4217		-54.687500
4218		-56.640625
4219		-50.781250
4220		-52.734375
4221		-46.875000
4222		-48.828125
4223		-41.015625
4224		-46.875000
4225		-37.109375
4226		-42.968750
4227		-33.203125
4228		-39.062500
4229		-31.250000
4230		-33.203125
4231		-27.343750
4232		-29.296875
4233		-23.437500
4234		-23.437500
4235		-17.578125
4236		-19.531250
4237		-13.671875
4238		-15.625000
4239		-9.765625
4240		-13.671875
4241		-3.906250
4242		-7.812500
4243		1.953125
4244		-3.906250
4245		5.859375
4246		1.953125
4247		9.765625
4248		7.812500
4249		13.671875
4250		11.718750
4251		17.578125
4252		15.625000
4253		21.484375
4254		19.531250
4255		27.343750
4256		25.390625
4257		33.203125
4258		29.296875
4259		37.109375
4260		31.250000
4261		42.968750
4262		33.203125
4263		42.968750
4264		41.015625
4265		46.875000
4266		44.921875
4267		50.781250
4268		48.828125
4269		54.687500
4270		52.734375
4271		58.593750
4272		56.640625
4273		60.546875
4274		56.640625
4275		66.406250
4276		60.546875
4277		70.312500
4278		62.500000
4279		74.218750
4280		68.359375
4281		74.218750
4282		72.265625
4283		76.171875
4284		74.218750
4285		78.125000
4286		78.125000
4287		82.031250
4288		80.078125
4289		83.984375
4290		80.078125
4291		89.843750
4292		80.078125
4293		91.796875
4294		82.031250
4295		91.796875
4296		87.890625
4297		89.843750
4298		87.890625
4299		91.796875
4300		89.843750
4301		91.796875
4302		89.843750
4303		93.750000
4304		91.796875
4305		93.750000
4306		89.843750
4307		97.656250
4308		87.890625
4309		99.609375
4310		87.890625
4311		99.609375
4312		87.890625
4313		99.609375
4314		91.796875
4315		95.703125
4316		91.796875
4317		93.750000
4318		91.796875
4319		93.750000
4320		91.796875
4321		93.750000
4322		89.843750
4323		91.796875
4324		85.937500
4325		95.703125
4326		83.984375
4327		93.750000
4328		82.031250
4329		91.796875
4330		83.984375
4331		87.890625
4332		82.031250
4333		85.937500
4334		78.125000
4335		83.984375
4336		78.125000
4337		82.031250
4338		74.218750
4339		78.125000
4340		68.359375
4341		78.125000
4342		66.406250
4343		76.171875
4344		62.500000
4345		74.218750
4346		62.500000
4347		70.312500
4348		60.546875
4349		64.453125
4350		56.640625
4351		60.546875
4352		52.734375
4353		58.593750
4354		48.828125
4355		54.687500
4356		44.921875
4357		50.781250
4358		39.062500
4359		50.781250
4360		35.156250
4361		46.875000
4362		31.250000
4363		42.968750
4364		29.296875
4365		35.156250
4366		23.437500
4367		29.296875
4368		19.531250
4369		25.390625
4370		15.625000
4371		21.484375
4372		11.718750
4373		17.578125
4374		3.906250
4375		13.671875
4376		-1.953125
4377		9.765625
4378		-5.859375
4379		5.859375
4380		-7.812500
4381		-1.953125
4382		-11.718750
4383		-5.859375
4384		-15.625000
4385		-9.765625
4386		-21.484375
4387		-15.625000
4388		-25.390625
4389		-19.531250
4390		-33.203125
4391		-23.437500
4392		-35.156250
4393		-23.437500
4394		-41.015625
4395		-29.296875
4396		-42.968750
4397		-33.203125
4398		-44.921875
4399		-41.015625
4400		-50.781250
4401		-44.921875
4402		-52.734375
4403		-48.828125
4404		-56.640625
4405		-52.734375
4406		-60.546875
4407		-54.687500
4408		-64.453125
4409		-58.593750
4410		-68.359375
4411		-60.546875
4412		-70.312500
4413		-64.453125
4414		-72.265625
4415		-68.359375
4416		-74.218750
4417		-70.312500
4418		-76.171875
4419		-72.265625
4420		-78.125000
4421		-74.218750
4422		-80.078125
4423		-76.171875
4424		-82.031250
4425		-78.125000
4426		-85.937500
4427		-78.125000
4428		-87.890625
4429		-78.125000
4430		-85.937500
4431		-82.031250
4432		-85.937500
4433		-83.984375
4434		-85.937500
4435		-83.984375
4436		-85.937500
4437		-83.984375
4438		-85.937500
4439		-83.984375
4440		-85.937500
4441		-83.984375
4442		-87.890625
4443		-83.984375
4444		-85.937500
4445		-80.078125
4446		-85.937500
4447		-80.078125
4448		-83.984375
4449		-80.078125
4450		-82.031250
4451		-78.125000
4452		-80.078125
4453		-76.171875
4454		-78.125000
4455		-74.218750
4456		-76.171875
4457		-72.265625
4458		-74.218750
4459		-70.312500
4460		-70.312500
4461		-66.406250
4462		-68.359375
4463		-64.453125
4464		-64.453125
4465		-60.546875
4466		-62.500000
4467		-56.640625
4468		-58.593750
4469		-54.687500
4470		-54.687500
4471		-50.781250
4472		-52.734375
4473		-46.875000
4474		-48.828125
4475		-42.968750
4476		-44.921875
4477		-39.062500
4478		-41.015625
4479		-35.156250
4480		-37.109375
4481		-31.250000
4482		-31.250000
4483		-25.390625
4484		-27.343750
4485		-21.484375
4486		-23.437500
4487		-17.578125
4488		-19.531250
4489		-13.671875
4490		-13.671875
4491		-9.765625
4492		-9.765625
4493		-3.906250
4494		-5.859375
4495		0.000000
4496		-1.953125
4497		3.906250
4498		3.906250
4499		9.765625
4500		7.812500
4501		13.671875
4502		13.671875
4503		17.578125
4504		17.578125
4505		23.437500
4506		21.484375
4507		27.343750
4508		25.390625
4509		31.250000
4510		29.296875
4511		37.109375
4512		33.203125
4513		39.062500
4514		37.109375
4515		44.921875
4516		41.015625
4517		48.828125
4518		44.921875
4519		50.781250
4520		50.781250
4521		54.687500
4522		52.734375
4523		58.593750
4524		56.640625
4525		62.500000
4526		58.593750
4527		66.406250
4528		62.500000
4529		68.359375
4530		66.406250
4531		70.312500
4532		70.312500
4533		74.218750
4534		72.265625
4535		76.171875
4536		74.218750
4537		78.125000
4538		78.125000
4539		82.031250
4540		80.078125
4541		83.984375
4542		82.031250
4543		85.937500
4544		83.984375
4545		87.890625
4546		85.937500
4547		87.890625
4548		87.890625
4549		91.796875
4550		87.890625
4551		91.796875
4552		89.843750
4553		91.796875
4554		89.843750
4555		93.750000
4556		91.796875
4557		93.750000
4558		91.796875
4559		95.703125
4560		91.796875
4561		95.703125
4562		91.796875
4563		95.703125
4564		91.796875
4565		95.703125
4566		91.796875
4567		95.703125
4568		91.796875
4569		95.703125
4570		91.796875
4571		93.750000
4572		89.843750
4573		91.796875
4574		89.843750
4575		91.796875
4576		85.937500
4577		91.796875
4578		85.937500
4579		89.843750
4580		83.984375
4581		87.890625
4582		82.031250
4583		85.937500
4584		80.078125
4585		83.984375
4586		78.125000
4587		82.031250
4588		76.171875
4589		80.078125
4590		74.218750
4591		78.125000
4592		70.312500
4593		76.171875
4594		66.406250
4595		74.218750
4596		64.453125
4597		70.312500
4598		60.546875
4599		66.406250
4600		56.640625
4601		64.453125
4602		54.687500
4603		60.546875
4604		50.781250
4605		56.640625
4606		46.875000
4607		52.734375
4608		42.968750
4609		48.828125
4610		39.062500
4611		46.875000
4612		35.156250
4613		41.015625
4614		31.250000
4615		37.109375
4616		27.343750
4617		33.203125
4618		23.437500
4619		29.296875
4620		19.531250
4621		25.390625
4622		13.671875
4623		21.484375
4624		9.765625
4625		15.625000
4626		3.906250
4627		11.718750
4628		0.000000
4629		5.859375
4630		-3.906250
4631		1.953125
4632		-7.812500
4633		-1.953125
4634		-13.671875
4635		-5.859375
4636		-17.578125
4637		-11.718750
4638		-21.484375
4639		-15.625000
4640		-25.390625
4641		-19.531250
4642		-33.203125
4643		-25.390625
4644		-35.156250
4645		-29.296875
4646		-39.062500
4647		-33.203125
4648		-42.968750
4649		-37.109375
4650		-48.828125
4651		-41.015625
4652		-50.781250
4653		-44.921875
4654		-54.687500
4655		-48.828125
4656		-58.593750
4657		-52.734375
4658		-60.546875
4659		-56.640625
4660		-64.453125
4661		-58.593750
4662		-66.406250
4663		-62.500000
4664		-70.312500
4665		-66.406250
4666		-74.218750
4667		-68.359375
4668		-76.171875
4669		-70.312500
4670		-76.171875
4671		-74.218750
4672		-78.125000
4673		-76.171875
4674		-80.078125
4675		-78.125000
4676		-82.031250
4677		-78.125000
4678		-83.984375
4679		-80.078125
4680		-83.984375
4681		-82.031250
4682		-85.937500
4683		-82.031250
4684		-85.937500
4685		-83.984375
4686		-85.937500
4687		-83.984375
4688		-87.890625
4689		-83.984375
4690		-85.937500
4691		-83.984375
4692		-85.937500
4693		-83.984375
4694		-85.937500
4695		-82.031250
4696		-83.984375
4697		-82.031250
4698		-83.984375
4699		-80.078125
4700		-82.031250
4701		-78.125000
4702		-82.031250
4703		-78.125000
4704		-78.125000
4705		-76.171875
4706		-76.171875
4707		-74.218750
4708		-76.171875
4709		-70.312500
4710		-72.265625
4711		-68.359375
4712		-70.312500
4713		-66.406250
4714		-68.359375
4715		-62.500000
4716		-64.453125
4717		-60.546875
4718		-60.546875
4719		-56.640625
4720		-58.593750
4721		-52.734375
4722		-54.687500
4723		-48.828125
4724		-50.781250
4725		-44.921875
4726		-46.875000
4727		-41.015625
4728		-42.968750
4729		-37.109375
4730		-39.062500
4731		-33.203125
4732		-35.156250
4733		-29.296875
4734		-31.250000
4735		-25.390625
4736		-25.390625
4737		-21.484375
4738		-21.484375
4739		-15.625000
4740		-17.578125
4741		-11.718750
4742		-13.671875
4743		-7.812500
4744		-7.812500
4745		-1.953125
4746		-3.906250
4747		1.953125
4748		0.000000
4749		5.859375
4750		5.859375
4751		11.718750
4752		9.765625
4753		15.625000
4754		13.671875
4755		19.531250
4756		17.578125
4757		23.437500
4758		21.484375
4759		27.343750
4760		27.343750
4761		33.203125
4762		31.250000
4763		37.109375
4764		35.156250
4765		41.015625
4766		39.062500
4767		44.921875
4768		42.968750
4769		48.828125
4770		46.875000
4771		52.734375
4772		50.781250
4773		56.640625
4774		54.687500
4775		58.593750
4776		58.593750
4777		62.500000
4778		60.546875
4779		66.406250
4780		64.453125
4781		68.359375
4782		68.359375
4783		72.265625
4784		70.312500
4785		74.218750
4786		74.218750
4787		78.125000
4788		76.171875
4789		80.078125
4790		78.125000
4791		82.031250
4792		80.078125
4793		83.984375
4794		82.031250
4795		85.937500
4796		83.984375
4797		87.890625
4798		85.937500
4799		89.843750
4800		87.890625
4801		89.843750
4802		87.890625
4803		91.796875
4804		89.843750
4805		93.750000
4806		91.796875
4807		93.750000
4808		91.796875
4809		93.750000
4810		91.796875
4811		95.703125
4812		91.796875
4813		95.703125
4814		91.796875
4815		95.703125
4816		91.796875
4817		95.703125
4818		91.796875
4819		95.703125
4820		91.796875
4821		93.750000
4822		89.843750
4823		93.750000
4824		89.843750
4825		93.750000
4826		89.843750
4827		91.796875
4828		87.890625
4829		91.796875
4830		85.937500
4831		89.843750
4832		83.984375
4833		87.890625
4834		82.031250
4835		85.937500
4836		80.078125
4837		83.984375
4838		78.125000
4839		82.031250
4840		76.171875
4841		80.078125
4842		74.218750
4843		78.125000
4844		68.359375
4845		74.218750
4846		66.406250
4847		74.218750
4848		64.453125
4849		68.359375
4850		60.546875
4851		66.406250
4852		58.593750
4853		62.500000
4854		54.687500
4855		60.546875
4856		50.781250
4857		56.640625
4858		46.875000
4859		52.734375
4860		42.968750
4861		48.828125
4862		39.062500
4863		44.921875
4864		35.156250
4865		41.015625
4866		31.250000
4867		37.109375
4868		27.343750
4869		31.250000
4870		21.484375
4871		27.343750
4872		17.578125
4873		23.437500
4874		13.671875
4875		19.531250
4876		7.812500
4877		13.671875
4878		3.906250
4879		9.765625
4880		0.000000
4881		5.859375
4882		-3.906250
4883		0.000000
4884		-9.765625
4885		-3.906250
4886		-13.671875
4887		-7.812500
4888		-19.531250
4889		-11.718750
4890		-23.437500
4891		-17.578125
4892		-27.343750
4893		-21.484375
4894		-33.203125
4895		-25.390625
4896		-37.109375
4897		-27.343750
4898		-39.062500
4899		-33.203125
4900		-42.968750
4901		-39.062500
4902		-46.875000
4903		-42.968750
4904		-50.781250
4905		-46.875000
4906		-54.687500
4907		-50.781250
4908		-58.593750
4909		-54.687500
4910		-62.500000
4911		-56.640625
4912		-66.406250
4913		-60.546875
4914		-68.359375
4915		-62.500000
4916		-70.312500
4917		-66.406250
4918		-72.265625
4919		-68.359375
4920		-76.171875
4921		-70.312500
4922		-78.125000
4923		-74.218750
4924		-80.078125
4925		-76.171875
4926		-82.031250
4927		-78.125000
4928		-83.984375
4929		-78.125000
4930		-85.937500
4931		-78.125000
4932		-83.984375
4933		-82.031250
4934		-85.937500
4935		-82.031250
4936		-85.937500
4937		-82.031250
4938		-85.937500
4939		-83.984375
4940		-85.937500
4941		-83.984375
4942		-85.937500
4943		-83.984375
4944		-85.937500
4945		-83.984375
4946		-85.937500
4947		-82.031250
4948		-85.937500
4949		-80.078125
4950		-83.984375
4951		-80.078125
4952		-82.031250
4953		-80.078125
4954		-80.078125
4955		-78.125000
4956		-80.078125
4957		-76.171875
4958		-76.171875
4959		-72.265625
4960		-74.218750
4961		-70.312500
4962		-72.265625
4963		-66.406250
4964		-70.312500
4965		-64.453125
4966		-66.406250
4967		-62.500000
4968		-64.453125
4969		-58.593750
4970		-60.546875
4971		-56.640625
4972		-56.640625
4973		-52.734375
4974		-54.687500
4975		-48.828125
4976		-50.781250
4977		-44.921875
4978		-46.875000
4979		-41.015625
4980		-44.921875
4981		-35.156250
4982		-39.062500
4983		-33.203125
4984		-33.203125
4985		-29.296875
4986		-29.296875
4987		-23.437500
4988		-25.390625
4989		-19.531250
4990		-21.484375
4991		-15.625000
4992		-17.578125
4993		-9.765625
4994		-11.718750
4995		-5.859375
4996		-7.812500
4997		0.000000
4998		-3.906250
4999		1.953125
5000		1.953125
5001		7.812500
5002		5.859375
5003		11.718750
5004		9.765625
5005		15.625000
5006		15.625000
5007		21.484375
5008		19.531250
5009		25.390625
5010		23.437500
5011		29.296875
5012		27.343750
5013		35.156250
5014		31.250000
5015		39.062500
5016		35.156250
5017		41.015625
5018		39.062500
5019		44.921875
5020		44.921875
5021		48.828125
5022		48.828125
5023		52.734375
5024		50.781250
5025		56.640625
5026		54.687500
5027		60.546875
5028		58.593750
5029		62.500000
5030		60.546875
5031		66.406250
5032		64.453125
5033		68.359375
5034		68.359375
5035		72.265625
5036		70.312500
5037		76.171875
5038		74.218750
5039		78.125000
5040		76.171875
5041		80.078125
5042		78.125000
5043		82.031250
5044		80.078125
5045		83.984375
5046		82.031250
5047		87.890625
5048		83.984375
5049		87.890625
5050		85.937500
5051		89.843750
5052		87.890625
5053		89.843750
5054		89.843750
5055		91.796875
5056		89.843750
5057		91.796875
5058		91.796875
5059		93.750000
5060		91.796875
5061		93.750000
5062		91.796875
5063		95.703125
5064		91.796875
5065		95.703125
5066		91.796875
5067		95.703125
5068		91.796875
5069		93.750000
5070		91.796875
5071		93.750000
5072		91.796875
5073		93.750000
5074		89.843750
5075		93.750000
5076		89.843750
5077		91.796875
5078		87.890625
5079		91.796875
5080		87.890625
5081		89.843750
5082		85.937500
5083		87.890625
5084		83.984375
5085		87.890625
5086		82.031250
5087		85.937500
5088		80.078125
5089		83.984375
5090		78.125000
5091		82.031250
5092		74.218750
5093		80.078125
5094		72.265625
5095		76.171875
5096		70.312500
5097		74.218750
5098		66.406250
5099		72.265625
5100		64.453125
5101		68.359375
5102		60.546875
5103		64.453125
5104		56.640625
5105		62.500000
5106		52.734375
5107		58.593750
5108		50.781250
5109		54.687500
5110		44.921875
5111		50.781250
5112		42.968750
5113		46.875000
5114		39.062500
5115		42.968750
5116		33.203125
5117		39.062500
5118		29.296875
5119		35.156250
5120		25.390625
5121		31.250000
5122		21.484375
5123		27.343750
5124		15.625000
5125		21.484375
5126		11.718750
5127		17.578125
5128		7.812500
5129		13.671875
5130		3.906250
5131		7.812500
5132		-1.953125
5133		3.906250
5134		-5.859375
5135		0.000000
5136		-9.765625
5137		-5.859375
5138		-15.625000
5139		-9.765625
5140		-19.531250
5141		-13.671875
5142		-23.437500
5143		-17.578125
5144		-29.296875
5145		-23.437500
5146		-33.203125
5147		-27.343750
5148		-37.109375
5149		-31.250000
5150		-41.015625
5151		-35.156250
5152		-44.921875
5153		-39.062500
5154		-48.828125
5155		-42.968750
5156		-52.734375
5157		-46.875000
5158		-56.640625
5159		-50.781250
5160		-60.546875
5161		-54.687500
5162		-62.500000
5163		-58.593750
5164		-66.406250
5165		-60.546875
5166		-68.359375
5167		-64.453125
5168		-72.265625
5169		-66.406250
5170		-74.218750
5171		-70.312500
5172		-76.171875
5173		-72.265625
5174		-78.125000
5175		-74.218750
5176		-80.078125
5177		-76.171875
5178		-82.031250
5179		-78.125000
5180		-82.031250
5181		-80.078125
5182		-83.984375
5183		-82.031250
5184		-85.937500
5185		-82.031250
5186		-85.937500
5187		-82.031250
5188		-85.937500
5189		-83.984375
5190		-87.890625
5191		-83.984375
5192		-85.937500
5193		-83.984375
5194		-85.937500
5195		-83.984375
5196		-85.937500
5197		-83.984375
5198		-83.984375
5199		-82.031250
5200		-83.984375
5201		-82.031250
5202		-83.984375
5203		-80.078125
5204		-82.031250
5205		-78.125000
5206		-80.078125
5207		-76.171875
5208		-78.125000
5209		-74.218750
5210		-76.171875
5211		-72.265625
5212		-74.218750
5213		-70.312500
5214		-72.265625
5215		-68.359375
5216		-68.359375
5217		-64.453125
5218		-66.406250
5219		-60.546875
5220		-62.500000
5221		-58.593750
5222		-58.593750
5223		-54.687500
5224		-56.640625
5225		-50.781250
5226		-52.734375
5227		-46.875000
5228		-48.828125
5229		-42.968750
5230		-44.921875
5231		-39.062500
5232		-41.015625
5233		-35.156250
5234		-37.109375
5235		-31.250000
5236		-33.203125
5237		-27.343750
5238		-29.296875
5239		-23.437500
5240		-23.437500
5241		-17.578125
5242		-19.531250
5243		-13.671875
5244		-15.625000
5245		-9.765625
5246		-11.718750
5247		-5.859375
5248		-5.859375
5249		0.000000
5250		-1.953125
5251		3.906250
5252		1.953125
5253		7.812500
5254		7.812500
5255		13.671875
5256		11.718750
5257		17.578125
5258		15.625000
5259		21.484375
5260		21.484375
5261		27.343750
5262		25.390625
5263		31.250000
5264		29.296875
5265		35.156250
5266		33.203125
5267		39.062500
5268		37.109375
5269		42.968750
5270		41.015625
5271		46.875000
5272		44.921875
5273		50.781250
5274		48.828125
5275		54.687500
5276		52.734375
5277		58.593750
5278		56.640625
5279		60.546875
5280		60.546875
5281		64.453125
5282		62.500000
5283		68.359375
5284		66.406250
5285		70.312500
5286		68.359375
5287		74.218750
5288		72.265625
5289		76.171875
5290		74.218750
5291		78.125000
5292		78.125000
5293		80.078125
5294		80.078125
5295		82.031250
5296		82.031250
5297		85.937500
5298		83.984375
5299		87.890625
5300		85.937500
5301		87.890625
5302		87.890625
5303		89.843750
5304		87.890625
5305		91.796875
5306		89.843750
5307		91.796875
5308		89.843750
5309		93.750000
5310		91.796875
5311		93.750000
5312		91.796875
5313		93.750000
5314		91.796875
5315		95.703125
5316		93.750000
5317		95.703125
5318		93.750000
5319		95.703125
5320		91.796875
5321		95.703125
5322		91.796875
5323		93.750000
5324		91.796875
5325		93.750000
5326		89.843750
5327		93.750000
5328		89.843750
5329		91.796875
5330		87.890625
5331		91.796875
5332		85.937500
5333		89.843750
5334		85.937500
5335		89.843750
5336		83.984375
5337		87.890625
5338		82.031250
5339		85.937500
5340		80.078125
5341		83.984375
5342		78.125000
5343		82.031250
5344		74.218750
5345		78.125000
5346		72.265625
5347		76.171875
5348		70.312500
5349		74.218750
5350		66.406250
5351		70.312500
5352		62.500000
5353		68.359375
5354		60.546875
5355		64.453125
5356		56.640625
5357		60.546875
5358		52.734375
5359		58.593750
5360		48.828125
5361		54.687500
5362		44.921875
5363		50.781250
5364		41.015625
5365		46.875000
5366		37.109375
5367		42.968750
5368		33.203125
5369		39.062500
5370		29.296875
5371		35.156250
5372		25.390625
5373		31.250000
5374		19.531250
5375		25.390625
5376		15.625000
5377		21.484375
5378		11.718750
5379		17.578125
5380		7.812500
5381		11.718750
5382		1.953125
5383		7.812500
5384		-1.953125
5385		3.906250
5386		-7.812500
5387		-1.953125
5388		-11.718750
5389		-5.859375
5390		-15.625000
5391		-9.765625
5392		-19.531250
5393		-13.671875
5394		-25.390625
5395		-19.531250
5396		-29.296875
5397		-23.437500
5398		-33.203125
5399		-27.343750
5400		-37.109375
5401		-31.250000
5402		-41.015625
5403		-37.109375
5404		-44.921875
5405		-41.015625
5406		-48.828125
5407		-44.921875
5408		-52.734375
5409		-48.828125
5410		-56.640625
5411		-52.734375
5412		-60.546875
5413		-54.687500
5414		-62.500000
5415		-58.593750
5416		-66.406250
5417		-60.546875
5418		-68.359375
5419		-64.453125
5420		-72.265625
5421		-68.359375
5422		-74.218750
5423		-70.312500
5424		-76.171875
5425		-72.265625
5426		-78.125000
5427		-74.218750
5428		-80.078125
5429		-76.171875
5430		-82.031250
5431		-78.125000
5432		-83.984375
5433		-80.078125
5434		-83.984375
5435		-82.031250
5436		-85.937500
5437		-82.031250
5438		-85.937500
5439		-83.984375
5440		-85.937500
5441		-83.984375
5442		-85.937500
5443		-83.984375
5444		-85.937500
5445		-83.984375
5446		-85.937500
5447		-83.984375
5448		-85.937500
5449		-83.984375
5450		-83.984375
5451		-82.031250
5452		-83.984375
5453		-82.031250
5454		-82.031250
5455		-80.078125
5456		-82.031250
5457		-78.125000
5458		-80.078125
5459		-76.171875
5460		-78.125000
5461		-74.218750
5462		-76.171875
5463		-72.265625
5464		-74.218750
5465		-70.312500
5466		-70.312500
5467		-66.406250
5468		-68.359375
5469		-64.453125
5470		-64.453125
5471		-60.546875
5472		-62.500000
5473		-56.640625
5474		-58.593750
5475		-54.687500
5476		-54.687500
5477		-50.781250
5478		-52.734375
5479		-46.875000
5480		-48.828125
5481		-42.968750
5482		-44.921875
5483		-39.062500
5484		-41.015625
5485		-35.156250
5486		-35.156250
5487		-31.250000
5488		-31.250000
5489		-25.390625
5490		-27.343750
5491		-21.484375
5492		-23.437500
5493		-17.578125
5494		-19.531250
5495		-13.671875
5496		-13.671875
5497		-7.812500
5498		-9.765625
5499		-3.906250
5500		-5.859375
5501		0.000000
5502		0.000000
5503		3.906250
5504		3.906250
5505		9.765625
5506		7.812500
5507		13.671875
5508		13.671875
5509		17.578125
5510		17.578125
5511		23.437500
5512		21.484375
5513		27.343750
5514		25.390625
5515		31.250000
5516		29.296875
5517		35.156250
5518		33.203125
5519		39.062500
5520		39.062500
5521		42.968750
5522		42.968750
5523		46.875000
5524		44.921875
5525		50.781250
5526		50.781250
5527		54.687500
5528		52.734375
5529		58.593750
5530		56.640625
5531		62.500000
5532		60.546875
5533		64.453125
5534		64.453125
5535		68.359375
5536		66.406250
5537		70.312500
5538		70.312500
5539		74.218750
5540		72.265625
5541		76.171875
5542		74.218750
5543		78.125000
5544		78.125000
5545		82.031250
5546		80.078125
5547		83.984375
5548		82.031250
5549		85.937500
5550		83.984375
5551		87.890625
5552		85.937500
5553		87.890625
5554		87.890625
5555		89.843750
5556		87.890625
5557		91.796875
5558		89.843750
5559		91.796875
5560		89.843750
5561		93.750000
5562		91.796875
5563		93.750000
5564		91.796875
5565		93.750000
5566		91.796875
5567		95.703125
5568		91.796875
5569		95.703125
5570		91.796875
5571		95.703125
5572		91.796875
5573		93.750000
5574		91.796875
5575		93.750000
5576		91.796875
5577		93.750000
5578		89.843750
5579		93.750000
5580		89.843750
5581		91.796875
5582		87.890625
5583		91.796875
5584		85.937500
5585		89.843750
5586		85.937500
5587		87.890625
5588		83.984375
5589		85.937500
5590		82.031250
5591		83.984375
5592		80.078125
5593		82.031250
5594		76.171875
5595		80.078125
5596		74.218750
5597		78.125000
5598		72.265625
5599		76.171875
5600		68.359375
5601		72.265625
5602		66.406250
5603		70.312500
5604		62.500000
5605		66.406250
5606		58.593750
5607		64.453125
5608		54.687500
5609		60.546875
5610		52.734375
5611		56.640625
5612		48.828125
5613		52.734375
5614		44.921875
5615		48.828125
5616		39.062500
5617		44.921875
5618		35.156250
5619		41.015625
5620		31.250000
5621		37.109375
5622		27.343750
5623		33.203125
5624		23.437500
5625		29.296875
5626		19.531250
5627		25.390625
5628		13.671875
5629		21.484375
5630		9.765625
5631		15.625000
5632		5.859375
5633		11.718750
5634		0.000000
5635		7.812500
5636		-3.906250
5637		1.953125
5638		-7.812500
5639		-1.953125
5640		-11.718750
5641		-5.859375
5642		-17.578125
5643		-11.718750
5644		-21.484375
5645		-15.625000
5646		-25.390625
5647		-19.531250
5648		-29.296875
5649		-25.390625
5650		-35.156250
5651		-29.296875
5652		-39.062500
5653		-33.203125
5654		-42.968750
5655		-37.109375
5656		-46.875000
5657		-41.015625
5658		-50.781250
5659		-44.921875
5660		-54.687500
5661		-48.828125
5662		-56.640625
5663		-52.734375
5664		-60.546875
5665		-56.640625
5666		-64.453125
5667		-58.593750
5668		-66.406250
5669		-62.500000
5670		-70.312500
5671		-66.406250
5672		-72.265625
5673		-68.359375
5674		-76.171875
5675		-70.312500
5676		-76.171875
5677		-72.265625
5678		-78.125000
5679		-76.171875
5680		-80.078125
5681		-78.125000
5682		-82.031250
5683		-80.078125
5684		-83.984375
5685		-80.078125
5686		-85.937500
5687		-82.031250
5688		-85.937500
5689		-82.031250
5690		-85.937500
5691		-83.984375
5692		-85.937500
5693		-83.984375
5694		-85.937500
5695		-83.984375
5696		-85.937500
5697		-83.984375
5698		-85.937500
5699		-83.984375
5700		-85.937500
5701		-83.984375
5702		-83.984375
5703		-82.031250
5704		-83.984375
5705		-82.031250
5706		-82.031250
5707		-80.078125
5708		-82.031250
5709		-78.125000
5710		-80.078125
5711		-76.171875
5712		-78.125000
5713		-74.218750
5714		-76.171875
5715		-72.265625
5716		-72.265625
5717		-68.359375
5718		-70.312500
5719		-66.406250
5720		-68.359375
5721		-62.500000
5722		-64.453125
5723		-60.546875
5724		-62.500000
5725		-56.640625
5726		-58.593750
5727		-52.734375
5728		-54.687500
5729		-50.781250
5730		-50.781250
5731		-46.875000
5732		-46.875000
5733		-42.968750
5734		-42.968750
5735		-39.062500
5736		-39.062500
5737		-35.156250
5738		-35.156250
5739		-29.296875
5740		-31.250000
5741		-25.390625
5742		-27.343750
5743		-21.484375
5744		-23.437500
5745		-17.578125
5746		-17.578125
5747		-11.718750
5748		-13.671875
5749		-7.812500
5750		-9.765625
5751		-3.906250
5752		-3.906250
5753		0.000000
5754		0.000000
5755		5.859375
5756		3.906250
5757		9.765625
5758		7.812500
5759		15.625000
5760		13.671875
5761		19.531250
5762		17.578125
5763		23.437500
5764		21.484375
5765		27.343750
5766		25.390625
5767		31.250000
5768		31.250000
5769		35.156250
5770		35.156250
5771		41.015625
5772		39.062500
5773		44.921875
5774		42.968750
5775		46.875000
5776		46.875000
5777		50.781250
5778		50.781250
5779		54.687500
5780		54.687500
5781		58.593750
5782		56.640625
5783		62.500000
5784		60.546875
5785		64.453125
5786		64.453125
5787		68.359375
5788		66.406250
5789		72.265625
5790		70.312500
5791		74.218750
5792		72.265625
5793		76.171875
5794		76.171875
5795		80.078125
5796		78.125000
5797		82.031250
5798		80.078125
5799		83.984375
5800		82.031250
5801		85.937500
5802		83.984375
5803		87.890625
5804		85.937500
5805		87.890625
5806		87.890625
5807		89.843750
5808		87.890625
5809		91.796875
5810		89.843750
5811		91.796875
5812		89.843750
5813		93.750000
5814		91.796875
5815		93.750000
5816		91.796875
5817		93.750000
5818		91.796875
5819		93.750000
5820		91.796875
5821		93.750000
5822		91.796875
5823		93.750000
5824		91.796875
5825		93.750000
5826		91.796875
5827		93.750000
5828		91.796875
5829		93.750000
5830		89.843750
5831		91.796875
5832		87.890625
5833		91.796875
5834		87.890625
5835		89.843750
5836		85.937500
5837		89.843750
5838		83.984375
5839		87.890625
5840		82.031250
5841		85.937500
5842		80.078125
5843		83.984375
5844		78.125000
5845		82.031250
5846		76.171875
5847		80.078125
5848		74.218750
5849		78.125000
5850		70.312500
5851		74.218750
5852		68.359375
5853		72.265625
5854		64.453125
5855		68.359375
5856		62.500000
5857		66.406250
5858		58.593750
5859		62.500000
5860		54.687500
5861		58.593750
5862		50.781250
5863		56.640625
5864		46.875000
5865		52.734375
5866		42.968750
5867		48.828125
5868		39.062500
5869		44.921875
5870		35.156250
5871		41.015625
5872		31.250000
5873		37.109375
5874		25.390625
5875		31.250000
5876		21.484375
5877		27.343750
5878		15.625000
5879		23.437500
5880		13.671875
5881		19.531250
5882		9.765625
5883		13.671875
5884		3.906250
5885		9.765625
5886		0.000000
5887		5.859375
5888		-3.906250
5889		1.953125
5890		-9.765625
5891		-3.906250
5892		-13.671875
5893		-7.812500
5894		-17.578125
5895		-13.671875
5896		-23.437500
5897		-15.625000
5898		-29.296875
5899		-21.484375
5900		-31.250000
5901		-25.390625
5902		-35.156250
5903		-29.296875
5904		-39.062500
5905		-35.156250
5906		-42.968750
5907		-39.062500
5908		-46.875000
5909		-41.015625
5910		-50.781250
5911		-46.875000
5912		-54.687500
5913		-48.828125
5914		-58.593750
5915		-54.687500
5916		-62.500000
5917		-54.687500
5918		-64.453125
5919		-60.546875
5920		-68.359375
5921		-64.453125
5922		-70.312500
5923		-64.453125
5924		-74.218750
5925		-68.359375
5926		-76.171875
5927		-72.265625
5928		-80.078125
5929		-74.218750
5930		-80.078125
5931		-76.171875
5932		-82.031250
5933		-78.125000
5934		-82.031250
5935		-80.078125
5936		-83.984375
5937		-82.031250
5938		-85.937500
5939		-82.031250
5940		-87.890625
5941		-80.078125
5942		-87.890625
5943		-82.031250
5944		-87.890625
5945		-83.984375
5946		-87.890625
5947		-82.031250
5948		-87.890625
5949		-83.984375
5950		-89.843750
5951		-82.031250
5952		-85.937500
5953		-83.984375
5954		-85.937500
5955		-82.031250
5956		-85.937500
5957		-78.125000
5958		-83.984375
5959		-78.125000
5960		-82.031250
5961		-78.125000
5962		-80.078125
5963		-72.265625
5964		-80.078125
5965		-72.265625
5966		-78.125000
5967		-68.359375
5968		-72.265625
5969		-68.359375
5970		-70.312500
5971		-66.406250
5972		-68.359375
5973		-62.500000
5974		-66.406250
5975		-58.593750
5976		-62.500000
5977		-56.640625
5978		-60.546875
5979		-52.734375
5980		-56.640625
5981		-46.875000
5982		-50.781250
5983		-42.968750
5984		-46.875000
5985		-41.015625
5986		-42.968750
5987		-37.109375
5988		-39.062500
5989		-33.203125
5990		-37.109375
5991		-27.343750
5992		-31.250000
5993		-25.390625
5994		-27.343750
5995		-21.484375
5996		-23.437500
5997		-13.671875
5998		-19.531250
5999		-11.718750
6000		-17.578125
6001		-5.859375
6002		-7.812500
6003		-3.906250
6004		-3.906250
6005		3.906250
6006		0.000000
6007		9.765625
6008		1.953125
6009		11.718750
6010		7.812500
6011		15.625000
6012		13.671875
6013		19.531250
6014		15.625000
6015		25.390625
6016		21.484375
6017		31.250000
6018		27.343750
6019		33.203125
6020		31.250000
6021		37.109375
6022		35.156250
6023		41.015625
6024		37.109375
6025		46.875000
6026		41.015625
6027		48.828125
6028		46.875000
6029		52.734375
6030		48.828125
6031		60.546875
6032		50.781250
6033		60.546875
6034		54.687500
6035		62.500000
6036		60.546875
6037		66.406250
6038		64.453125
6039		70.312500
6040		66.406250
6041		76.171875
6042		70.312500
6043		76.171875
6044		72.265625
6045		76.171875
6046		76.171875
6047		82.031250
6048		74.218750
6049		83.984375
6050		78.125000
6051		85.937500
6052		82.031250
6053		85.937500
6054		83.984375
6055		87.890625
6056		83.984375
6057		89.843750
6058		83.984375
6059		93.750000
6060		87.890625
6061		91.796875
6062		87.890625
6063		93.750000
6064		87.890625
6065		95.703125
6066		89.843750
6067		97.656250
6068		91.796875
6069		93.750000
6070		91.796875
6071		93.750000
6072		91.796875
6073		95.703125
6074		89.843750
6075		97.656250
6076		89.843750
6077		95.703125
6078		91.796875
6079		93.750000
6080		87.890625
6081		95.703125
6082		85.937500
6083		95.703125
6084		85.937500
6085		93.750000
6086		85.937500
6087		89.843750
6088		83.984375
6089		87.890625
6090		80.078125
6091		87.890625
6092		80.078125
6093		87.890625
6094		80.078125
6095		83.984375
6096		76.171875
6097		82.031250
6098		72.265625
6099		82.031250
6100		70.312500
6101		78.125000
6102		70.312500
6103		74.218750
6104		66.406250
6105		70.312500
6106		62.500000
6107		68.359375
6108		58.593750
6109		68.359375
6110		56.640625
6111		62.500000
6112		52.734375
6113		58.593750
6114		46.875000
6115		56.640625
6116		44.921875
6117		54.687500
6118		41.015625
6119		50.781250
6120		37.109375
6121		42.968750
6122		33.203125
6123		39.062500
6124		27.343750
6125		35.156250
6126		25.390625
6127		31.250000
6128		21.484375
6129		25.390625
6130		13.671875
6131		21.484375
6132		11.718750
6133		21.484375
6134		7.812500
6135		13.671875
6136		1.953125
6137		7.812500
6138		-1.953125
6139		3.906250
6140		-7.812500
6141		0.000000
6142		-13.671875
6143		-1.953125
6144		-15.625000
6145		-9.765625
6146		-21.484375
6147		-13.671875
6148		-25.390625
6149		-17.578125
6150		-31.250000
6151		-23.437500
6152		-33.203125
6153		-27.343750
6154		-37.109375
6155		-31.250000
6156		-41.015625
6157		-35.156250
6158		-48.828125
6159		-39.062500
6160		-48.828125
6161		-42.968750
6162		-52.734375
6163		-46.875000
6164		-58.593750
6165		-50.781250
6166		-60.546875
6167		-54.687500
6168		-62.500000
6169		-58.593750
6170		-66.406250
6171		-62.500000
6172		-68.359375
6173		-64.453125
6174		-72.265625
6175		-66.406250
6176		-74.218750
6177		-68.359375
6178		-76.171875
6179		-72.265625
6180		-80.078125
6181		-74.218750
6182		-82.031250
6183		-74.218750
6184		-82.031250
6185		-78.125000
6186		-83.984375
6187		-80.078125
6188		-83.984375
6189		-82.031250
6190		-85.937500
6191		-83.984375
6192		-85.937500
6193		-83.984375
6194		-85.937500
6195		-83.984375
6196		-87.890625
6197		-85.937500
6198		-87.890625
6199		-85.937500
6200		-87.890625
6201		-83.984375
6202		-85.937500
6203		-83.984375
6204		-85.937500
6205		-83.984375
6206		-85.937500
6207		-82.031250
6208		-83.984375
6209		-82.031250
6210		-82.031250
6211		-80.078125
6212		-80.078125
6213		-78.125000
6214		-80.078125
6215		-76.171875
6216		-78.125000
6217		-74.218750
6218		-74.218750
6219		-70.312500
6220		-72.265625
6221		-68.359375
6222		-70.312500
6223		-66.406250
6224		-68.359375
6225		-62.500000
6226		-64.453125
6227		-58.593750
6228		-62.500000
6229		-54.687500
6230		-58.593750
6231		-50.781250
6232		-54.687500
6233		-48.828125
6234		-50.781250
6235		-42.968750
6236		-46.875000
6237		-41.015625
6238		-42.968750
6239		-37.109375
6240		-39.062500
6241		-31.250000
6242		-35.156250
6243		-27.343750
6244		-31.250000
6245		-23.437500
6246		-25.390625
6247		-17.578125
6248		-21.484375
6249		-13.671875
6250		-17.578125
6251		-9.765625
6252		-11.718750
6253		-5.859375
6254		-7.812500
6255		-1.953125
6256		-3.906250
6257		3.906250
6258		0.000000
6259		7.812500
6260		3.906250
6261		13.671875
6262		9.765625
6263		17.578125
6264		13.671875
6265		21.484375
6266		17.578125
6267		25.390625
6268		21.484375
6269		31.250000
6270		27.343750
6271		33.203125
6272		31.250000
6273		37.109375
6274		35.156250
6275		42.968750
6276		39.062500
6277		46.875000
6278		42.968750
6279		50.781250
6280		46.875000
6281		54.687500
6282		50.781250
6283		56.640625
6284		54.687500
6285		60.546875
6286		58.593750
6287		62.500000
6288		62.500000
6289		66.406250
6290		64.453125
6291		70.312500
6292		66.406250
6293		72.265625
6294		70.312500
6295		76.171875
6296		72.265625
6297		78.125000
6298		76.171875
6299		80.078125
6300		78.125000
6301		82.031250
6302		80.078125
6303		83.984375
6304		82.031250
6305		85.937500
6306		83.984375
6307		87.890625
6308		85.937500
6309		89.843750
6310		85.937500
6311		91.796875
6312		87.890625
6313		91.796875
6314		87.890625
6315		93.750000
6316		89.843750
6317		93.750000
6318		89.843750
6319		93.750000
6320		89.843750
6321		95.703125
6322		91.796875
6323		93.750000
6324		91.796875
6325		95.703125
6326		89.843750
6327		95.703125
6328		89.843750
6329		95.703125
6330		87.890625
6331		95.703125
6332		89.843750
6333		93.750000
6334		87.890625
6335		91.796875
6336		87.890625
6337		91.796875
6338		85.937500
6339		89.843750
6340		83.984375
6341		87.890625
6342		83.984375
6343		87.890625
6344		80.078125
6345		85.937500
6346		76.171875
6347		83.984375
6348		76.171875
6349		82.031250
6350		74.218750
6351		78.125000
6352		70.312500
6353		76.171875
6354		68.359375
6355		74.218750
6356		66.406250
6357		70.312500
6358		62.500000
6359		66.406250
6360		58.593750
6361		64.453125
6362		54.687500
6363		60.546875
6364		52.734375
6365		58.593750
6366		48.828125
6367		54.687500
6368		44.921875
6369		50.781250
6370		41.015625
6371		46.875000
6372		37.109375
6373		42.968750
6374		33.203125
6375		37.109375
6376		27.343750
6377		35.156250
6378		23.437500
6379		29.296875
6380		17.578125
6381		25.390625
6382		15.625000
6383		21.484375
6384		11.718750
6385		17.578125
6386		5.859375
6387		11.718750
6388		1.953125
6389		7.812500
6390		-1.953125
6391		1.953125
6392		-7.812500
6393		-1.953125
6394		-11.718750
6395		-5.859375
6396		-15.625000
6397		-9.765625
6398		-21.484375
6399		-13.671875
6400		-25.390625
6401		-19.531250
6402		-29.296875
6403		-23.437500
6404		-33.203125
6405		-27.343750
6406		-39.062500
6407		-33.203125
6408		-42.968750
6409		-37.109375
6410		-46.875000
6411		-41.015625
6412		-50.781250
6413		-44.921875
6414		-54.687500
6415		-48.828125
6416		-56.640625
6417		-52.734375
6418		-60.546875
6419		-54.687500
6420		-64.453125
6421		-58.593750
6422		-66.406250
6423		-62.500000
6424		-70.312500
6425		-64.453125
6426		-72.265625
6427		-66.406250
6428		-76.171875
6429		-70.312500
6430		-78.125000
6431		-72.265625
6432		-80.078125
6433		-74.218750
6434		-82.031250
6435		-76.171875
6436		-83.984375
6437		-78.125000
6438		-83.984375
6439		-80.078125
6440		-83.984375
6441		-82.031250
6442		-85.937500
6443		-82.031250
6444		-85.937500
6445		-83.984375
6446		-87.890625
6447		-83.984375
6448		-87.890625
6449		-83.984375
6450		-87.890625
6451		-83.984375
6452		-87.890625
6453		-83.984375
6454		-87.890625
6455		-83.984375
6456		-85.937500
6457		-83.984375
6458		-83.984375
6459		-82.031250
6460		-83.984375
6461		-80.078125
6462		-82.031250
6463		-78.125000
6464		-82.031250
6465		-76.171875
6466		-80.078125
6467		-76.171875
6468		-78.125000
6469		-72.265625
6470		-74.218750
6471		-70.312500
6472		-72.265625
6473		-68.359375
6474		-70.312500
6475		-64.453125
6476		-66.406250
6477		-62.500000
6478		-64.453125
6479		-58.593750
6480		-60.546875
6481		-54.687500
6482		-56.640625
6483		-50.781250
6484		-52.734375
6485		-48.828125
6486		-48.828125
6487		-42.968750
6488		-44.921875
6489		-41.015625
6490		-41.015625
6491		-35.156250
6492		-37.109375
6493		-31.250000
6494		-33.203125
6495		-27.343750
6496		-29.296875
6497		-23.437500
6498		-25.390625
6499		-19.531250
6500		-21.484375
6501		-13.671875
6502		-15.625000
6503		-9.765625
6504		-11.718750
6505		-5.859375
6506		-5.859375
6507		0.000000
6508		-1.953125
6509		3.906250
6510		0.000000
6511		7.812500
6512		5.859375
6513		13.671875
6514		11.718750
6515		17.578125
6516		15.625000
6517		21.484375
6518		19.531250
6519		25.390625
6520		25.390625
6521		31.250000
6522		27.343750
6523		35.156250
6524		33.203125
6525		39.062500
6526		37.109375
6527		42.968750
6528		41.015625
6529		46.875000
6530		44.921875
6531		50.781250
6532		48.828125
6533		54.687500
6534		52.734375
6535		58.593750
6536		54.687500
6537		60.546875
6538		58.593750
6539		64.453125
6540		62.500000
6541		68.359375
6542		66.406250
6543		70.312500
6544		68.359375
6545		74.218750
6546		72.265625
6547		76.171875
6548		74.218750
6549		78.125000
6550		76.171875
6551		80.078125
6552		78.125000
6553		82.031250
6554		80.078125
6555		85.937500
6556		82.031250
6557		85.937500
6558		83.984375
6559		87.890625
6560		85.937500
6561		89.843750
6562		87.890625
6563		91.796875
6564		87.890625
6565		91.796875
6566		89.843750
6567		93.750000
6568		89.843750
6569		93.750000
6570		91.796875
6571		93.750000
6572		89.843750
6573		95.703125
6574		91.796875
6575		93.750000
6576		91.796875
6577		95.703125
6578		91.796875
6579		93.750000
6580		89.843750
6581		93.750000
6582		91.796875
6583		93.750000
6584		89.843750
6585		93.750000
6586		87.890625
6587		91.796875
6588		85.937500
6589		91.796875
6590		85.937500
6591		89.843750
6592		83.984375
6593		87.890625
6594		82.031250
6595		87.890625
6596		80.078125
6597		85.937500
6598		78.125000
6599		82.031250
6600		76.171875
6601		80.078125
6602		74.218750
6603		78.125000
6604		70.312500
6605		76.171875
6606		68.359375
6607		74.218750
6608		64.453125
6609		70.312500
6610		62.500000
6611		66.406250
6612		58.593750
6613		64.453125
6614		54.687500
6615		60.546875
6616		50.781250
6617		56.640625
6618		48.828125
6619		52.734375
6620		42.968750
6621		48.828125
6622		41.015625
6623		44.921875
6624		35.156250
6625		41.015625
6626		31.250000
6627		37.109375
6628		27.343750
6629		33.203125
6630		23.437500
6631		29.296875
6632		19.531250
6633		25.390625
6634		13.671875
6635		21.484375
6636		9.765625
6637		17.578125
6638		5.859375
6639		11.718750
6640		0.000000
6641		5.859375
6642		-3.906250
6643		1.953125
6644		-9.765625
6645		-1.953125
6646		-13.671875
6647		-7.812500
6648		-17.578125
6649		-11.718750
6650		-21.484375
6651		-15.625000
6652		-27.343750
6653		-19.531250
6654		-31.250000
6655		-25.390625
6656		-35.156250
6657		-29.296875
6658		-39.062500
6659		-33.203125
6660		-42.968750
6661		-37.109375
6662		-46.875000
6663		-41.015625
6664		-50.781250
6665		-44.921875
6666		-54.687500
6667		-48.828125
6668		-58.593750
6669		-52.734375
6670		-60.546875
6671		-56.640625
6672		-64.453125
6673		-60.546875
6674		-68.359375
6675		-62.500000
6676		-70.312500
6677		-66.406250
6678		-74.218750
6679		-66.406250
6680		-76.171875
6681		-70.312500
6682		-78.125000
6683		-74.218750
6684		-80.078125
6685		-76.171875
6686		-82.031250
6687		-78.125000
6688		-82.031250
6689		-78.125000
6690		-83.984375
6691		-80.078125
6692		-85.937500
6693		-82.031250
6694		-87.890625
6695		-82.031250
6696		-87.890625
6697		-83.984375
6698		-87.890625
6699		-83.984375
6700		-87.890625
6701		-83.984375
6702		-87.890625
6703		-83.984375
6704		-87.890625
6705		-83.984375
6706		-87.890625
6707		-83.984375
6708		-85.937500
6709		-82.031250
6710		-83.984375
6711		-80.078125
6712		-83.984375
6713		-80.078125
6714		-82.031250
6715		-78.125000
6716		-80.078125
6717		-76.171875
6718		-78.125000
6719		-74.218750
6720		-76.171875
6721		-72.265625
6722		-74.218750
6723		-68.359375
6724		-72.265625
6725		-68.359375
6726		-70.312500
6727		-64.453125
6728		-66.406250
6729		-60.546875
6730		-62.500000
6731		-58.593750
6732		-60.546875
6733		-54.687500
6734		-56.640625
6735		-50.781250
6736		-52.734375
6737		-46.875000
6738		-48.828125
6739		-42.968750
6740		-44.921875
6741		-39.062500
6742		-41.015625
6743		-35.156250
6744		-37.109375
6745		-31.250000
6746		-33.203125
6747		-27.343750
6748		-27.343750
6749		-21.484375
6750		-23.437500
6751		-17.578125
6752		-19.531250
6753		-13.671875
6754		-15.625000
6755		-9.765625
6756		-9.765625
6757		-3.906250
6758		-5.859375
6759		0.000000
6760		-1.953125
6761		3.906250
6762		1.953125
6763		9.765625
6764		7.812500
6765		13.671875
6766		11.718750
6767		17.578125
6768		15.625000
6769		21.484375
6770		21.484375
6771		27.343750
6772		25.390625
6773		31.250000
6774		29.296875
6775		35.156250
6776		33.203125
6777		39.062500
6778		37.109375
6779		42.968750
6780		41.015625
6781		46.875000
6782		44.921875
6783		50.781250
6784		48.828125
6785		54.687500
6786		52.734375
6787		58.593750
6788		56.640625
6789		60.546875
6790		58.593750
6791		64.453125
6792		62.500000
6793		68.359375
6794		66.406250
6795		72.265625
6796		68.359375
6797		74.218750
6798		72.265625
6799		76.171875
6800		74.218750
6801		78.125000
6802		76.171875
6803		80.078125
6804		78.125000
6805		83.984375
6806		80.078125
6807		85.937500
6808		83.984375
6809		85.937500
6810		83.984375
6811		87.890625
6812		85.937500
6813		89.843750
6814		87.890625
6815		91.796875
6816		87.890625
6817		91.796875
6818		89.843750
6819		91.796875
6820		89.843750
6821		93.750000
6822		91.796875
6823		93.750000
6824		89.843750
6825		93.750000
6826		91.796875
6827		93.750000
6828		89.843750
6829		95.703125
6830		91.796875
6831		93.750000
6832		89.843750
6833		93.750000
6834		89.843750
6835		93.750000
6836		87.890625
6837		91.796875
6838		87.890625
6839		91.796875
6840		87.890625
6841		89.843750
6842		85.937500
6843		89.843750
6844		83.984375
6845		87.890625
6846		82.031250
6847		85.937500
6848		78.125000
6849		83.984375
6850		78.125000
6851		82.031250
6852		74.218750
6853		80.078125
6854		72.265625
6855		76.171875
6856		70.312500
6857		74.218750
6858		66.406250
6859		72.265625
6860		64.453125
6861		68.359375
6862		60.546875
6863		64.453125
6864		56.640625
6865		62.500000
6866		54.687500
6867		58.593750
6868		50.781250
6869		54.687500
6870		46.875000
6871		50.781250
6872		42.968750
6873		48.828125
6874		39.062500
6875		42.968750
6876		35.156250
6877		41.015625
6878		29.296875
6879		35.156250
6880		25.390625
6881		31.250000
6882		21.484375
6883		27.343750
6884		17.578125
6885		23.437500
6886		13.671875
6887		19.531250
6888		7.812500
6889		13.671875
6890		3.906250
6891		9.765625
6892		0.000000
6893		5.859375
6894		-5.859375
6895		0.000000
6896		-9.765625
6897		-3.906250
6898		-13.671875
6899		-7.812500
6900		-19.531250
6901		-11.718750
6902		-23.437500
6903		-17.578125
6904		-27.343750
6905		-21.484375
6906		-31.250000
6907		-25.390625
6908		-37.109375
6909		-29.296875
6910		-41.015625
6911		-35.156250
6912		-44.921875
6913		-39.062500
6914		-48.828125
6915		-42.968750
6916		-52.734375
6917		-46.875000
6918		-56.640625
6919		-50.781250
6920		-60.546875
6921		-54.687500
6922		-62.500000
6923		-58.593750
6924		-66.406250
6925		-60.546875
6926		-68.359375
6927		-64.453125
6928		-72.265625
6929		-68.359375
6930		-74.218750
6931		-70.312500
6932		-76.171875
6933		-72.265625
6934		-78.125000
6935		-74.218750
6936		-82.031250
6937		-76.171875
6938		-82.031250
6939		-78.125000
6940		-83.984375
6941		-80.078125
6942		-85.937500
6943		-80.078125
6944		-85.937500
6945		-83.984375
6946		-87.890625
6947		-83.984375
6948		-87.890625
6949		-83.984375
6950		-87.890625
6951		-83.984375
6952		-87.890625
6953		-83.984375
6954		-87.890625
6955		-83.984375
6956		-87.890625
6957		-83.984375
6958		-87.890625
6959		-83.984375
6960		-85.937500
6961		-83.984375
6962		-85.937500
6963		-80.078125
6964		-83.984375
6965		-80.078125
6966		-82.031250
6967		-78.125000
6968		-80.078125
6969		-76.171875
6970		-78.125000
6971		-74.218750
6972		-76.171875
6973		-72.265625
6974		-74.218750
6975		-68.359375
6976		-72.265625
6977		-66.406250
6978		-68.359375
6979		-64.453125
6980		-66.406250
6981		-60.546875
6982		-62.500000
6983		-56.640625
6984		-58.593750
6985		-52.734375
6986		-56.640625
6987		-50.781250
6988		-52.734375
6989		-46.875000
6990		-48.828125
6991		-42.968750
6992		-44.921875
6993		-39.062500
6994		-41.015625
6995		-35.156250
6996		-35.156250
6997		-29.296875
6998		-33.203125
6999		-25.390625
7000		-27.343750
7001		-21.484375
7002		-23.437500
7003		-17.578125
7004		-19.531250
7005		-11.718750
7006		-13.671875
7007		-7.812500
7008		-9.765625
7009		-3.906250
7010		-5.859375
7011		0.000000
7012		0.000000
7013		5.859375
7014		3.906250
7015		9.765625
7016		7.812500
7017		13.671875
7018		11.718750
7019		19.531250
7020		17.578125
7021		23.437500
7022		21.484375
7023		27.343750
7024		25.390625
7025		31.250000
7026		29.296875
7027		35.156250
7028		33.203125
7029		39.062500
7030		39.062500
7031		42.968750
7032		42.968750
7033		46.875000
7034		44.921875
7035		52.734375
7036		50.781250
7037		56.640625
7038		52.734375
7039		58.593750
7040		56.640625
7041		62.500000
7042		60.546875
7043		64.453125
7044		62.500000
7045		68.359375
7046		66.406250
7047		70.312500
7048		68.359375
7049		74.218750
7050		72.265625
7051		76.171875
7052		74.218750
7053		78.125000
7054		76.171875
7055		82.031250
7056		78.125000
7057		83.984375
7058		82.031250
7059		85.937500
7060		83.984375
7061		85.937500
7062		85.937500
7063		87.890625
7064		85.937500
7065		89.843750
7066		87.890625
7067		89.843750
7068		87.890625
7069		91.796875
7070		89.843750
7071		91.796875
7072		89.843750
7073		93.750000
7074		91.796875
7075		93.750000
7076		89.843750
7077		93.750000
7078		91.796875
7079		93.750000
7080		89.843750
7081		93.750000
7082		89.843750
7083		93.750000
7084		89.843750
7085		93.750000
7086		89.843750
7087		91.796875
7088		87.890625
7089		91.796875
7090		87.890625
7091		91.796875
7092		85.937500
7093		89.843750
7094		83.984375
7095		87.890625
7096		83.984375
7097		85.937500
7098		80.078125
7099		85.937500
7100		78.125000
7101		83.984375
7102		76.171875
7103		80.078125
7104		72.265625
7105		78.125000
7106		72.265625
7107		76.171875
7108		68.359375
7109		74.218750
7110		66.406250
7111		70.312500
7112		62.500000
7113		68.359375
7114		58.593750
7115		64.453125
7116		56.640625
7117		60.546875
7118		52.734375
7119		58.593750
7120		48.828125
7121		54.687500
7122		44.921875
7123		50.781250
7124		41.015625
7125		46.875000
7126		37.109375
7127		42.968750
7128		33.203125
7129		39.062500
7130		29.296875
7131		35.156250
7132		25.390625
7133		31.250000
7134		19.531250
7135		25.390625
7136		15.625000
7137		21.484375
7138		11.718750
7139		17.578125
7140		5.859375
7141		13.671875
7142		0.000000
7143		7.812500
7144		-1.953125
7145		3.906250
7146		-7.812500
7147		0.000000
7148		-11.718750
7149		-5.859375
7150		-15.625000
7151		-9.765625
7152		-19.531250
7153		-13.671875
7154		-25.390625
7155		-19.531250
7156		-29.296875
7157		-23.437500
7158		-33.203125
7159		-27.343750
7160		-37.109375
7161		-31.250000
7162		-41.015625
7163		-37.109375
7164		-46.875000
7165		-41.015625
7166		-50.781250
7167		-42.968750
7168		-52.734375
7169		-48.828125
7170		-56.640625
7171		-50.781250
7172		-60.546875
7173		-56.640625
7174		-64.453125
7175		-58.593750
7176		-66.406250
7177		-62.500000
7178		-70.312500
7179		-66.406250
7180		-72.265625
7181		-68.359375
7182		-74.218750
7183		-70.312500
7184		-78.125000
7185		-74.218750
7186		-80.078125
7187		-76.171875
7188		-82.031250
7189		-78.125000
7190		-83.984375
7191		-80.078125
7192		-85.937500
7193		-80.078125
7194		-85.937500
7195		-82.031250
7196		-87.890625
7197		-83.984375
7198		-87.890625
7199		-83.984375
7200		-87.890625
7201		-85.937500
7202		-87.890625
7203		-85.937500
7204		-87.890625
7205		-85.937500
7206		-87.890625
7207		-85.937500
7208		-87.890625
7209		-83.984375
7210		-87.890625
7211		-83.984375
7212		-85.937500
7213		-83.984375
7214		-85.937500
7215		-82.031250
7216		-83.984375
7217		-80.078125
7218		-82.031250
7219		-78.125000
7220		-80.078125
7221		-76.171875
7222		-78.125000
7223		-74.218750
7224		-76.171875
7225		-72.265625
7226		-74.218750
7227		-68.359375
7228		-72.265625
7229		-66.406250
7230		-68.359375
7231		-64.453125
7232		-64.453125
7233		-60.546875
7234		-62.500000
7235		-56.640625
7236		-58.593750
7237		-54.687500
7238		-54.687500
7239		-50.781250
7240		-50.781250
7241		-46.875000
7242		-48.828125
7243		-42.968750
7244		-42.968750
7245		-39.062500
7246		-39.062500
7247		-35.156250
7248		-35.156250
7249		-29.296875
7250		-31.250000
7251		-25.390625
7252		-27.343750
7253		-21.484375
7254		-23.437500
7255		-15.625000
7256		-17.578125
7257		-11.718750
7258		-13.671875
7259		-7.812500
7260		-9.765625
7261		-1.953125
7262		-3.906250
7263		1.953125
7264		0.000000
7265		5.859375
7266		3.906250
7267		11.718750
7268		9.765625
7269		15.625000
7270		13.671875
7271		19.531250
7272		17.578125
7273		23.437500
7274		21.484375
7275		27.343750
7276		27.343750
7277		31.250000
7278		31.250000
7279		37.109375
7280		35.156250
7281		41.015625
7282		39.062500
7283		44.921875
7284		42.968750
7285		48.828125
7286		46.875000
7287		52.734375
7288		50.781250
7289		54.687500
7290		52.734375
7291		58.593750
7292		56.640625
7293		62.500000
7294		60.546875
7295		66.406250
7296		64.453125
7297		68.359375
7298		66.406250
7299		72.265625
7300		68.359375
7301		74.218750
7302		72.265625
7303		76.171875
7304		74.218750
7305		80.078125
7306		78.125000
7307		82.031250
7308		80.078125
7309		83.984375
7310		80.078125
7311		85.937500
7312		83.984375
7313		85.937500
7314		85.937500
7315		87.890625
7316		85.937500
7317		89.843750
7318		87.890625
7319		91.796875
7320		89.843750
7321		91.796875
7322		89.843750
7323		91.796875
7324		89.843750
7325		93.750000
7326		89.843750
7327		93.750000
7328		89.843750
7329		93.750000
7330		91.796875
7331		93.750000
7332		89.843750
7333		93.750000
7334		89.843750
7335		93.750000
7336		89.843750
7337		93.750000
7338		89.843750
7339		91.796875
7340		87.890625
7341		91.796875
7342		85.937500
7343		91.796875
7344		83.984375
7345		89.843750
7346		83.984375
7347		87.890625
7348		82.031250
7349		85.937500
7350		80.078125
7351		83.984375
7352		78.125000
7353		82.031250
7354		76.171875
7355		80.078125
7356		74.218750
7357		78.125000
7358		70.312500
7359		76.171875
7360		68.359375
7361		72.265625
7362		64.453125
7363		70.312500
7364		62.500000
7365		66.406250
7366		58.593750
7367		64.453125
7368		54.687500
7369		60.546875
7370		50.781250
7371		56.640625
7372		48.828125
7373		54.687500
7374		44.921875
7375		50.781250
7376		41.015625
7377		44.921875
7378		35.156250
7379		42.968750
7380		31.250000
7381		37.109375
7382		27.343750
7383		33.203125
7384		23.437500
7385		29.296875
7386		17.578125
7387		25.390625
7388		15.625000
7389		19.531250
7390		9.765625
7391		15.625000
7392		5.859375
7393		11.718750
7394		1.953125
7395		7.812500
7396		-3.906250
7397		3.906250
7398		-7.812500
7399		-1.953125
7400		-11.718750
7401		-5.859375
7402		-17.578125
7403		-11.718750
7404		-21.484375
7405		-15.625000
7406		-25.390625
7407		-19.531250
7408		-29.296875
7409		-23.437500
7410		-35.156250
7411		-29.296875
7412		-39.062500
7413		-33.203125
7414		-42.968750
7415		-37.109375
7416		-46.875000
7417		-41.015625
7418		-50.781250
7419		-44.921875
7420		-54.687500
7421		-48.828125
7422		-58.593750
7423		-52.734375
7424		-60.546875
7425		-56.640625
7426		-64.453125
7427		-58.593750
7428		-68.359375
7429		-62.500000
7430		-70.312500
7431		-66.406250
7432		-72.265625
7433		-68.359375
7434		-76.171875
7435		-70.312500
7436		-78.125000
7437		-74.218750
7438		-80.078125
7439		-76.171875
7440		-82.031250
7441		-78.125000
7442		-83.984375
7443		-78.125000
7444		-83.984375
7445		-82.031250
7446		-85.937500
7447		-82.031250
7448		-85.937500
7449		-83.984375
7450		-87.890625
7451		-83.984375
7452		-87.890625
7453		-83.984375
7454		-87.890625
7455		-85.937500
7456		-89.843750
7457		-85.937500
7458		-87.890625
7459		-83.984375
7460		-87.890625
7461		-83.984375
7462		-87.890625
7463		-83.984375
7464		-85.937500
7465		-82.031250
7466		-83.984375
7467		-82.031250
7468		-83.984375
7469		-80.078125
7470		-82.031250
7471		-78.125000
7472		-80.078125
7473		-76.171875
7474		-78.125000
7475		-72.265625
7476		-76.171875
7477		-72.265625
7478		-72.265625
7479		-68.359375
7480		-70.312500
7481		-66.406250
7482		-68.359375
7483		-62.500000
7484		-64.453125
7485		-60.546875
7486		-60.546875
7487		-54.687500
7488		-56.640625
7489		-52.734375
7490		-54.687500
7491		-48.828125
7492		-50.781250
7493		-44.921875
7494		-46.875000
7495		-41.015625
7496		-42.968750
7497		-37.109375
7498		-39.062500
7499		-33.203125
7500		-33.203125
7501		-27.343750
7502		-29.296875
7503		-23.437500
7504		-25.390625
7505		-19.531250
7506		-21.484375
7507		-15.625000
7508		-15.625000
7509		-11.718750
7510		-11.718750
7511		-5.859375
7512		-7.812500
7513		0.000000
7514		-3.906250
7515		3.906250
7516		1.953125
7517		7.812500
7518		5.859375
7519		11.718750
7520		9.765625
7521		15.625000
7522		15.625000
7523		21.484375
7524		19.531250
7525		25.390625
7526		23.437500
7527		29.296875
7528		27.343750
7529		33.203125
7530		33.203125
7531		37.109375
7532		37.109375
7533		41.015625
7534		41.015625
7535		46.875000
7536		42.968750
7537		48.828125
7538		48.828125
7539		52.734375
7540		50.781250
7541		56.640625
7542		54.687500
7543		60.546875
7544		58.593750
7545		62.500000
7546		60.546875
7547		66.406250
7548		64.453125
7549		70.312500
7550		68.359375
7551		72.265625
7552		70.312500
7553		76.171875
7554		74.218750
7555		78.125000
7556		76.171875
7557		80.078125
7558		78.125000
7559		82.031250
7560		80.078125
7561		83.984375
7562		82.031250
7563		85.937500
7564		82.031250
7565		87.890625
7566		85.937500
7567		87.890625
7568		85.937500
7569		91.796875
7570		87.890625
7571		91.796875
7572		89.843750
7573		93.750000
7574		89.843750
7575		93.750000
7576		89.843750
7577		93.750000
7578		89.843750
7579		93.750000
7580		89.843750
7581		93.750000
7582		91.796875
7583		93.750000
7584		89.843750
7585		93.750000
7586		89.843750
7587		93.750000
7588		89.843750
7589		93.750000
7590		89.843750
7591		91.796875
7592		87.890625
7593		91.796875
7594		87.890625
7595		89.843750
7596		85.937500
7597		89.843750
7598		83.984375
7599		87.890625
7600		82.031250
7601		85.937500
7602		80.078125
7603		83.984375
7604		78.125000
7605		83.984375
7606		76.171875
7607		80.078125
7608		74.218750
7609		78.125000
7610		70.312500
7611		76.171875
7612		68.359375
7613		72.265625
7614		64.453125
7615		70.312500
7616		62.500000
7617		66.406250
7618		56.640625
7619		64.453125
7620		54.687500
7621		60.546875
7622		50.781250
7623		56.640625
7624		46.875000
7625		52.734375
7626		42.968750
7627		50.781250
7628		39.062500
7629		44.921875
7630		35.156250
7631		41.015625
7632		31.250000
7633		37.109375
7634		27.343750
7635		33.203125
7636		23.437500
7637		29.296875
7638		19.531250
7639		25.390625
7640		13.671875
7641		21.484375
7642		7.812500
7643		15.625000
7644		5.859375
7645		11.718750
7646		0.000000
7647		5.859375
7648		-3.906250
7649		1.953125
7650		-7.812500
7651		-1.953125
7652		-13.671875
7653		-7.812500
7654		-17.578125
7655		-11.718750
7656		-21.484375
7657		-15.625000
7658		-27.343750
7659		-19.531250
7660		-31.250000
7661		-25.390625
7662		-35.156250
7663		-29.296875
7664		-39.062500
7665		-33.203125
7666		-42.968750
7667		-37.109375
7668		-46.875000
7669		-41.015625
7670		-50.781250
7671		-44.921875
7672		-54.687500
7673		-48.828125
7674		-58.593750
7675		-52.734375
7676		-62.500000
7677		-56.640625
7678		-64.453125
7679		-58.593750
7680		-68.359375
7681		-62.500000
7682		-70.312500
7683		-66.406250
7684		-72.265625
7685		-68.359375
7686		-76.171875
7687		-70.312500
7688		-78.125000
7689		-74.218750
7690		-80.078125
7691		-76.171875
7692		-82.031250
7693		-78.125000
7694		-83.984375
7695		-80.078125
7696		-85.937500
7697		-82.031250
7698		-85.937500
7699		-82.031250
7700		-85.937500
7701		-83.984375
7702		-87.890625
7703		-83.984375
7704		-87.890625
7705		-83.984375
7706		-87.890625
7707		-83.984375
7708		-87.890625
7709		-83.984375
7710		-87.890625
7711		-83.984375
7712		-87.890625
7713		-83.984375
7714		-85.937500
7715		-82.031250
7716		-85.937500
7717		-82.031250
7718		-83.984375
7719		-82.031250
7720		-83.984375
7721		-78.125000
7722		-80.078125
7723		-78.125000
7724		-80.078125
7725		-74.218750
7726		-76.171875
7727		-72.265625
7728		-74.218750
7729		-70.312500
7730		-72.265625
7731		-68.359375
7732		-70.312500
7733		-64.453125
7734		-66.406250
7735		-62.500000
7736		-62.500000
7737		-58.593750
7738		-60.546875
7739		-54.687500
7740		-56.640625
7741		-50.781250
7742		-52.734375
7743		-48.828125
7744		-48.828125
7745		-44.921875
7746		-44.921875
7747		-39.062500
7748		-41.015625
7749		-35.156250
7750		-37.109375
7751		-31.250000
7752		-33.203125
7753		-27.343750
7754		-31.250000
7755		-23.437500
7756		-25.390625
7757		-17.578125
7758		-19.531250
7759		-13.671875
7760		-15.625000
7761		-9.765625
7762		-11.718750
7763		-3.906250
7764		-5.859375
7765		0.000000
7766		-3.906250
7767		3.906250
7768		1.953125
7769		7.812500
7770		7.812500
7771		11.718750
7772		11.718750
7773		17.578125
7774		15.625000
7775		21.484375
7776		19.531250
7777		25.390625
7778		25.390625
7779		31.250000
7780		27.343750
7781		35.156250
7782		33.203125
7783		39.062500
7784		37.109375
7785		42.968750
7786		41.015625
7787		46.875000
7788		44.921875
7789		50.781250
7790		48.828125
7791		54.687500
7792		52.734375
7793		56.640625
7794		54.687500
7795		60.546875
7796		58.593750
7797		64.453125
7798		62.500000
7799		68.359375
7800		66.406250
7801		70.312500
7802		68.359375
7803		72.265625
7804		70.312500
7805		76.171875
7806		74.218750
7807		78.125000
7808		76.171875
7809		80.078125
7810		78.125000
7811		82.031250
7812		80.078125
7813		83.984375
7814		82.031250
7815		85.937500
7816		83.984375
7817		87.890625
7818		85.937500
7819		89.843750
7820		87.890625
7821		91.796875
7822		87.890625
7823		91.796875
7824		89.843750
7825		91.796875
7826		89.843750
7827		93.750000
7828		89.843750
7829		93.750000
7830		91.796875
7831		93.750000
7832		89.843750
7833		95.703125
7834		91.796875
7835		93.750000
7836		91.796875
7837		93.750000
7838		89.843750
7839		93.750000
7840		89.843750
7841		93.750000
7842		89.843750
7843		91.796875
7844		87.890625
7845		91.796875
7846		85.937500
7847		89.843750
7848		83.984375
7849		89.843750
7850		83.984375
7851		87.890625
7852		82.031250
7853		85.937500
7854		80.078125
7855		83.984375
7856		76.171875
7857		82.031250
7858		76.171875
7859		80.078125
7860		72.265625
7861		78.125000
7862		70.312500
7863		74.218750
7864		66.406250
7865		72.265625
7866		64.453125
7867		68.359375
7868		60.546875
7869		66.406250
7870		56.640625
7871		62.500000
7872		54.687500
7873		58.593750
7874		50.781250
7875		56.640625
7876		46.875000
7877		52.734375
7878		42.968750
7879		48.828125
7880		39.062500
7881		44.921875
7882		35.156250
7883		41.015625
7884		31.250000
7885		37.109375
7886		25.390625
7887		31.250000
7888		21.484375
7889		27.343750
7890		17.578125
7891		23.437500
7892		13.671875
7893		19.531250
7894		7.812500
7895		13.671875
7896		3.906250
7897		9.765625
7898		0.000000
7899		5.859375
7900		-5.859375
7901		1.953125
7902		-9.765625
7903		-3.906250
7904		-13.671875
7905		-7.812500
7906		-19.531250
7907		-13.671875
7908		-23.437500
7909		-17.578125
7910		-27.343750
7911		-21.484375
7912		-31.250000
7913		-25.390625
7914		-37.109375
7915		-31.250000
7916		-41.015625
7917		-35.156250
7918		-44.921875
7919		-39.062500
7920		-48.828125
7921		-42.968750
7922		-52.734375
7923		-46.875000
7924		-56.640625
7925		-50.781250
7926		-58.593750
7927		-54.687500
7928		-62.500000
7929		-56.640625
7930		-66.406250
7931		-60.546875
7932		-68.359375
7933		-62.500000
7934		-72.265625
7935		-66.406250
7936		-74.218750
7937		-70.312500
7938		-76.171875
7939		-72.265625
7940		-80.078125
7941		-74.218750
7942		-82.031250
7943		-74.218750
7944		-82.031250
7945		-78.125000
7946		-83.984375
7947		-80.078125
7948		-85.937500
7949		-82.031250
7950		-85.937500
7951		-82.031250
7952		-85.937500
7953		-83.984375
7954		-87.890625
7955		-83.984375
7956		-87.890625
7957		-83.984375
7958		-89.843750
7959		-83.984375
7960		-87.890625
7961		-85.937500
7962		-89.843750
7963		-82.031250
7964		-87.890625
7965		-83.984375
7966		-87.890625
7967		-82.031250
7968		-83.984375
7969		-82.031250
7970		-83.984375
7971		-80.078125
7972		-83.984375
7973		-78.125000
7974		-83.984375
7975		-74.218750
7976		-80.078125
7977		-72.265625
7978		-78.125000
7979		-72.265625
7980		-76.171875
7981		-68.359375
7982		-72.265625
7983		-66.406250
7984		-72.265625
7985		-64.453125
7986		-66.406250
7987		-60.546875
7988		-62.500000
7989		-56.640625
7990		-60.546875
7991		-52.734375
7992		-58.593750
7993		-48.828125
7994		-54.687500
7995		-44.921875
7996		-48.828125
7997		-41.015625
7998		-44.921875
7999		-37.109375
8000		-41.015625
8001		-35.156250
8002		-37.109375
8003		-31.250000
8004		-31.250000
8005		-25.390625
8006		-29.296875
8007		-19.531250
8008		-23.437500
8009		-15.625000
8010		-19.531250
8011		-11.718750
8012		-15.625000
8013		-5.859375
8014		-11.718750
8015		-1.953125
8016		-7.812500
8017		1.953125
8018		-1.953125
8019		5.859375
8020		3.906250
8021		9.765625
8022		7.812500
8023		15.625000
8024		9.765625
8025		19.531250
8026		15.625000
8027		25.390625
8028		19.531250
8029		29.296875
8030		25.390625
8031		33.203125
8032		27.343750
8033		37.109375
8034		33.203125
8035		39.062500
8036		39.062500
8037		42.968750
8038		42.968750
8039		48.828125
8040		42.968750
8041		52.734375
8042		46.875000
8043		56.640625
8044		50.781250
8045		60.546875
8046		54.687500
8047		62.500000
8048		58.593750
8049		66.406250
8050		62.500000
8051		68.359375
8052		66.406250
8053		70.312500
8054		70.312500
8055		74.218750
8056		70.312500
8057		78.125000
8058		72.265625
8059		80.078125
8060		76.171875
8061		82.031250
8062		78.125000
8063		85.937500
8064		80.078125
8065		87.890625
8066		80.078125
8067		89.843750
8068		83.984375
8069		89.843750
8070		85.937500
8071		89.843750
8072		85.937500
8073		91.796875
8074		85.937500
8075		93.750000
8076		87.890625
8077		93.750000
8078		87.890625
8079		95.703125
8080		87.890625
8081		95.703125
8082		89.843750
8083		95.703125
8084		89.843750
8085		95.703125
8086		91.796875
8087		93.750000
8088		91.796875
8089		93.750000
8090		87.890625
8091		95.703125
8092		87.890625
8093		93.750000
8094		85.937500
8095		93.750000
8096		85.937500
8097		93.750000
8098		83.984375
8099		91.796875
8100		82.031250
8101		89.843750
8102		83.984375
8103		87.890625
8104		82.031250
8105		85.937500
8106		78.125000
8107		83.984375
8108		74.218750
8109		82.031250
8110		72.265625
8111		82.031250
8112		70.312500
8113		78.125000
8114		66.406250
8115		76.171875
8116		64.453125
8117		72.265625
8118		62.500000
8119		70.312500
8120		60.546875
8121		64.453125
8122		56.640625
8123		62.500000
8124		50.781250
8125		60.546875
8126		46.875000
8127		56.640625
8128		42.968750
8129		52.734375
8130		39.062500
8131		48.828125
8132		35.156250
8133		44.921875
8134		31.250000
8135		41.015625
8136		29.296875
8137		35.156250
8138		25.390625
8139		31.250000
8140		19.531250
8141		27.343750
8142		13.671875
8143		23.437500
8144		9.765625
8145		19.531250
8146		3.906250
8147		15.625000
8148		0.000000
8149		9.765625
8150		-3.906250
8151		5.859375
8152		-5.859375
8153		1.953125
8154		-11.718750
8155		-5.859375
8156		-17.578125
8157		-9.765625
8158		-21.484375
8159		-11.718750
8160		-25.390625
8161		-15.625000
8162		-31.250000
8163		-19.531250
8164		-35.156250
8165		-25.390625
8166		-39.062500
8167		-29.296875
8168		-41.015625
8169		-33.203125
8170		-44.921875
8171		-39.062500
8172		-48.828125
8173		-42.968750
8174		-56.640625
8175		-46.875000
8176		-58.593750
8177		-48.828125
8178		-62.500000
8179		-52.734375
8180		-66.406250
8181		-56.640625
8182		-68.359375
8183		-60.546875
8184		-72.265625
8185		-62.500000
8186		-72.265625
8187		-66.406250
8188		-74.218750
8189		-70.312500
8190		-80.078125
8191		-72.265625
8192		-82.031250
8193		-74.218750
8194		-82.031250
8195		-76.171875
8196		-83.984375
8197		-76.171875
8198		-85.937500
8199		-78.125000
8200		-87.890625
8201		-80.078125
8202		-87.890625
8203		-82.031250
8204		-85.937500
8205		-83.984375
8206		-87.890625
8207		-83.984375
8208		-89.843750
8209		-82.031250
8210		-89.843750
8211		-83.984375
8212		-89.843750
8213		-83.984375
8214		-89.843750
8215		-83.984375
8216		-89.843750
8217		-82.031250
8218		-87.890625
8219		-82.031250
8220		-85.937500
8221		-82.031250
8222		-83.984375
8223		-80.078125
8224		-83.984375
8225		-76.171875
8226		-82.031250
8227		-74.218750
8228		-82.031250
8229		-72.265625
8230		-78.125000
8231		-70.312500
8232		-76.171875
8233		-68.359375
8234		-74.218750
8235		-64.453125
8236		-70.312500
8237		-62.500000
8238		-64.453125
8239		-60.546875
8240		-62.500000
8241		-54.687500
8242		-60.546875
8243		-52.734375
8244		-56.640625
8245		-48.828125
8246		-54.687500
8247		-44.921875
8248		-50.781250
8249		-41.015625
8250		-46.875000
8251		-35.156250
8252		-42.968750
8253		-33.203125
8254		-35.156250
8255		-29.296875
8256		-31.250000
8257		-25.390625
8258		-27.343750
8259		-19.531250
8260		-25.390625
8261		-15.625000
8262		-21.484375
8263		-11.718750
8264		-15.625000
8265		-5.859375
8266		-11.718750
8267		0.000000
8268		-5.859375
8269		1.953125
8270		-1.953125
8271		5.859375
8272		3.906250
8273		9.765625
8274		7.812500
8275		15.625000
8276		9.765625
8277		21.484375
8278		15.625000
8279		25.390625
8280		19.531250
8281		29.296875
8282		23.437500
8283		33.203125
8284		27.343750
8285		39.062500
8286		33.203125
8287		41.015625
8288		39.062500
8289		44.921875
8290		42.968750
8291		48.828125
8292		44.921875
8293		54.687500
8294		48.828125
8295		56.640625
8296		50.781250
8297		60.546875
8298		54.687500
8299		64.453125
8300		58.593750
8301		66.406250
8302		60.546875
8303		70.312500
8304		66.406250
8305		70.312500
8306		70.312500
8307		74.218750
8308		70.312500
8309		78.125000
8310		72.265625
8311		82.031250
8312		74.218750
8313		83.984375
8314		76.171875
8315		83.984375
8316		78.125000
8317		85.937500
8318		80.078125
8319		89.843750
8320		82.031250
8321		89.843750
8322		85.937500
8323		89.843750
8324		85.937500
8325		91.796875
8326		85.937500
8327		93.750000
8328		87.890625
8329		93.750000
8330		87.890625
8331		95.703125
8332		87.890625
8333		95.703125
8334		87.890625
8335		95.703125
8336		87.890625
8337		95.703125
8338		91.796875
8339		93.750000
8340		89.843750
8341		93.750000
8342		87.890625
8343		95.703125
8344		87.890625
8345		93.750000
8346		85.937500
8347		93.750000
8348		83.984375
8349		91.796875
8350		83.984375
8351		91.796875
8352		82.031250
8353		89.843750
8354		82.031250
8355		87.890625
8356		80.078125
8357		83.984375
8358		76.171875
8359		83.984375
8360		74.218750
8361		82.031250
8362		72.265625
8363		80.078125
8364		68.359375
8365		76.171875
8366		66.406250
8367		76.171875
8368		62.500000
8369		72.265625
8370		62.500000
8371		68.359375
8372		58.593750
8373		64.453125
8374		54.687500
8375		60.546875
8376		48.828125
8377		58.593750
8378		44.921875
8379		54.687500
8380		42.968750
8381		50.781250
8382		39.062500
8383		48.828125
8384		35.156250
8385		44.921875
8386		31.250000
8387		39.062500
8388		27.343750
8389		35.156250
8390		23.437500
8391		29.296875
8392		17.578125
8393		25.390625
8394		11.718750
8395		21.484375
8396		7.812500
8397		17.578125
8398		3.906250
8399		13.671875
8400		0.000000
8401		9.765625
8402		-3.906250
8403		3.906250
8404		-7.812500
8405		0.000000
8406		-11.718750
8407		-5.859375
8408		-19.531250
8409		-11.718750
8410		-23.437500
8411		-13.671875
8412		-27.343750
8413		-17.578125
8414		-31.250000
8415		-21.484375
8416		-37.109375
8417		-27.343750
8418		-41.015625
8419		-31.250000
8420		-42.968750
8421		-35.156250
8422		-46.875000
8423		-41.015625
8424		-50.781250
8425		-44.921875
8426		-56.640625
8427		-46.875000
8428		-58.593750
8429		-50.781250
8430		-64.453125
8431		-54.687500
8432		-66.406250
8433		-58.593750
8434		-70.312500
8435		-60.546875
8436		-72.265625
8437		-64.453125
8438		-74.218750
8439		-66.406250
8440		-76.171875
8441		-72.265625
8442		-80.078125
8443		-72.265625
8444		-82.031250
8445		-74.218750
8446		-83.984375
8447		-76.171875
8448		-85.937500
8449		-78.125000
8450		-85.937500
8451		-78.125000
8452		-87.890625
8453		-80.078125
8454		-87.890625
8455		-82.031250
8456		-87.890625
8457		-83.984375
8458		-87.890625
8459		-85.937500
8460		-89.843750
8461		-83.984375
8462		-89.843750
8463		-83.984375
8464		-89.843750
8465		-82.031250
8466		-89.843750
8467		-82.031250
8468		-87.890625
8469		-82.031250
8470		-87.890625
8471		-80.078125
8472		-85.937500
8473		-82.031250
8474		-83.984375
8475		-80.078125
8476		-83.984375
8477		-76.171875
8478		-82.031250
8479		-74.218750
8480		-80.078125
8481		-72.265625
8482		-78.125000
8483		-70.312500
8484		-76.171875
8485		-66.406250
8486		-72.265625
8487		-64.453125
8488		-70.312500
8489		-62.500000
8490		-64.453125
8491		-60.546875
8492		-60.546875
8493		-54.687500
8494		-60.546875
8495		-50.781250
8496		-54.687500
8497		-46.875000
8498		-52.734375
8499		-42.968750
8500		-48.828125
8501		-39.062500
8502		-44.921875
8503		-35.156250
8504		-41.015625
8505		-33.203125
8506		-35.156250
8507		-29.296875
8508		-29.296875
8509		-23.437500
8510		-25.390625
8511		-17.578125
8512		-23.437500
8513		-13.671875
8514		-19.531250
8515		-9.765625
8516		-13.671875
8517		-3.906250
8518		-9.765625
8519		0.000000
8520		-3.906250
8521		3.906250
8522		0.000000
8523		7.812500
8524		5.859375
8525		11.718750
8526		9.765625
8527		17.578125
8528		11.718750
8529		23.437500
8530		17.578125
8531		27.343750
8532		21.484375
8533		31.250000
8534		25.390625
8535		35.156250
8536		29.296875
8537		39.062500
8538		33.203125
8539		41.015625
8540		39.062500
8541		44.921875
8542		44.921875
8543		48.828125
8544		44.921875
8545		54.687500
8546		48.828125
8547		58.593750
8548		52.734375
8549		62.500000
8550		56.640625
8551		66.406250
8552		60.546875
8553		68.359375
8554		62.500000
8555		72.265625
8556		66.406250
8557		72.265625
8558		70.312500
8559		74.218750
8560		72.265625
8561		78.125000
8562		72.265625
8563		82.031250
8564		76.171875
8565		83.984375
8566		78.125000
8567		85.937500
8568		80.078125
8569		87.890625
8570		82.031250
8571		89.843750
8572		83.984375
8573		89.843750
8574		87.890625
8575		89.843750
8576		85.937500
8577		93.750000
8578		87.890625
8579		93.750000
8580		87.890625
8581		93.750000
8582		87.890625
8583		95.703125
8584		87.890625
8585		95.703125
8586		89.843750
8587		95.703125
8588		87.890625
8589		95.703125
8590		91.796875
8591		93.750000
8592		91.796875
8593		93.750000
8594		87.890625
8595		95.703125
8596		85.937500
8597		93.750000
8598		85.937500
8599		93.750000
8600		83.984375
8601		91.796875
8602		83.984375
8603		89.843750
8604		82.031250
8605		89.843750
8606		82.031250
8607		87.890625
8608		80.078125
8609		83.984375
8610		76.171875
8611		82.031250
8612		74.218750
8613		82.031250
8614		72.265625
8615		80.078125
8616		68.359375
8617		76.171875
8618		66.406250
8619		74.218750
8620		62.500000
8621		70.312500
8622		60.546875
8623		68.359375
8624		58.593750
8625		62.500000
8626		54.687500
8627		60.546875
8628		48.828125
8629		58.593750
8630		44.921875
8631		54.687500
8632		41.015625
8633		50.781250
8634		37.109375
8635		46.875000
8636		33.203125
8637		42.968750
8638		29.296875
8639		39.062500
8640		27.343750
8641		35.156250
8642		23.437500
8643		29.296875
8644		15.625000
8645		23.437500
8646		11.718750
8647		21.484375
8648		7.812500
8649		17.578125
8650		1.953125
8651		13.671875
8652		-1.953125
8653		7.812500
8654		-5.859375
8655		3.906250
8656		-7.812500
8657		-1.953125
8658		-13.671875
8659		-7.812500
8660		-19.531250
8661		-11.718750
8662		-23.437500
8663		-13.671875
8664		-27.343750
8665		-17.578125
8666		-33.203125
8667		-21.484375
8668		-37.109375
8669		-27.343750
8670		-41.015625
8671		-31.250000
8672		-44.921875
8673		-35.156250
8674		-46.875000
8675		-41.015625
8676		-50.781250
8677		-46.875000
8678		-56.640625
8679		-48.828125
8680		-60.546875
8681		-50.781250
8682		-64.453125
8683		-54.687500
8684		-66.406250
8685		-58.593750
8686		-70.312500
8687		-62.500000
8688		-72.265625
8689		-64.453125
8690		-74.218750
8691		-66.406250
8692		-76.171875
8693		-72.265625
8694		-80.078125
8695		-74.218750
8696		-82.031250
8697		-74.218750
8698		-83.984375
8699		-76.171875
8700		-85.937500
8701		-78.125000
8702		-87.890625
8703		-80.078125
8704		-87.890625
8705		-80.078125
8706		-87.890625
8707		-82.031250
8708		-87.890625
8709		-83.984375
8710		-87.890625
8711		-85.937500
8712		-89.843750
8713		-83.984375
8714		-89.843750
8715		-83.984375
8716		-89.843750
8717		-82.031250
8718		-89.843750
8719		-82.031250
8720		-89.843750
8721		-82.031250
8722		-87.890625
8723		-80.078125
8724		-85.937500
8725		-80.078125
8726		-82.031250
8727		-80.078125
8728		-82.031250
8729		-76.171875
8730		-82.031250
8731		-74.218750
8732		-80.078125
8733		-72.265625
8734		-76.171875
8735		-68.359375
8736		-74.218750
8737		-66.406250
8738		-72.265625
8739		-62.500000
8740		-68.359375
8741		-60.546875
8742		-64.453125
8743		-58.593750
8744		-60.546875
8745		-54.687500
8746		-58.593750
8747		-50.781250
8748		-54.687500
8749		-46.875000
8750		-50.781250
8751		-42.968750
8752		-46.875000
8753		-39.062500
8754		-42.968750
8755		-35.156250
8756		-39.062500
8757		-31.250000
8758		-33.203125
8759		-27.343750
8760		-29.296875
8761		-23.437500
8762		-25.390625
8763		-17.578125
8764		-21.484375
8765		-11.718750
8766		-17.578125
8767		-7.812500
8768		-13.671875
8769		-3.906250
8770		-9.765625
8771		1.953125
8772		-3.906250
8773		5.859375
8774		0.000000
8775		7.812500
8776		7.812500
8777		11.718750
8778		11.718750
8779		19.531250
8780		13.671875
8781		23.437500
8782		17.578125
8783		27.343750
8784		21.484375
8785		31.250000
8786		25.390625
8787		35.156250
8788		31.250000
8789		41.015625
8790		35.156250
8791		42.968750
8792		41.015625
8793		46.875000
8794		44.921875
8795		50.781250
8796		46.875000
8797		54.687500
8798		50.781250
8799		58.593750
8800		52.734375
8801		62.500000
8802		56.640625
8803		66.406250
8804		60.546875
8805		68.359375
8806		62.500000
8807		72.265625
8808		66.406250
8809		72.265625
8810		72.265625
8811		76.171875
8812		72.265625
8813		80.078125
8814		74.218750
8815		82.031250
8816		76.171875
8817		83.984375
8818		78.125000
8819		85.937500
8820		80.078125
8821		87.890625
8822		82.031250
8823		89.843750
8824		83.984375
8825		89.843750
8826		87.890625
8827		89.843750
8828		87.890625
8829		91.796875
8830		87.890625
8831		93.750000
8832		87.890625
8833		95.703125
8834		87.890625
8835		95.703125
8836		89.843750
8837		95.703125
8838		87.890625
8839		95.703125
8840		89.843750
8841		95.703125
8842		91.796875
8843		93.750000
8844		89.843750
8845		93.750000
8846		87.890625
8847		93.750000
8848		85.937500
8849		93.750000
8850		85.937500
8851		93.750000
8852		83.984375
8853		91.796875
8854		82.031250
8855		89.843750
8856		82.031250
8857		89.843750
8858		80.078125
8859		87.890625
8860		80.078125
8861		83.984375
8862		76.171875
8863		82.031250
8864		74.218750
8865		82.031250
8866		70.312500
8867		78.125000
8868		68.359375
8869		76.171875
8870		64.453125
8871		74.218750
8872		60.546875
8873		70.312500
8874		58.593750
8875		68.359375
8876		58.593750
8877		62.500000
8878		54.687500
8879		58.593750
8880		48.828125
8881		56.640625
8882		44.921875
8883		54.687500
8884		41.015625
8885		50.781250
8886		35.156250
8887		46.875000
8888		33.203125
8889		42.968750
8890		27.343750
8891		37.109375
8892		25.390625
8893		33.203125
8894		21.484375
8895		27.343750
8896		15.625000
8897		23.437500
8898		11.718750
8899		21.484375
8900		5.859375
8901		15.625000
8902		1.953125
8903		11.718750
8904		-3.906250
8905		7.812500
8906		-7.812500
8907		1.953125
8908		-9.765625
8909		-1.953125
8910		-13.671875
8911		-7.812500
8912		-19.531250
8913		-13.671875
8914		-25.390625
8915		-15.625000
8916		-29.296875
8917		-19.531250
8918		-33.203125
8919		-23.437500
8920		-39.062500
8921		-29.296875
8922		-42.968750
8923		-31.250000
8924		-46.875000
8925		-37.109375
8926		-48.828125
8927		-42.968750
8928		-52.734375
8929		-46.875000
8930		-58.593750
8931		-50.781250
8932		-60.546875
8933		-52.734375
8934		-64.453125
8935		-54.687500
8936		-68.359375
8937		-58.593750
8938		-70.312500
8939		-62.500000
8940		-74.218750
8941		-64.453125
8942		-74.218750
8943		-68.359375
8944		-76.171875
8945		-72.265625
8946		-80.078125
8947		-74.218750
8948		-82.031250
8949		-74.218750
8950		-83.984375
8951		-76.171875
8952		-85.937500
8953		-78.125000
8954		-87.890625
8955		-80.078125
8956		-89.843750
8957		-80.078125
8958		-89.843750
8959		-82.031250
8960		-87.890625
8961		-85.937500
8962		-87.890625
8963		-85.937500
8964		-89.843750
8965		-83.984375
8966		-89.843750
8967		-83.984375
8968		-89.843750
8969		-83.984375
8970		-89.843750
8971		-82.031250
8972		-87.890625
8973		-80.078125
8974		-87.890625
8975		-80.078125
8976		-85.937500
8977		-80.078125
8978		-82.031250
8979		-80.078125
8980		-82.031250
8981		-76.171875
8982		-82.031250
8983		-74.218750
8984		-80.078125
8985		-70.312500
8986		-76.171875
8987		-68.359375
8988		-74.218750
8989		-66.406250
8990		-72.265625
8991		-62.500000
8992		-68.359375
8993		-60.546875
8994		-62.500000
8995		-58.593750
8996		-60.546875
8997		-54.687500
8998		-58.593750
8999		-48.828125
9000		-54.687500
9001		-44.921875
9002		-50.781250
9003		-41.015625
9004		-46.875000
9005		-37.109375
9006		-42.968750
9007		-33.203125
9008		-39.062500
9009		-29.296875
9010		-35.156250
9011		-27.343750
9012		-27.343750
9013		-23.437500
9014		-25.390625
9015		-15.625000
9016		-21.484375
9017		-11.718750
9018		-17.578125
9019		-7.812500
9020		-11.718750
9021		-1.953125
9022		-7.812500
9023		1.953125
9024		-3.906250
9025		7.812500
9026		0.000000
9027		9.765625
9028		7.812500
9029		13.671875
9030		11.718750
9031		19.531250
9032		15.625000
9033		23.437500
9034		19.531250
9035		27.343750
9036		23.437500
9037		33.203125
9038		27.343750
9039		37.109375
9040		31.250000
9041		41.015625
9042		35.156250
9043		44.921875
9044		41.015625
9045		46.875000
9046		44.921875
9047		50.781250
9048		46.875000
9049		56.640625
9050		50.781250
9051		60.546875
9052		54.687500
9053		64.453125
9054		58.593750
9055		66.406250
9056		60.546875
9057		68.359375
9058		64.453125
9059		72.265625
9060		66.406250
9061		72.265625
9062		72.265625
9063		76.171875
9064		74.218750
9065		80.078125
9066		74.218750
9067		82.031250
9068		76.171875
9069		83.984375
9070		78.125000
9071		85.937500
9072		80.078125
9073		87.890625
9074		82.031250
9075		89.843750
9076		83.984375
9077		89.843750
9078		87.890625
9079		89.843750
9080		87.890625
9081		91.796875
9082		87.890625
9083		93.750000
9084		87.890625
9085		95.703125
9086		87.890625
9087		95.703125
9088		87.890625
9089		95.703125
9090		87.890625
9091		95.703125
9092		87.890625
9093		95.703125
9094		89.843750
9095		93.750000
9096		89.843750
9097		93.750000
9098		87.890625
9099		93.750000
9100		85.937500
9101		93.750000
9102		85.937500
9103		91.796875
9104		83.984375
9105		91.796875
9106		82.031250
9107		89.843750
9108		80.078125
9109		87.890625
9110		80.078125
9111		87.890625
9112		80.078125
9113		83.984375
9114		76.171875
9115		80.078125
9116		72.265625
9117		80.078125
9118		70.312500
9119		78.125000
9120		66.406250
9121		76.171875
9122		64.453125
9123		72.265625
9124		60.546875
9125		70.312500
9126		58.593750
9127		66.406250
9128		56.640625
9129		60.546875
9130		52.734375
9131		58.593750
9132		48.828125
9133		54.687500
9134		44.921875
9135		52.734375
9136		39.062500
9137		48.828125
9138		35.156250
9139		44.921875
9140		31.250000
9141		41.015625
9142		27.343750
9143		37.109375
9144		25.390625
9145		33.203125
9146		21.484375
9147		27.343750
9148		13.671875
9149		21.484375
9150		9.765625
9151		19.531250
9152		5.859375
9153		15.625000
9154		0.000000
9155		9.765625
9156		-3.906250
9157		5.859375
9158		-7.812500
9159		1.953125
9160		-11.718750
9161		-3.906250
9162		-15.625000
9163		-9.765625
9164		-19.531250
9165		-13.671875
9166		-25.390625
9167		-17.578125
9168		-31.250000
9169		-21.484375
9170		-35.156250
9171		-25.390625
9172		-39.062500
9173		-29.296875
9174		-42.968750
9175		-33.203125
9176		-46.875000
9177		-37.109375
9178		-48.828125
9179		-41.015625
9180		-52.734375
9181		-46.875000
9182		-58.593750
9183		-50.781250
9184		-62.500000
9185		-52.734375
9186		-64.453125
9187		-56.640625
9188		-68.359375
9189		-60.546875
9190		-72.265625
9191		-62.500000
9192		-74.218750
9193		-66.406250
9194		-76.171875
9195		-68.359375
9196		-76.171875
9197		-72.265625
9198		-80.078125
9199		-76.171875
9200		-83.984375
9201		-76.171875
9202		-85.937500
9203		-78.125000
9204		-87.890625
9205		-78.125000
9206		-87.890625
9207		-80.078125
9208		-87.890625
9209		-82.031250
9210		-89.843750
9211		-82.031250
9212		-89.843750
9213		-83.984375
9214		-87.890625
9215		-85.937500
9216		-89.843750
9217		-83.984375
9218		-91.796875
9219		-83.984375
9220		-89.843750
9221		-83.984375
9222		-89.843750
9223		-82.031250
9224		-87.890625
9225		-82.031250
9226		-87.890625
9227		-80.078125
9228		-85.937500
9229		-80.078125
9230		-82.031250
9231		-78.125000
9232		-82.031250
9233		-76.171875
9234		-80.078125
9235		-72.265625
9236		-78.125000
9237		-70.312500
9238		-76.171875
9239		-68.359375
9240		-74.218750
9241		-64.453125
9242		-72.265625
9243		-62.500000
9244		-68.359375
9245		-58.593750
9246		-62.500000
9247		-58.593750
9248		-60.546875
9249		-52.734375
9250		-56.640625
9251		-48.828125
9252		-54.687500
9253		-44.921875
9254		-50.781250
9255		-41.015625
9256		-46.875000
9257		-37.109375
9258		-41.015625
9259		-33.203125
9260		-37.109375
9261		-29.296875
9262		-33.203125
9263		-25.390625
9264		-27.343750
9265		-21.484375
9266		-23.437500
9267		-15.625000
9268		-21.484375
9269		-9.765625
9270		-15.625000
9271		-7.812500
9272		-11.718750
9273		-1.953125
9274		-7.812500
9275		1.953125
9276		-3.906250
9277		7.812500
9278		1.953125
9279		9.765625
9280		7.812500
9281		13.671875
9282		11.718750
9283		19.531250
9284		15.625000
9285		25.390625
9286		19.531250
9287		29.296875
9288		23.437500
9289		33.203125
9290		27.343750
9291		37.109375
9292		31.250000
9293		41.015625
9294		35.156250
9295		44.921875
9296		41.015625
9297		46.875000
9298		46.875000
9299		50.781250
9300		48.828125
9301		56.640625
9302		50.781250
9303		60.546875
9304		54.687500
9305		64.453125
9306		58.593750
9307		66.406250
9308		60.546875
9309		70.312500
9310		64.453125
9311		72.265625
9312		68.359375
9313		74.218750
9314		72.265625
9315		76.171875
9316		74.218750
9317		80.078125
9318		74.218750
9319		82.031250
9320		78.125000
9321		85.937500
9322		78.125000
9323		85.937500
9324		80.078125
9325		87.890625
9326		82.031250
9327		89.843750
9328		83.984375
9329		91.796875
9330		87.890625
9331		89.843750
9332		87.890625
9333		91.796875
9334		87.890625
9335		93.750000
9336		87.890625
9337		93.750000
9338		87.890625
9339		95.703125
9340		87.890625
9341		95.703125
9342		87.890625
9343		95.703125
9344		87.890625
9345		95.703125
9346		89.843750
9347		95.703125
9348		89.843750
9349		91.796875
9350		87.890625
9351		93.750000
9352		85.937500
9353		93.750000
9354		83.984375
9355		91.796875
9356		83.984375
9357		91.796875
9358		82.031250
9359		89.843750
9360		80.078125
9361		87.890625
9362		80.078125
9363		85.937500
9364		78.125000
9365		82.031250
9366		76.171875
9367		80.078125
9368		72.265625
9369		80.078125
9370		68.359375
9371		78.125000
9372		66.406250
9373		74.218750
9374		62.500000
9375		70.312500
9376		60.546875
9377		70.312500
9378		56.640625
9379		66.406250
9380		54.687500
9381		60.546875
9382		52.734375
9383		58.593750
9384		46.875000
9385		54.687500
9386		41.015625
9387		52.734375
9388		39.062500
9389		48.828125
9390		35.156250
9391		42.968750
9392		31.250000
9393		41.015625
9394		27.343750
9395		35.156250
9396		23.437500
9397		31.250000
9398		19.531250
9399		25.390625
9400		13.671875
9401		21.484375
9402		7.812500
9403		17.578125
9404		3.906250
9405		13.671875
9406		0.000000
9407		9.765625
9408		-5.859375
9409		3.906250
9410		-9.765625
9411		0.000000
9412		-13.671875
9413		-3.906250
9414		-17.578125
9415		-9.765625
9416		-21.484375
9417		-15.625000
9418		-27.343750
9419		-19.531250
9420		-31.250000
9421		-21.484375
9422		-37.109375
9423		-27.343750
9424		-41.015625
9425		-31.250000
9426		-44.921875
9427		-35.156250
9428		-48.828125
9429		-39.062500
9430		-50.781250
9431		-42.968750
9432		-54.687500
9433		-48.828125
9434		-60.546875
9435		-52.734375
9436		-64.453125
9437		-54.687500
9438		-66.406250
9439		-56.640625
9440		-70.312500
9441		-60.546875
9442		-72.265625
9443		-64.453125
9444		-74.218750
9445		-66.406250
9446		-78.125000
9447		-70.312500
9448		-78.125000
9449		-74.218750
9450		-80.078125
9451		-76.171875
9452		-83.984375
9453		-76.171875
9454		-85.937500
9455		-78.125000
9456		-87.890625
9457		-80.078125
9458		-87.890625
9459		-82.031250
9460		-89.843750
9461		-82.031250
9462		-89.843750
9463		-83.984375
9464		-87.890625
9465		-85.937500
9466		-89.843750
9467		-85.937500
9468		-91.796875
9469		-83.984375
9470		-89.843750
9471		-83.984375
9472		-89.843750
9473		-83.984375
9474		-89.843750
9475		-82.031250
9476		-89.843750
9477		-82.031250
9478		-87.890625
9479		-80.078125
9480		-85.937500
9481		-80.078125
9482		-82.031250
9483		-80.078125
9484		-80.078125
9485		-76.171875
9486		-80.078125
9487		-72.265625
9488		-80.078125
9489		-70.312500
9490		-76.171875
9491		-68.359375
9492		-72.265625
9493		-64.453125
9494		-70.312500
9495		-60.546875
9496		-66.406250
9497		-58.593750
9498		-62.500000
9499		-56.640625
9500		-58.593750
9501		-54.687500
9502		-56.640625
9503		-48.828125
9504		-54.687500
9505		-44.921875
9506		-50.781250
9507		-41.015625
9508		-46.875000
9509		-37.109375
9510		-41.015625
9511		-31.250000
9512		-37.109375
9513		-27.343750
9514		-33.203125
9515		-25.390625
9516		-27.343750
9517		-21.484375
9518		-23.437500
9519		-15.625000
9520		-19.531250
9521		-9.765625
9522		-15.625000
9523		-5.859375
9524		-9.765625
9525		0.000000
9526		-7.812500
9527		3.906250
9528		-1.953125
9529		7.812500
9530		1.953125
9531		11.718750
9532		9.765625
9533		15.625000
9534		13.671875
9535		19.531250
9536		15.625000
9537		25.390625
9538		19.531250
9539		29.296875
9540		23.437500
9541		33.203125
9542		29.296875
9543		39.062500
9544		33.203125
9545		42.968750
9546		37.109375
9547		46.875000
9548		42.968750
9549		48.828125
9550		46.875000
9551		50.781250
9552		48.828125
9553		56.640625
9554		52.734375
9555		60.546875
9556		54.687500
9557		64.453125
9558		58.593750
9559		68.359375
9560		60.546875
9561		70.312500
9562		64.453125
9563		72.265625
9564		68.359375
9565		74.218750
9566		72.265625
9567		76.171875
9568		74.218750
9569		80.078125
9570		74.218750
9571		82.031250
9572		78.125000
9573		85.937500
9574		78.125000
9575		85.937500
9576		80.078125
9577		87.890625
9578		82.031250
9579		89.843750
9580		83.984375
9581		91.796875
9582		87.890625
9583		89.843750
9584		87.890625
9585		91.796875
9586		87.890625
9587		93.750000
9588		87.890625
9589		95.703125
9590		87.890625
9591		95.703125
9592		87.890625
9593		95.703125
9594		87.890625
9595		95.703125
9596		87.890625
9597		95.703125
9598		89.843750
9599		93.750000
9600		89.843750
9601		91.796875
9602		87.890625
9603		93.750000
9604		85.937500
9605		91.796875
9606		83.984375
9607		91.796875
9608		82.031250
9609		89.843750
9610		82.031250
9611		89.843750
9612		80.078125
9613		87.890625
9614		78.125000
9615		85.937500
9616		78.125000
9617		82.031250
9618		76.171875
9619		80.078125
9620		70.312500
9621		80.078125
9622		68.359375
9623		76.171875
9624		66.406250
9625		74.218750
9626		62.500000
9627		72.265625
9628		60.546875
9629		68.359375
9630		56.640625
9631		64.453125
9632		54.687500
9633		60.546875
9634		50.781250
9635		56.640625
9636		44.921875
9637		52.734375
9638		41.015625
9639		50.781250
9640		37.109375
9641		46.875000
9642		33.203125
9643		42.968750
9644		29.296875
9645		39.062500
9646		25.390625
9647		35.156250
9648		23.437500
9649		31.250000
9650		19.531250
9651		23.437500
9652		11.718750
9653		19.531250
9654		7.812500
9655		17.578125
9656		1.953125
9657		11.718750
9658		0.000000
9659		7.812500
9660		-5.859375
9661		3.906250
9662		-9.765625
9663		-1.953125
9664		-15.625000
9665		-5.859375
9666		-17.578125
9667		-11.718750
9668		-21.484375
9669		-15.625000
9670		-29.296875
9671		-19.531250
9672		-33.203125
9673		-23.437500
9674		-37.109375
9675		-27.343750
9676		-41.015625
9677		-31.250000
9678		-44.921875
9679		-35.156250
9680		-48.828125
9681		-41.015625
9682		-50.781250
9683		-42.968750
9684		-54.687500
9685		-50.781250
9686		-60.546875
9687		-52.734375
9688		-64.453125
9689		-54.687500
9690		-66.406250
9691		-58.593750
9692		-70.312500
9693		-60.546875
9694		-72.265625
9695		-64.453125
9696		-76.171875
9697		-68.359375
9698		-78.125000
9699		-70.312500
9700		-78.125000
9701		-74.218750
9702		-80.078125
9703		-78.125000
9704		-83.984375
9705		-78.125000
9706		-85.937500
9707		-78.125000
9708		-87.890625
9709		-80.078125
9710		-89.843750
9711		-82.031250
9712		-89.843750
9713		-82.031250
9714		-89.843750
9715		-83.984375
9716		-89.843750
9717		-83.984375
9718		-87.890625
9719		-85.937500
9720		-91.796875
9721		-83.984375
9722		-91.796875
9723		-83.984375
9724		-89.843750
9725		-83.984375
9726		-89.843750
9727		-82.031250
9728		-89.843750
9729		-82.031250
9730		-87.890625
9731		-80.078125
9732		-85.937500
9733		-80.078125
9734		-82.031250
9735		-78.125000
9736		-80.078125
9737		-74.218750
9738		-80.078125
9739		-72.265625
9740		-78.125000
9741		-70.312500
9742		-76.171875
9743		-68.359375
9744		-74.218750
9745		-64.453125
9746		-70.312500
9747		-62.500000
9748		-66.406250
9749		-58.593750
9750		-62.500000
9751		-56.640625
9752		-58.593750
9753		-52.734375
9754		-54.687500
9755		-46.875000
9756		-52.734375
9757		-42.968750
9758		-48.828125
9759		-39.062500
9760		-44.921875
9761		-35.156250
9762		-41.015625
9763		-31.250000
9764		-37.109375
9765		-27.343750
9766		-33.203125
9767		-25.390625
9768		-25.390625
9769		-21.484375
9770		-21.484375
9771		-13.671875
9772		-19.531250
9773		-9.765625
9774		-15.625000
9775		-5.859375
9776		-9.765625
9777		0.000000
9778		-5.859375
9779		3.906250
9780		-1.953125
9781		7.812500
9782		3.906250
9783		11.718750
9784		9.765625
9785		15.625000
9786		13.671875
9787		19.531250
9788		17.578125
9789		25.390625
9790		21.484375
9791		29.296875
9792		25.390625
9793		35.156250
9794		29.296875
9795		39.062500
9796		33.203125
9797		42.968750
9798		37.109375
9799		46.875000
9800		41.015625
9801		48.828125
9802		46.875000
9803		52.734375
9804		48.828125
9805		58.593750
9806		52.734375
9807		60.546875
9808		54.687500
9809		64.453125
9810		58.593750
9811		68.359375
9812		62.500000
9813		70.312500
9814		66.406250
9815		74.218750
9816		68.359375
9817		76.171875
9818		72.265625
9819		76.171875
9820		74.218750
9821		80.078125
9822		76.171875
9823		83.984375
9824		78.125000
9825		85.937500
9826		80.078125
9827		87.890625
9828		80.078125
9829		87.890625
9830		82.031250
9831		89.843750
9832		83.984375
9833		91.796875
9834		87.890625
9835		89.843750
9836		87.890625
9837		91.796875
9838		85.937500
9839		93.750000
9840		87.890625
9841		93.750000
9842		87.890625
9843		95.703125
9844		87.890625
9845		95.703125
9846		87.890625
9847		95.703125
9848		87.890625
9849		95.703125
9850		87.890625
9851		93.750000
9852		89.843750
9853		91.796875
9854		85.937500
9855		93.750000
9856		85.937500
9857		91.796875
9858		83.984375
9859		91.796875
9860		82.031250
9861		89.843750
9862		82.031250
9863		87.890625
9864		78.125000
9865		87.890625
9866		78.125000
9867		85.937500
9868		78.125000
9869		80.078125
9870		74.218750
9871		78.125000
9872		70.312500
9873		78.125000
9874		66.406250
9875		76.171875
9876		64.453125
9877		74.218750
9878		62.500000
9879		70.312500
9880		58.593750
9881		66.406250
9882		54.687500
9883		64.453125
9884		54.687500
9885		60.546875
9886		50.781250
9887		54.687500
9888		42.968750
9889		52.734375
9890		39.062500
9891		50.781250
9892		35.156250
9893		44.921875
9894		33.203125
9895		42.968750
9896		29.296875
9897		37.109375
9898		23.437500
9899		33.203125
9900		21.484375
9901		29.296875
9902		17.578125
9903		23.437500
9904		11.718750
9905		19.531250
9906		5.859375
9907		15.625000
9908		1.953125
9909		11.718750
9910		-3.906250
9911		7.812500
9912		-7.812500
9913		1.953125
9914		-11.718750
9915		-1.953125
9916		-15.625000
9917		-5.859375
9918		-19.531250
9919		-13.671875
9920		-23.437500
9921		-17.578125
9922		-31.250000
9923		-21.484375
9924		-33.203125
9925		-25.390625
9926		-37.109375
9927		-29.296875
9928		-42.968750
9929		-33.203125
9930		-46.875000
9931		-37.109375
9932		-50.781250
9933		-41.015625
9934		-52.734375
9935		-44.921875
9936		-56.640625
9937		-50.781250
9938		-62.500000
9939		-54.687500
9940		-66.406250
9941		-56.640625
9942		-68.359375
9943		-60.546875
9944		-72.265625
9945		-62.500000
9946		-74.218750
9947		-64.453125
9948		-76.171875
9949		-68.359375
9950		-80.078125
9951		-70.312500
9952		-80.078125
9953		-76.171875
9954		-82.031250
9955		-78.125000
9956		-83.984375
9957		-78.125000
9958		-85.937500
9959		-78.125000
9960		-87.890625
9961		-80.078125
9962		-89.843750
9963		-82.031250
9964		-91.796875
9965		-83.984375
9966		-89.843750
9967		-83.984375
9968		-89.843750
9969		-83.984375
9970		-87.890625
9971		-85.937500
9972		-91.796875
9973		-83.984375
9974		-91.796875
9975		-83.984375
9976		-89.843750
9977		-83.984375
9978		-89.843750
9979		-82.031250
9980		-89.843750
9981		-82.031250
9982		-87.890625
9983		-80.078125
9984		-85.937500
9985		-78.125000
9986		-82.031250
9987		-78.125000
9988		-80.078125
9989		-76.171875
9990		-80.078125
9991		-72.265625
9992		-78.125000
9993		-70.312500
9994		-76.171875
9995		-66.406250
9996		-72.265625
9997		-62.500000
9998		-68.359375
9999		-60.546875
10000		-66.406250
