Channel              :		CH1
Frequency            :		1.981kHz
Period               :		0.505ms
PK-PK                :		105.5mV
Probe attenuation    :		1X
Voltage per ADC value:		0.122070mV
Time interval        :		2.00000us

index		CH1_Voltage(mV)
1		52.734375
2		52.734375
3		56.640625
4		54.687500
5		56.640625
6		52.734375
7		58.593750
8		54.687500
9		56.640625
10		50.781250
11		56.640625
12		54.687500
13		56.640625
14		54.687500
15		56.640625
16		52.734375
17		56.640625
18		50.781250
19		58.593750
20		50.781250
21		58.593750
22		52.734375
23		56.640625
24		48.828125
25		56.640625
26		48.828125
27		54.687500
28		48.828125
29		54.687500
30		48.828125
31		52.734375
32		46.875000
33		50.781250
34		44.921875
35		50.781250
36		42.968750
37		50.781250
38		42.968750
39		46.875000
40		41.015625
41		46.875000
42		39.062500
43		44.921875
44		37.109375
45		44.921875
46		37.109375
47		41.015625
48		35.156250
49		39.062500
50		31.250000
51		39.062500
52		29.296875
53		37.109375
54		29.296875
55		35.156250
56		25.390625
57		33.203125
58		23.437500
59		31.250000
60		21.484375
61		29.296875
62		21.484375
63		27.343750
64		19.531250
65		23.437500
66		15.625000
67		21.484375
68		13.671875
69		21.484375
70		9.765625
71		17.578125
72		7.812500
73		15.625000
74		5.859375
75		13.671875
76		3.906250
77		11.718750
78		1.953125
79		7.812500
80		0.000000
81		3.906250
82		-1.953125
83		1.953125
84		-5.859375
85		1.953125
86		-7.812500
87		0.000000
88		-9.765625
89		-1.953125
90		-13.671875
91		-5.859375
92		-15.625000
93		-7.812500
94		-17.578125
95		-9.765625
96		-17.578125
97		-11.718750
98		-19.531250
99		-15.625000
100		-21.484375
101		-15.625000
102		-25.390625
103		-17.578125
104		-25.390625
105		-19.531250
106		-29.296875
107		-21.484375
108		-29.296875
109		-21.484375
110		-31.250000
111		-23.437500
112		-31.250000
113		-25.390625
114		-31.250000
115		-29.296875
116		-33.203125
117		-29.296875
118		-37.109375
119		-29.296875
120		-37.109375
121		-29.296875
122		-39.062500
123		-31.250000
124		-39.062500
125		-31.250000
126		-39.062500
127		-33.203125
128		-41.015625
129		-33.203125
130		-37.109375
131		-35.156250
132		-39.062500
133		-35.156250
134		-39.062500
135		-35.156250
136		-39.062500
137		-35.156250
138		-41.015625
139		-35.156250
140		-39.062500
141		-35.156250
142		-39.062500
143		-35.156250
144		-39.062500
145		-33.203125
146		-39.062500
147		-33.203125
148		-35.156250
149		-33.203125
150		-37.109375
151		-29.296875
152		-37.109375
153		-29.296875
154		-35.156250
155		-27.343750
156		-35.156250
157		-27.343750
158		-33.203125
159		-25.390625
160		-33.203125
161		-23.437500
162		-31.250000
163		-23.437500
164		-27.343750
165		-23.437500
166		-25.390625
167		-21.484375
168		-25.390625
169		-17.578125
170		-23.437500
171		-15.625000
172		-23.437500
173		-13.671875
174		-21.484375
175		-11.718750
176		-19.531250
177		-9.765625
178		-15.625000
179		-7.812500
180		-13.671875
181		-7.812500
182		-9.765625
183		-5.859375
184		-7.812500
185		-1.953125
186		-7.812500
187		0.000000
188		-5.859375
189		3.906250
190		-1.953125
191		5.859375
192		-1.953125
193		7.812500
194		1.953125
195		9.765625
196		3.906250
197		9.765625
198		7.812500
199		11.718750
200		11.718750
201		15.625000
202		11.718750
203		19.531250
204		13.671875
205		21.484375
206		15.625000
207		23.437500
208		17.578125
209		25.390625
210		19.531250
211		27.343750
212		21.484375
213		29.296875
214		25.390625
215		29.296875
216		29.296875
217		33.203125
218		29.296875
219		37.109375
220		29.296875
221		37.109375
222		31.250000
223		39.062500
224		33.203125
225		41.015625
226		35.156250
227		42.968750
228		37.109375
229		44.921875
230		39.062500
231		44.921875
232		42.968750
233		46.875000
234		42.968750
235		48.828125
236		42.968750
237		50.781250
238		44.921875
239		52.734375
240		46.875000
241		52.734375
242		46.875000
243		54.687500
244		46.875000
245		54.687500
246		48.828125
247		54.687500
248		52.734375
249		54.687500
250		52.734375
251		54.687500
252		50.781250
253		58.593750
254		50.781250
255		58.593750
256		50.781250
257		58.593750
258		52.734375
259		58.593750
260		52.734375
261		58.593750
262		52.734375
263		58.593750
264		52.734375
265		58.593750
266		54.687500
267		56.640625
268		52.734375
269		58.593750
270		50.781250
271		58.593750
272		50.781250
273		56.640625
274		50.781250
275		58.593750
276		48.828125
277		56.640625
278		48.828125
279		56.640625
280		48.828125
281		54.687500
282		48.828125
283		52.734375
284		48.828125
285		50.781250
286		44.921875
287		52.734375
288		42.968750
289		50.781250
290		41.015625
291		48.828125
292		41.015625
293		48.828125
294		39.062500
295		46.875000
296		37.109375
297		44.921875
298		37.109375
299		42.968750
300		35.156250
301		39.062500
302		31.250000
303		39.062500
304		29.296875
305		39.062500
306		27.343750
307		37.109375
308		25.390625
309		33.203125
310		23.437500
311		31.250000
312		21.484375
313		31.250000
314		21.484375
315		27.343750
316		19.531250
317		23.437500
318		13.671875
319		21.484375
320		13.671875
321		21.484375
322		9.765625
323		17.578125
324		7.812500
325		15.625000
326		5.859375
327		13.671875
328		3.906250
329		11.718750
330		1.953125
331		9.765625
332		0.000000
333		5.859375
334		0.000000
335		3.906250
336		-5.859375
337		1.953125
338		-7.812500
339		0.000000
340		-9.765625
341		-1.953125
342		-11.718750
343		-3.906250
344		-13.671875
345		-5.859375
346		-15.625000
347		-7.812500
348		-17.578125
349		-11.718750
350		-17.578125
351		-15.625000
352		-21.484375
353		-15.625000
354		-25.390625
355		-15.625000
356		-25.390625
357		-17.578125
358		-27.343750
359		-21.484375
360		-29.296875
361		-21.484375
362		-31.250000
363		-23.437500
364		-31.250000
365		-25.390625
366		-31.250000
367		-29.296875
368		-33.203125
369		-29.296875
370		-37.109375
371		-29.296875
372		-37.109375
373		-29.296875
374		-37.109375
375		-31.250000
376		-39.062500
377		-31.250000
378		-39.062500
379		-33.203125
380		-39.062500
381		-33.203125
382		-39.062500
383		-35.156250
384		-39.062500
385		-35.156250
386		-41.015625
387		-33.203125
388		-41.015625
389		-33.203125
390		-41.015625
391		-33.203125
392		-41.015625
393		-33.203125
394		-41.015625
395		-33.203125
396		-39.062500
397		-33.203125
398		-39.062500
399		-33.203125
400		-35.156250
401		-33.203125
402		-37.109375
403		-31.250000
404		-37.109375
405		-29.296875
406		-35.156250
407		-29.296875
408		-35.156250
409		-27.343750
410		-33.203125
411		-25.390625
412		-31.250000
413		-23.437500
414		-31.250000
415		-23.437500
416		-27.343750
417		-23.437500
418		-25.390625
419		-21.484375
420		-25.390625
421		-17.578125
422		-25.390625
423		-15.625000
424		-21.484375
425		-13.671875
426		-21.484375
427		-11.718750
428		-19.531250
429		-9.765625
430		-17.578125
431		-7.812500
432		-13.671875
433		-7.812500
434		-9.765625
435		-5.859375
436		-9.765625
437		-1.953125
438		-7.812500
439		0.000000
440		-5.859375
441		1.953125
442		-3.906250
443		5.859375
444		0.000000
445		7.812500
446		1.953125
447		9.765625
448		3.906250
449		9.765625
450		7.812500
451		11.718750
452		9.765625
453		13.671875
454		11.718750
455		17.578125
456		13.671875
457		21.484375
458		15.625000
459		23.437500
460		17.578125
461		25.390625
462		19.531250
463		27.343750
464		21.484375
465		29.296875
466		23.437500
467		29.296875
468		27.343750
469		31.250000
470		29.296875
471		35.156250
472		31.250000
473		37.109375
474		31.250000
475		39.062500
476		33.203125
477		41.015625
478		35.156250
479		42.968750
480		37.109375
481		44.921875
482		39.062500
483		44.921875
484		42.968750
485		46.875000
486		42.968750
487		48.828125
488		42.968750
489		50.781250
490		44.921875
491		52.734375
492		44.921875
493		52.734375
494		46.875000
495		54.687500
496		46.875000
497		54.687500
498		48.828125
499		56.640625
500		52.734375
501		54.687500
502		52.734375
503		54.687500
504		50.781250
505		58.593750
506		50.781250
507		58.593750
508		52.734375
509		58.593750
510		52.734375
511		58.593750
512		52.734375
513		58.593750
514		52.734375
515		60.546875
516		52.734375
517		58.593750
518		54.687500
519		56.640625
520		52.734375
521		58.593750
522		52.734375
523		58.593750
524		50.781250
525		58.593750
526		50.781250
527		56.640625
528		50.781250
529		56.640625
530		48.828125
531		56.640625
532		48.828125
533		56.640625
534		48.828125
535		52.734375
536		48.828125
537		50.781250
538		44.921875
539		52.734375
540		42.968750
541		50.781250
542		42.968750
543		50.781250
544		41.015625
545		48.828125
546		39.062500
547		46.875000
548		39.062500
549		44.921875
550		37.109375
551		42.968750
552		37.109375
553		41.015625
554		33.203125
555		39.062500
556		31.250000
557		39.062500
558		29.296875
559		37.109375
560		27.343750
561		35.156250
562		25.390625
563		33.203125
564		23.437500
565		31.250000
566		21.484375
567		29.296875
568		19.531250
569		23.437500
570		15.625000
571		21.484375
572		13.671875
573		21.484375
574		11.718750
575		19.531250
576		7.812500
577		17.578125
578		5.859375
579		15.625000
580		3.906250
581		11.718750
582		1.953125
583		9.765625
584		1.953125
585		5.859375
586		0.000000
587		3.906250
588		-5.859375
589		1.953125
590		-7.812500
591		0.000000
592		-9.765625
593		-1.953125
594		-11.718750
595		-1.953125
596		-13.671875
597		-5.859375
598		-15.625000
599		-7.812500
600		-15.625000
601		-9.765625
602		-17.578125
603		-13.671875
604		-21.484375
605		-15.625000
606		-23.437500
607		-15.625000
608		-25.390625
609		-17.578125
610		-27.343750
611		-19.531250
612		-29.296875
613		-21.484375
614		-31.250000
615		-23.437500
616		-31.250000
617		-23.437500
618		-31.250000
619		-27.343750
620		-31.250000
621		-29.296875
622		-35.156250
623		-29.296875
624		-37.109375
625		-29.296875
626		-37.109375
627		-29.296875
628		-37.109375
629		-31.250000
630		-39.062500
631		-31.250000
632		-39.062500
633		-31.250000
634		-39.062500
635		-33.203125
636		-37.109375
637		-35.156250
638		-41.015625
639		-33.203125
640		-41.015625
641		-33.203125
642		-41.015625
643		-33.203125
644		-41.015625
645		-33.203125
646		-41.015625
647		-33.203125
648		-39.062500
649		-33.203125
650		-39.062500
651		-33.203125
652		-37.109375
653		-33.203125
654		-37.109375
655		-31.250000
656		-37.109375
657		-29.296875
658		-35.156250
659		-29.296875
660		-35.156250
661		-27.343750
662		-33.203125
663		-25.390625
664		-31.250000
665		-25.390625
666		-31.250000
667		-23.437500
668		-27.343750
669		-23.437500
670		-25.390625
671		-21.484375
672		-25.390625
673		-17.578125
674		-25.390625
675		-15.625000
676		-21.484375
677		-15.625000
678		-21.484375
679		-11.718750
680		-17.578125
681		-11.718750
682		-17.578125
683		-7.812500
684		-13.671875
685		-7.812500
686		-9.765625
687		-5.859375
688		-9.765625
689		-1.953125
690		-7.812500
691		0.000000
692		-5.859375
693		1.953125
694		-3.906250
695		5.859375
696		-1.953125
697		7.812500
698		0.000000
699		9.765625
700		3.906250
701		11.718750
702		7.812500
703		11.718750
704		9.765625
705		13.671875
706		9.765625
707		19.531250
708		11.718750
709		21.484375
710		13.671875
711		23.437500
712		17.578125
713		25.390625
714		19.531250
715		27.343750
716		21.484375
717		29.296875
718		23.437500
719		29.296875
720		27.343750
721		31.250000
722		29.296875
723		35.156250
724		29.296875
725		37.109375
726		31.250000
727		39.062500
728		33.203125
729		41.015625
730		35.156250
731		42.968750
732		37.109375
733		44.921875
734		39.062500
735		46.875000
736		42.968750
737		46.875000
738		42.968750
739		46.875000
740		42.968750
741		50.781250
742		44.921875
743		52.734375
744		46.875000
745		52.734375
746		46.875000
747		54.687500
748		48.828125
749		54.687500
750		48.828125
751		56.640625
752		52.734375
753		54.687500
754		52.734375
755		54.687500
756		50.781250
757		58.593750
758		50.781250
759		58.593750
760		52.734375
761		58.593750
762		52.734375
763		60.546875
764		52.734375
765		60.546875
766		52.734375
767		60.546875
768		52.734375
769		60.546875
770		54.687500
771		56.640625
772		52.734375
773		58.593750
774		52.734375
775		58.593750
776		50.781250
777		58.593750
778		50.781250
779		58.593750
780		50.781250
781		56.640625
782		50.781250
783		56.640625
784		48.828125
785		56.640625
786		50.781250
787		52.734375
788		48.828125
789		52.734375
790		44.921875
791		52.734375
792		44.921875
793		52.734375
794		42.968750
795		50.781250
796		41.015625
797		48.828125
798		39.062500
799		48.828125
800		37.109375
801		46.875000
802		39.062500
803		44.921875
804		37.109375
805		41.015625
806		33.203125
807		39.062500
808		31.250000
809		39.062500
810		29.296875
811		37.109375
812		27.343750
813		35.156250
814		25.390625
815		33.203125
816		23.437500
817		31.250000
818		23.437500
819		29.296875
820		21.484375
821		25.390625
822		19.531250
823		23.437500
824		15.625000
825		23.437500
826		11.718750
827		19.531250
828		9.765625
829		17.578125
830		7.812500
831		15.625000
832		5.859375
833		13.671875
834		1.953125
835		11.718750
836		1.953125
837		7.812500
838		0.000000
839		3.906250
840		-3.906250
841		3.906250
842		-5.859375
843		1.953125
844		-7.812500
845		0.000000
846		-9.765625
847		-1.953125
848		-13.671875
849		-3.906250
850		-15.625000
851		-5.859375
852		-15.625000
853		-9.765625
854		-17.578125
855		-13.671875
856		-21.484375
857		-15.625000
858		-23.437500
859		-15.625000
860		-25.390625
861		-17.578125
862		-27.343750
863		-17.578125
864		-29.296875
865		-19.531250
866		-29.296875
867		-21.484375
868		-31.250000
869		-23.437500
870		-29.296875
871		-27.343750
872		-31.250000
873		-29.296875
874		-35.156250
875		-27.343750
876		-37.109375
877		-29.296875
878		-37.109375
879		-29.296875
880		-37.109375
881		-31.250000
882		-39.062500
883		-31.250000
884		-39.062500
885		-33.203125
886		-39.062500
887		-33.203125
888		-37.109375
889		-35.156250
890		-41.015625
891		-33.203125
892		-41.015625
893		-33.203125
894		-41.015625
895		-33.203125
896		-41.015625
897		-33.203125
898		-41.015625
899		-33.203125
900		-41.015625
901		-33.203125
902		-39.062500
903		-33.203125
904		-37.109375
905		-33.203125
906		-35.156250
907		-33.203125
908		-37.109375
909		-29.296875
910		-37.109375
911		-29.296875
912		-35.156250
913		-27.343750
914		-33.203125
915		-25.390625
916		-33.203125
917		-25.390625
918		-31.250000
919		-23.437500
920		-29.296875
921		-25.390625
922		-25.390625
923		-23.437500
924		-27.343750
925		-19.531250
926		-25.390625
927		-17.578125
928		-23.437500
929		-15.625000
930		-21.484375
931		-13.671875
932		-19.531250
933		-11.718750
934		-17.578125
935		-9.765625
936		-15.625000
937		-7.812500
938		-11.718750
939		-7.812500
940		-9.765625
941		-3.906250
942		-9.765625
943		-1.953125
944		-5.859375
945		1.953125
946		-3.906250
947		3.906250
948		-1.953125
949		5.859375
950		0.000000
951		7.812500
952		1.953125
953		9.765625
954		7.812500
955		9.765625
956		9.765625
957		13.671875
958		9.765625
959		17.578125
960		11.718750
961		19.531250
962		13.671875
963		21.484375
964		15.625000
965		23.437500
966		19.531250
967		25.390625
968		21.484375
969		29.296875
970		23.437500
971		29.296875
972		27.343750
973		31.250000
974		27.343750
975		35.156250
976		29.296875
977		37.109375
978		31.250000
979		39.062500
980		33.203125
981		41.015625
982		35.156250
983		42.968750
984		35.156250
985		44.921875
986		37.109375
987		44.921875
988		41.015625
989		44.921875
990		42.968750
991		46.875000
992		42.968750
993		50.781250
994		42.968750
995		50.781250
996		44.921875
997		52.734375
998		46.875000
999		52.734375
1000		46.875000
1001		54.687500
1002		48.828125
1003		54.687500
1004		50.781250
1005		54.687500
1006		52.734375
1007		54.687500
1008		50.781250
1009		58.593750
1010		50.781250
1011		58.593750
1012		50.781250
1013		58.593750
1014		50.781250
1015		58.593750
1016		52.734375
1017		58.593750
1018		52.734375
1019		58.593750
1020		52.734375
1021		58.593750
1022		54.687500
1023		56.640625
1024		54.687500
1025		56.640625
1026		50.781250
1027		58.593750
1028		50.781250
1029		58.593750
1030		50.781250
1031		58.593750
1032		50.781250
1033		56.640625
1034		48.828125
1035		56.640625
1036		48.828125
1037		56.640625
1038		48.828125
1039		52.734375
1040		48.828125
1041		50.781250
1042		44.921875
1043		52.734375
1044		44.921875
1045		52.734375
1046		42.968750
1047		50.781250
1048		41.015625
1049		48.828125
1050		41.015625
1051		46.875000
1052		39.062500
1053		46.875000
1054		39.062500
1055		44.921875
1056		37.109375
1057		41.015625
1058		33.203125
1059		41.015625
1060		31.250000
1061		39.062500
1062		29.296875
1063		37.109375
1064		27.343750
1065		35.156250
1066		25.390625
1067		33.203125
1068		23.437500
1069		31.250000
1070		21.484375
1071		29.296875
1072		21.484375
1073		25.390625
1074		19.531250
1075		23.437500
1076		13.671875
1077		21.484375
1078		13.671875
1079		21.484375
1080		9.765625
1081		17.578125
1082		7.812500
1083		15.625000
1084		5.859375
1085		13.671875
1086		3.906250
1087		11.718750
1088		3.906250
1089		9.765625
1090		0.000000
1091		3.906250
1092		-3.906250
1093		3.906250
1094		-5.859375
1095		1.953125
1096		-7.812500
1097		0.000000
1098		-11.718750
1099		-1.953125
1100		-13.671875
1101		-3.906250
1102		-15.625000
1103		-5.859375
1104		-15.625000
1105		-9.765625
1106		-17.578125
1107		-13.671875
1108		-19.531250
1109		-15.625000
1110		-23.437500
1111		-13.671875
1112		-25.390625
1113		-17.578125
1114		-25.390625
1115		-19.531250
1116		-27.343750
1117		-19.531250
1118		-29.296875
1119		-21.484375
1120		-31.250000
1121		-23.437500
1122		-31.250000
1123		-27.343750
1124		-31.250000
1125		-29.296875
1126		-35.156250
1127		-29.296875
1128		-37.109375
1129		-29.296875
1130		-37.109375
1131		-29.296875
1132		-37.109375
1133		-31.250000
1134		-39.062500
1135		-31.250000
1136		-41.015625
1137		-31.250000
1138		-39.062500
1139		-33.203125
1140		-37.109375
1141		-35.156250
1142		-39.062500
1143		-33.203125
1144		-41.015625
1145		-33.203125
1146		-41.015625
1147		-33.203125
1148		-41.015625
1149		-33.203125
1150		-41.015625
1151		-33.203125
1152		-41.015625
1153		-33.203125
1154		-39.062500
1155		-33.203125
1156		-37.109375
1157		-35.156250
1158		-35.156250
1159		-33.203125
1160		-37.109375
1161		-31.250000
1162		-37.109375
1163		-29.296875
1164		-35.156250
1165		-27.343750
1166		-35.156250
1167		-27.343750
1168		-33.203125
1169		-25.390625
1170		-31.250000
1171		-23.437500
1172		-31.250000
1173		-23.437500
1174		-27.343750
1175		-23.437500
1176		-27.343750
1177		-19.531250
1178		-25.390625
1179		-17.578125
1180		-23.437500
1181		-15.625000
1182		-21.484375
1183		-13.671875
1184		-19.531250
1185		-11.718750
1186		-17.578125
1187		-9.765625
1188		-15.625000
1189		-9.765625
1190		-11.718750
1191		-7.812500
1192		-9.765625
1193		-5.859375
1194		-9.765625
1195		-1.953125
1196		-7.812500
1197		1.953125
1198		-3.906250
1199		1.953125
1200		-3.906250
1201		5.859375
1202		0.000000
1203		7.812500
1204		1.953125
1205		9.765625
1206		5.859375
1207		9.765625
1208		9.765625
1209		11.718750
1210		9.765625
1211		17.578125
1212		11.718750
1213		19.531250
1214		13.671875
1215		21.484375
1216		15.625000
1217		23.437500
1218		17.578125
1219		25.390625
1220		19.531250
1221		29.296875
1222		21.484375
1223		29.296875
1224		27.343750
1225		31.250000
1226		29.296875
1227		35.156250
1228		29.296875
1229		37.109375
1230		29.296875
1231		39.062500
1232		33.203125
1233		41.015625
1234		35.156250
1235		42.968750
1236		37.109375
1237		42.968750
1238		37.109375
1239		44.921875
1240		41.015625
1241		44.921875
1242		42.968750
1243		46.875000
1244		42.968750
1245		48.828125
1246		44.921875
1247		50.781250
1248		44.921875
1249		52.734375
1250		46.875000
1251		52.734375
1252		46.875000
1253		54.687500
1254		48.828125
1255		54.687500
1256		48.828125
1257		54.687500
1258		52.734375
1259		54.687500
1260		50.781250
1261		58.593750
1262		50.781250
1263		58.593750
1264		52.734375
1265		58.593750
1266		50.781250
1267		58.593750
1268		52.734375
1269		58.593750
1270		52.734375
1271		58.593750
1272		52.734375
1273		58.593750
1274		54.687500
1275		56.640625
1276		52.734375
1277		56.640625
1278		50.781250
1279		58.593750
1280		50.781250
1281		58.593750
1282		50.781250
1283		58.593750
1284		50.781250
1285		56.640625
1286		50.781250
1287		56.640625
1288		48.828125
1289		54.687500
1290		50.781250
1291		52.734375
1292		48.828125
1293		52.734375
1294		44.921875
1295		52.734375
1296		44.921875
1297		52.734375
1298		42.968750
1299		50.781250
1300		41.015625
1301		48.828125
1302		39.062500
1303		48.828125
1304		39.062500
1305		46.875000
1306		39.062500
1307		44.921875
1308		37.109375
1309		41.015625
1310		33.203125
1311		39.062500
1312		31.250000
1313		39.062500
1314		29.296875
1315		37.109375
1316		27.343750
1317		37.109375
1318		25.390625
1319		33.203125
1320		25.390625
1321		31.250000
1322		21.484375
1323		29.296875
1324		21.484375
1325		25.390625
1326		19.531250
1327		23.437500
1328		15.625000
1329		23.437500
1330		13.671875
1331		21.484375
1332		9.765625
1333		17.578125
1334		7.812500
1335		17.578125
1336		5.859375
1337		13.671875
1338		3.906250
1339		11.718750
1340		3.906250
1341		9.765625
1342		0.000000
1343		5.859375
1344		-3.906250
1345		3.906250
1346		-5.859375
1347		3.906250
1348		-7.812500
1349		0.000000
1350		-9.765625
1351		-1.953125
1352		-11.718750
1353		-3.906250
1354		-13.671875
1355		-5.859375
1356		-15.625000
1357		-7.812500
1358		-15.625000
1359		-13.671875
1360		-17.578125
1361		-15.625000
1362		-23.437500
1363		-15.625000
1364		-25.390625
1365		-17.578125
1366		-25.390625
1367		-17.578125
1368		-27.343750
1369		-19.531250
1370		-29.296875
1371		-21.484375
1372		-31.250000
1373		-23.437500
1374		-29.296875
1375		-27.343750
1376		-31.250000
1377		-27.343750
1378		-35.156250
1379		-27.343750
1380		-35.156250
1381		-29.296875
1382		-37.109375
1383		-29.296875
1384		-37.109375
1385		-31.250000
1386		-39.062500
1387		-31.250000
1388		-39.062500
1389		-33.203125
1390		-39.062500
1391		-33.203125
1392		-37.109375
1393		-35.156250
1394		-39.062500
1395		-35.156250
1396		-41.015625
1397		-33.203125
1398		-41.015625
1399		-33.203125
1400		-41.015625
1401		-33.203125
1402		-41.015625
1403		-33.203125
1404		-41.015625
1405		-33.203125
1406		-39.062500
1407		-33.203125
1408		-37.109375
1409		-35.156250
1410		-37.109375
1411		-33.203125
1412		-37.109375
1413		-31.250000
1414		-37.109375
1415		-29.296875
1416		-35.156250
1417		-29.296875
1418		-35.156250
1419		-27.343750
1420		-33.203125
1421		-25.390625
1422		-31.250000
1423		-25.390625
1424		-31.250000
1425		-23.437500
1426		-27.343750
1427		-23.437500
1428		-25.390625
1429		-19.531250
1430		-25.390625
1431		-17.578125
1432		-25.390625
1433		-15.625000
1434		-23.437500
1435		-13.671875
1436		-21.484375
1437		-11.718750
1438		-19.531250
1439		-9.765625
1440		-15.625000
1441		-9.765625
1442		-11.718750
1443		-7.812500
1444		-9.765625
1445		-5.859375
1446		-9.765625
1447		-1.953125
1448		-7.812500
1449		0.000000
1450		-5.859375
1451		3.906250
1452		-1.953125
1453		5.859375
1454		-1.953125
1455		7.812500
1456		1.953125
1457		9.765625
1458		5.859375
1459		9.765625
1460		7.812500
1461		11.718750
1462		9.765625
1463		17.578125
1464		9.765625
1465		19.531250
1466		13.671875
1467		21.484375
1468		15.625000
1469		23.437500
1470		17.578125
1471		25.390625
1472		19.531250
1473		27.343750
1474		21.484375
1475		29.296875
1476		25.390625
1477		29.296875
1478		29.296875
1479		33.203125
1480		27.343750
1481		35.156250
1482		29.296875
1483		37.109375
1484		31.250000
1485		41.015625
1486		33.203125
1487		41.015625
1488		35.156250
1489		42.968750
1490		37.109375
1491		44.921875
1492		41.015625
1493		44.921875
1494		42.968750
1495		46.875000
1496		42.968750
1497		50.781250
1498		42.968750
1499		50.781250
1500		44.921875
1501		52.734375
1502		44.921875
1503		52.734375
1504		46.875000
1505		54.687500
1506		48.828125
1507		54.687500
1508		48.828125
1509		54.687500
1510		52.734375
1511		54.687500
1512		50.781250
1513		56.640625
1514		50.781250
1515		58.593750
1516		52.734375
1517		58.593750
1518		52.734375
1519		58.593750
1520		52.734375
1521		58.593750
1522		52.734375
1523		58.593750
1524		52.734375
1525		60.546875
1526		54.687500
1527		56.640625
1528		52.734375
1529		56.640625
1530		52.734375
1531		58.593750
1532		50.781250
1533		58.593750
1534		50.781250
1535		58.593750
1536		50.781250
1537		58.593750
1538		48.828125
1539		56.640625
1540		48.828125
1541		56.640625
1542		50.781250
1543		54.687500
1544		48.828125
1545		52.734375
1546		46.875000
1547		52.734375
1548		44.921875
1549		52.734375
1550		42.968750
1551		50.781250
1552		41.015625
1553		50.781250
1554		41.015625
1555		48.828125
1556		39.062500
1557		46.875000
1558		39.062500
1559		44.921875
1560		39.062500
1561		41.015625
1562		35.156250
1563		41.015625
1564		33.203125
1565		41.015625
1566		31.250000
1567		39.062500
1568		29.296875
1569		37.109375
1570		27.343750
1571		35.156250
1572		23.437500
1573		33.203125
1574		23.437500
1575		31.250000
1576		23.437500
1577		25.390625
1578		19.531250
1579		23.437500
1580		15.625000
1581		23.437500
1582		13.671875
1583		21.484375
1584		11.718750
1585		19.531250
1586		7.812500
1587		17.578125
1588		5.859375
1589		13.671875
1590		1.953125
1591		11.718750
1592		3.906250
1593		9.765625
1594		1.953125
1595		5.859375
1596		-3.906250
1597		3.906250
1598		-3.906250
1599		1.953125
1600		-7.812500
1601		0.000000
1602		-9.765625
1603		-1.953125
1604		-11.718750
1605		-3.906250
1606		-13.671875
1607		-5.859375
1608		-13.671875
1609		-7.812500
1610		-15.625000
1611		-11.718750
1612		-17.578125
1613		-13.671875
1614		-21.484375
1615		-13.671875
1616		-23.437500
1617		-15.625000
1618		-25.390625
1619		-17.578125
1620		-27.343750
1621		-19.531250
1622		-29.296875
1623		-21.484375
1624		-31.250000
1625		-23.437500
1626		-29.296875
1627		-25.390625
1628		-31.250000
1629		-27.343750
1630		-35.156250
1631		-27.343750
1632		-35.156250
1633		-29.296875
1634		-37.109375
1635		-29.296875
1636		-37.109375
1637		-31.250000
1638		-39.062500
1639		-31.250000
1640		-39.062500
1641		-33.203125
1642		-39.062500
1643		-33.203125
1644		-37.109375
1645		-35.156250
1646		-39.062500
1647		-35.156250
1648		-41.015625
1649		-33.203125
1650		-41.015625
1651		-33.203125
1652		-41.015625
1653		-35.156250
1654		-41.015625
1655		-33.203125
1656		-41.015625
1657		-35.156250
1658		-39.062500
1659		-33.203125
1660		-37.109375
1661		-33.203125
1662		-37.109375
1663		-33.203125
1664		-37.109375
1665		-31.250000
1666		-37.109375
1667		-29.296875
1668		-35.156250
1669		-29.296875
1670		-35.156250
1671		-27.343750
1672		-33.203125
1673		-27.343750
1674		-31.250000
1675		-25.390625
1676		-31.250000
1677		-25.390625
1678		-27.343750
1679		-25.390625
1680		-27.343750
1681		-21.484375
1682		-27.343750
1683		-19.531250
1684		-25.390625
1685		-17.578125
1686		-23.437500
1687		-17.578125
1688		-19.531250
1689		-13.671875
1690		-17.578125
1691		-13.671875
1692		-15.625000
1693		-11.718750
1694		-11.718750
1695		-9.765625
1696		-11.718750
1697		-7.812500
1698		-9.765625
1699		-3.906250
1700		-5.859375
1701		-1.953125
1702		-3.906250
1703		0.000000
1704		-1.953125
1705		1.953125
1706		0.000000
1707		3.906250
1708		1.953125
1709		7.812500
1710		3.906250
1711		9.765625
1712		7.812500
1713		11.718750
1714		9.765625
1715		13.671875
1716		11.718750
1717		15.625000
1718		13.671875
1719		19.531250
1720		15.625000
1721		21.484375
1722		19.531250
1723		23.437500
1724		21.484375
1725		25.390625
1726		23.437500
1727		27.343750
1728		25.390625
1729		29.296875
1730		27.343750
1731		31.250000
1732		29.296875
1733		33.203125
1734		31.250000
1735		35.156250
1736		33.203125
1737		37.109375
1738		35.156250
1739		39.062500
1740		37.109375
1741		41.015625
1742		39.062500
1743		42.968750
1744		41.015625
1745		42.968750
1746		42.968750
1747		44.921875
1748		42.968750
1749		46.875000
1750		44.921875
1751		48.828125
1752		44.921875
1753		48.828125
1754		46.875000
1755		50.781250
1756		48.828125
1757		52.734375
1758		48.828125
1759		52.734375
1760		48.828125
1761		52.734375
1762		50.781250
1763		54.687500
1764		52.734375
1765		56.640625
1766		52.734375
1767		54.687500
1768		52.734375
1769		56.640625
1770		52.734375
1771		56.640625
1772		52.734375
1773		56.640625
1774		52.734375
1775		56.640625
1776		52.734375
1777		56.640625
1778		54.687500
1779		56.640625
1780		54.687500
1781		56.640625
1782		52.734375
1783		56.640625
1784		52.734375
1785		56.640625
1786		52.734375
1787		56.640625
1788		52.734375
1789		54.687500
1790		52.734375
1791		54.687500
1792		50.781250
1793		54.687500
1794		50.781250
1795		54.687500
1796		48.828125
1797		52.734375
1798		48.828125
1799		50.781250
1800		46.875000
1801		50.781250
1802		44.921875
1803		48.828125
1804		44.921875
1805		46.875000
1806		42.968750
1807		46.875000
1808		41.015625
1809		44.921875
1810		39.062500
1811		42.968750
1812		37.109375
1813		41.015625
1814		35.156250
1815		41.015625
1816		35.156250
1817		39.062500
1818		33.203125
1819		37.109375
1820		31.250000
1821		35.156250
1822		29.296875
1823		33.203125
1824		27.343750
1825		31.250000
1826		23.437500
1827		27.343750
1828		23.437500
1829		25.390625
1830		19.531250
1831		23.437500
1832		17.578125
1833		21.484375
1834		15.625000
1835		19.531250
1836		13.671875
1837		17.578125
1838		11.718750
1839		15.625000
1840		7.812500
1841		13.671875
1842		5.859375
1843		9.765625
1844		3.906250
1845		9.765625
1846		1.953125
1847		5.859375
1848		0.000000
1849		3.906250
1850		-3.906250
1851		1.953125
1852		-5.859375
1853		-1.953125
1854		-7.812500
1855		-3.906250
1856		-9.765625
1857		-5.859375
1858		-11.718750
1859		-7.812500
1860		-15.625000
1861		-9.765625
1862		-15.625000
1863		-11.718750
1864		-17.578125
1865		-13.671875
1866		-19.531250
1867		-15.625000
1868		-21.484375
1869		-17.578125
1870		-23.437500
1871		-19.531250
1872		-25.390625
1873		-21.484375
1874		-27.343750
1875		-23.437500
1876		-29.296875
1877		-23.437500
1878		-29.296875
1879		-25.390625
1880		-31.250000
1881		-29.296875
1882		-33.203125
1883		-29.296875
1884		-33.203125
1885		-31.250000
1886		-35.156250
1887		-31.250000
1888		-35.156250
1889		-33.203125
1890		-37.109375
1891		-33.203125
1892		-37.109375
1893		-33.203125
1894		-39.062500
1895		-35.156250
1896		-39.062500
1897		-37.109375
1898		-39.062500
1899		-35.156250
1900		-39.062500
1901		-35.156250
1902		-39.062500
1903		-37.109375
1904		-39.062500
1905		-37.109375
1906		-39.062500
1907		-37.109375
1908		-39.062500
1909		-35.156250
1910		-39.062500
1911		-35.156250
1912		-37.109375
1913		-35.156250
1914		-37.109375
1915		-35.156250
1916		-37.109375
1917		-33.203125
1918		-37.109375
1919		-33.203125
1920		-35.156250
1921		-31.250000
1922		-33.203125
1923		-31.250000
1924		-33.203125
1925		-29.296875
1926		-31.250000
1927		-27.343750
1928		-31.250000
1929		-27.343750
1930		-29.296875
1931		-25.390625
1932		-27.343750
1933		-23.437500
1934		-25.390625
1935		-21.484375
1936		-23.437500
1937		-19.531250
1938		-21.484375
1939		-17.578125
1940		-19.531250
1941		-15.625000
1942		-17.578125
1943		-13.671875
1944		-15.625000
1945		-11.718750
1946		-13.671875
1947		-9.765625
1948		-11.718750
1949		-7.812500
1950		-9.765625
1951		-5.859375
1952		-7.812500
1953		-3.906250
1954		-5.859375
1955		0.000000
1956		-1.953125
1957		1.953125
1958		0.000000
1959		3.906250
1960		1.953125
1961		5.859375
1962		3.906250
1963		7.812500
1964		5.859375
1965		9.765625
1966		7.812500
1967		13.671875
1968		11.718750
1969		15.625000
1970		13.671875
1971		17.578125
1972		15.625000
1973		19.531250
1974		17.578125
1975		21.484375
1976		19.531250
1977		23.437500
1978		21.484375
1979		25.390625
1980		23.437500
1981		27.343750
1982		27.343750
1983		31.250000
1984		27.343750
1985		33.203125
1986		31.250000
1987		35.156250
1988		33.203125
1989		37.109375
1990		33.203125
1991		37.109375
1992		37.109375
1993		41.015625
1994		37.109375
1995		42.968750
1996		39.062500
1997		42.968750
1998		41.015625
1999		44.921875
2000		42.968750
2001		46.875000
2002		42.968750
2003		46.875000
2004		44.921875
2005		48.828125
2006		46.875000
2007		50.781250
2008		46.875000
2009		50.781250
2010		48.828125
2011		52.734375
2012		48.828125
2013		52.734375
2014		50.781250
2015		52.734375
2016		50.781250
2017		54.687500
2018		52.734375
2019		54.687500
2020		52.734375
2021		54.687500
2022		52.734375
2023		56.640625
2024		52.734375
2025		56.640625
2026		52.734375
2027		56.640625
2028		52.734375
2029		56.640625
2030		54.687500
2031		56.640625
2032		54.687500
2033		56.640625
2034		52.734375
2035		56.640625
2036		52.734375
2037		56.640625
2038		52.734375
2039		56.640625
2040		52.734375
2041		54.687500
2042		50.781250
2043		54.687500
2044		50.781250
2045		54.687500
2046		48.828125
2047		54.687500
2048		48.828125
2049		52.734375
2050		46.875000
2051		50.781250
2052		46.875000
2053		50.781250
2054		44.921875
2055		48.828125
2056		44.921875
2057		46.875000
2058		42.968750
2059		46.875000
2060		41.015625
2061		44.921875
2062		39.062500
2063		42.968750
2064		39.062500
2065		41.015625
2066		37.109375
2067		39.062500
2068		35.156250
2069		39.062500
2070		33.203125
2071		37.109375
2072		31.250000
2073		35.156250
2074		29.296875
2075		33.203125
2076		25.390625
2077		31.250000
2078		23.437500
2079		29.296875
2080		23.437500
2081		27.343750
2082		19.531250
2083		23.437500
2084		17.578125
2085		21.484375
2086		15.625000
2087		19.531250
2088		13.671875
2089		17.578125
2090		11.718750
2091		15.625000
2092		7.812500
2093		13.671875
2094		5.859375
2095		11.718750
2096		3.906250
2097		7.812500
2098		1.953125
2099		5.859375
2100		-1.953125
2101		3.906250
2102		-3.906250
2103		1.953125
2104		-5.859375
2105		-1.953125
2106		-7.812500
2107		-3.906250
2108		-9.765625
2109		-5.859375
2110		-11.718750
2111		-7.812500
2112		-13.671875
2113		-9.765625
2114		-15.625000
2115		-11.718750
2116		-17.578125
2117		-13.671875
2118		-21.484375
2119		-15.625000
2120		-23.437500
2121		-17.578125
2122		-23.437500
2123		-19.531250
2124		-25.390625
2125		-21.484375
2126		-27.343750
2127		-23.437500
2128		-29.296875
2129		-25.390625
2130		-31.250000
2131		-25.390625
2132		-31.250000
2133		-29.296875
2134		-33.203125
2135		-29.296875
2136		-33.203125
2137		-31.250000
2138		-35.156250
2139		-31.250000
2140		-35.156250
2141		-33.203125
2142		-37.109375
2143		-33.203125
2144		-37.109375
2145		-35.156250
2146		-39.062500
2147		-35.156250
2148		-39.062500
2149		-37.109375
2150		-39.062500
2151		-37.109375
2152		-39.062500
2153		-37.109375
2154		-41.015625
2155		-37.109375
2156		-41.015625
2157		-37.109375
2158		-39.062500
2159		-35.156250
2160		-39.062500
2161		-37.109375
2162		-39.062500
2163		-35.156250
2164		-39.062500
2165		-35.156250
2166		-37.109375
2167		-35.156250
2168		-37.109375
2169		-33.203125
2170		-37.109375
2171		-33.203125
2172		-35.156250
2173		-33.203125
2174		-35.156250
2175		-31.250000
2176		-33.203125
2177		-31.250000
2178		-33.203125
2179		-29.296875
2180		-31.250000
2181		-27.343750
2182		-29.296875
2183		-25.390625
2184		-27.343750
2185		-23.437500
2186		-27.343750
2187		-23.437500
2188		-25.390625
2189		-21.484375
2190		-23.437500
2191		-19.531250
2192		-21.484375
2193		-17.578125
2194		-19.531250
2195		-15.625000
2196		-17.578125
2197		-11.718750
2198		-15.625000
2199		-11.718750
2200		-11.718750
2201		-9.765625
2202		-9.765625
2203		-5.859375
2204		-9.765625
2205		-3.906250
2206		-5.859375
2207		-1.953125
2208		-3.906250
2209		0.000000
2210		-1.953125
2211		3.906250
2212		0.000000
2213		3.906250
2214		1.953125
2215		7.812500
2216		5.859375
2217		9.765625
2218		7.812500
2219		11.718750
2220		9.765625
2221		13.671875
2222		11.718750
2223		15.625000
2224		13.671875
2225		17.578125
2226		15.625000
2227		21.484375
2228		19.531250
2229		23.437500
2230		21.484375
2231		25.390625
2232		23.437500
2233		27.343750
2234		25.390625
2235		29.296875
2236		27.343750
2237		31.250000
2238		29.296875
2239		33.203125
2240		31.250000
2241		35.156250
2242		33.203125
2243		37.109375
2244		35.156250
2245		39.062500
2246		37.109375
2247		41.015625
2248		39.062500
2249		42.968750
2250		41.015625
2251		44.921875
2252		41.015625
2253		44.921875
2254		42.968750
2255		46.875000
2256		44.921875
2257		48.828125
2258		44.921875
2259		50.781250
2260		46.875000
2261		50.781250
2262		46.875000
2263		52.734375
2264		48.828125
2265		52.734375
2266		50.781250
2267		52.734375
2268		50.781250
2269		54.687500
2270		50.781250
2271		54.687500
2272		52.734375
2273		54.687500
2274		52.734375
2275		56.640625
2276		52.734375
2277		56.640625
2278		52.734375
2279		56.640625
2280		52.734375
2281		56.640625
2282		52.734375
2283		56.640625
2284		52.734375
2285		56.640625
2286		52.734375
2287		56.640625
2288		52.734375
2289		56.640625
2290		52.734375
2291		56.640625
2292		52.734375
2293		54.687500
2294		50.781250
2295		54.687500
2296		50.781250
2297		54.687500
2298		48.828125
2299		52.734375
2300		48.828125
2301		50.781250
2302		46.875000
2303		50.781250
2304		46.875000
2305		48.828125
2306		44.921875
2307		48.828125
2308		44.921875
2309		46.875000
2310		42.968750
2311		46.875000
2312		41.015625
2313		44.921875
2314		39.062500
2315		42.968750
2316		37.109375
2317		41.015625
2318		37.109375
2319		39.062500
2320		35.156250
2321		39.062500
2322		31.250000
2323		37.109375
2324		31.250000
2325		35.156250
2326		29.296875
2327		33.203125
2328		27.343750
2329		31.250000
2330		23.437500
2331		29.296875
2332		23.437500
2333		27.343750
2334		19.531250
2335		23.437500
2336		17.578125
2337		23.437500
2338		15.625000
2339		19.531250
2340		13.671875
2341		17.578125
2342		9.765625
2343		15.625000
2344		9.765625
2345		13.671875
2346		5.859375
2347		11.718750
2348		3.906250
2349		7.812500
2350		1.953125
2351		5.859375
2352		-1.953125
2353		3.906250
2354		-3.906250
2355		1.953125
2356		-3.906250
2357		-1.953125
2358		-7.812500
2359		-3.906250
2360		-9.765625
2361		-5.859375
2362		-11.718750
2363		-7.812500
2364		-13.671875
2365		-9.765625
2366		-15.625000
2367		-11.718750
2368		-17.578125
2369		-13.671875
2370		-21.484375
2371		-15.625000
2372		-21.484375
2373		-17.578125
2374		-25.390625
2375		-19.531250
2376		-25.390625
2377		-21.484375
2378		-27.343750
2379		-23.437500
2380		-29.296875
2381		-25.390625
2382		-31.250000
2383		-25.390625
2384		-31.250000
2385		-29.296875
2386		-33.203125
2387		-29.296875
2388		-33.203125
2389		-31.250000
2390		-35.156250
2391		-31.250000
2392		-35.156250
2393		-33.203125
2394		-37.109375
2395		-35.156250
2396		-39.062500
2397		-35.156250
2398		-39.062500
2399		-35.156250
2400		-39.062500
2401		-37.109375
2402		-39.062500
2403		-37.109375
2404		-41.015625
2405		-37.109375
2406		-41.015625
2407		-37.109375
2408		-41.015625
2409		-37.109375
2410		-41.015625
2411		-37.109375
2412		-41.015625
2413		-37.109375
2414		-41.015625
2415		-37.109375
2416		-41.015625
2417		-35.156250
2418		-39.062500
2419		-35.156250
2420		-39.062500
2421		-35.156250
2422		-37.109375
2423		-33.203125
2424		-37.109375
2425		-33.203125
2426		-35.156250
2427		-33.203125
2428		-35.156250
2429		-31.250000
2430		-33.203125
2431		-29.296875
2432		-31.250000
2433		-27.343750
2434		-29.296875
2435		-27.343750
2436		-29.296875
2437		-25.390625
2438		-27.343750
2439		-23.437500
2440		-25.390625
2441		-21.484375
2442		-23.437500
2443		-19.531250
2444		-21.484375
2445		-17.578125
2446		-21.484375
2447		-15.625000
2448		-17.578125
2449		-13.671875
2450		-15.625000
2451		-11.718750
2452		-13.671875
2453		-9.765625
2454		-11.718750
2455		-7.812500
2456		-9.765625
2457		-5.859375
2458		-7.812500
2459		-1.953125
2460		-5.859375
2461		0.000000
2462		-1.953125
2463		1.953125
2464		0.000000
2465		3.906250
2466		1.953125
2467		5.859375
2468		3.906250
2469		7.812500
2470		5.859375
2471		9.765625
2472		9.765625
2473		13.671875
2474		11.718750
2475		15.625000
2476		13.671875
2477		17.578125
2478		15.625000
2479		19.531250
2480		17.578125
2481		21.484375
2482		19.531250
2483		25.390625
2484		23.437500
2485		25.390625
2486		25.390625
2487		27.343750
2488		25.390625
2489		31.250000
2490		29.296875
2491		33.203125
2492		31.250000
2493		35.156250
2494		33.203125
2495		37.109375
2496		35.156250
2497		37.109375
2498		35.156250
2499		41.015625
2500		37.109375
2501		41.015625
2502		39.062500
2503		42.968750
2504		41.015625
2505		44.921875
2506		42.968750
2507		46.875000
2508		42.968750
2509		46.875000
2510		44.921875
2511		48.828125
2512		46.875000
2513		50.781250
2514		46.875000
2515		50.781250
2516		48.828125
2517		50.781250
2518		48.828125
2519		52.734375
2520		50.781250
2521		54.687500
2522		48.828125
2523		54.687500
2524		50.781250
2525		54.687500
2526		52.734375
2527		54.687500
2528		52.734375
2529		54.687500
2530		52.734375
2531		56.640625
2532		52.734375
2533		56.640625
2534		52.734375
2535		54.687500
2536		52.734375
2537		54.687500
2538		52.734375
2539		56.640625
2540		52.734375
2541		56.640625
2542		52.734375
2543		54.687500
2544		50.781250
2545		54.687500
2546		50.781250
2547		54.687500
2548		50.781250
2549		52.734375
2550		48.828125
2551		52.734375
2552		48.828125
2553		50.781250
2554		48.828125
2555		50.781250
2556		46.875000
2557		48.828125
2558		44.921875
2559		48.828125
2560		44.921875
2561		48.828125
2562		42.968750
2563		46.875000
2564		41.015625
2565		44.921875
2566		39.062500
2567		42.968750
2568		37.109375
2569		41.015625
2570		35.156250
2571		39.062500
2572		35.156250
2573		39.062500
2574		33.203125
2575		37.109375
2576		31.250000
2577		35.156250
2578		27.343750
2579		33.203125
2580		27.343750
2581		31.250000
2582		25.390625
2583		29.296875
2584		23.437500
2585		27.343750
2586		21.484375
2587		23.437500
2588		17.578125
2589		21.484375
2590		15.625000
2591		19.531250
2592		13.671875
2593		17.578125
2594		11.718750
2595		15.625000
2596		7.812500
2597		13.671875
2598		5.859375
2599		11.718750
2600		3.906250
2601		7.812500
2602		1.953125
2603		5.859375
2604		-1.953125
2605		3.906250
2606		-1.953125
2607		1.953125
2608		-5.859375
2609		0.000000
2610		-7.812500
2611		-3.906250
2612		-9.765625
2613		-5.859375
2614		-11.718750
2615		-7.812500
2616		-15.625000
2617		-9.765625
2618		-17.578125
2619		-11.718750
2620		-17.578125
2621		-13.671875
2622		-19.531250
2623		-15.625000
2624		-21.484375
2625		-17.578125
2626		-23.437500
2627		-21.484375
2628		-25.390625
2629		-21.484375
2630		-27.343750
2631		-23.437500
2632		-29.296875
2633		-25.390625
2634		-31.250000
2635		-27.343750
2636		-31.250000
2637		-29.296875
2638		-35.156250
2639		-31.250000
2640		-35.156250
2641		-31.250000
2642		-35.156250
2643		-33.203125
2644		-37.109375
2645		-33.203125
2646		-39.062500
2647		-35.156250
2648		-39.062500
2649		-35.156250
2650		-39.062500
2651		-35.156250
2652		-39.062500
2653		-37.109375
2654		-41.015625
2655		-37.109375
2656		-41.015625
2657		-37.109375
2658		-41.015625
2659		-39.062500
2660		-41.015625
2661		-39.062500
2662		-41.015625
2663		-39.062500
2664		-41.015625
2665		-39.062500
2666		-41.015625
2667		-37.109375
2668		-41.015625
2669		-37.109375
2670		-39.062500
2671		-37.109375
2672		-39.062500
2673		-35.156250
2674		-39.062500
2675		-35.156250
2676		-37.109375
2677		-33.203125
2678		-35.156250
2679		-33.203125
2680		-35.156250
2681		-31.250000
2682		-35.156250
2683		-31.250000
2684		-33.203125
2685		-29.296875
2686		-31.250000
2687		-27.343750
2688		-29.296875
2689		-25.390625
2690		-27.343750
2691		-25.390625
2692		-27.343750
2693		-23.437500
2694		-25.390625
2695		-21.484375
2696		-23.437500
2697		-19.531250
2698		-21.484375
2699		-17.578125
2700		-19.531250
2701		-13.671875
2702		-17.578125
2703		-13.671875
2704		-15.625000
2705		-11.718750
2706		-13.671875
2707		-9.765625
2708		-11.718750
2709		-5.859375
2710		-7.812500
2711		-3.906250
2712		-7.812500
2713		-1.953125
2714		-3.906250
2715		1.953125
2716		-1.953125
2717		1.953125
2718		1.953125
2719		3.906250
2720		3.906250
2721		7.812500
2722		5.859375
2723		9.765625
2724		7.812500
2725		11.718750
2726		9.765625
2727		13.671875
2728		11.718750
2729		15.625000
2730		15.625000
2731		19.531250
2732		15.625000
2733		21.484375
2734		17.578125
2735		23.437500
2736		21.484375
2737		25.390625
2738		23.437500
2739		27.343750
2740		25.390625
2741		29.296875
2742		27.343750
2743		31.250000
2744		29.296875
2745		33.203125
2746		31.250000
2747		35.156250
2748		33.203125
2749		37.109375
2750		35.156250
2751		39.062500
2752		37.109375
2753		41.015625
2754		39.062500
2755		42.968750
2756		39.062500
2757		44.921875
2758		41.015625
2759		44.921875
2760		42.968750
2761		46.875000
2762		44.921875
2763		46.875000
2764		44.921875
2765		48.828125
2766		46.875000
2767		50.781250
2768		46.875000
2769		50.781250
2770		48.828125
2771		50.781250
2772		48.828125
2773		52.734375
2774		48.828125
2775		52.734375
2776		50.781250
2777		54.687500
2778		50.781250
2779		54.687500
2780		52.734375
2781		54.687500
2782		50.781250
2783		54.687500
2784		52.734375
2785		54.687500
2786		52.734375
2787		54.687500
2788		52.734375
2789		54.687500
2790		50.781250
2791		56.640625
2792		50.781250
2793		54.687500
2794		50.781250
2795		54.687500
2796		50.781250
2797		54.687500
2798		50.781250
2799		52.734375
2800		48.828125
2801		52.734375
2802		48.828125
2803		52.734375
2804		48.828125
2805		50.781250
2806		44.921875
2807		50.781250
2808		46.875000
2809		48.828125
2810		44.921875
2811		48.828125
2812		44.921875
2813		46.875000
2814		42.968750
2815		44.921875
2816		41.015625
2817		44.921875
2818		39.062500
2819		42.968750
2820		37.109375
2821		41.015625
2822		37.109375
2823		39.062500
2824		33.203125
2825		39.062500
2826		33.203125
2827		35.156250
2828		31.250000
2829		35.156250
2830		29.296875
2831		33.203125
2832		27.343750
2833		31.250000
2834		25.390625
2835		29.296875
2836		21.484375
2837		27.343750
2838		21.484375
2839		23.437500
2840		17.578125
2841		21.484375
2842		15.625000
2843		19.531250
2844		13.671875
2845		17.578125
2846		11.718750
2847		15.625000
2848		7.812500
2849		13.671875
2850		7.812500
2851		9.765625
2852		3.906250
2853		9.765625
2854		1.953125
2855		5.859375
2856		0.000000
2857		3.906250
2858		-1.953125
2859		1.953125
2860		-5.859375
2861		0.000000
2862		-7.812500
2863		-3.906250
2864		-9.765625
2865		-5.859375
2866		-11.718750
2867		-7.812500
2868		-13.671875
2869		-9.765625
2870		-15.625000
2871		-11.718750
2872		-17.578125
2873		-13.671875
2874		-21.484375
2875		-15.625000
2876		-23.437500
2877		-17.578125
2878		-23.437500
2879		-19.531250
2880		-27.343750
2881		-21.484375
2882		-27.343750
2883		-23.437500
2884		-29.296875
2885		-25.390625
2886		-31.250000
2887		-27.343750
2888		-31.250000
2889		-29.296875
2890		-33.203125
2891		-31.250000
2892		-35.156250
2893		-31.250000
2894		-37.109375
2895		-33.203125
2896		-37.109375
2897		-33.203125
2898		-37.109375
2899		-35.156250
2900		-39.062500
2901		-35.156250
2902		-41.015625
2903		-35.156250
2904		-39.062500
2905		-37.109375
2906		-41.015625
2907		-37.109375
2908		-41.015625
2909		-37.109375
2910		-41.015625
2911		-37.109375
2912		-41.015625
2913		-39.062500
2914		-41.015625
2915		-39.062500
2916		-41.015625
2917		-39.062500
2918		-41.015625
2919		-37.109375
2920		-41.015625
2921		-37.109375
2922		-39.062500
2923		-37.109375
2924		-41.015625
2925		-35.156250
2926		-39.062500
2927		-35.156250
2928		-39.062500
2929		-35.156250
2930		-37.109375
2931		-33.203125
2932		-35.156250
2933		-33.203125
2934		-35.156250
2935		-31.250000
2936		-33.203125
2937		-29.296875
2938		-31.250000
2939		-29.296875
2940		-31.250000
2941		-27.343750
2942		-29.296875
2943		-25.390625
2944		-27.343750
2945		-23.437500
2946		-25.390625
2947		-21.484375
2948		-23.437500
2949		-19.531250
2950		-21.484375
2951		-17.578125
2952		-19.531250
2953		-15.625000
2954		-19.531250
2955		-13.671875
2956		-15.625000
2957		-11.718750
2958		-13.671875
2959		-9.765625
2960		-11.718750
2961		-7.812500
2962		-9.765625
2963		-5.859375
2964		-5.859375
2965		-1.953125
2966		-3.906250
2967		0.000000
2968		-3.906250
2969		1.953125
2970		0.000000
2971		3.906250
2972		1.953125
2973		5.859375
2974		3.906250
2975		9.765625
2976		7.812500
2977		11.718750
2978		9.765625
2979		13.671875
2980		11.718750
2981		15.625000
2982		13.671875
2983		17.578125
2984		15.625000
2985		21.484375
2986		17.578125
2987		23.437500
2988		21.484375
2989		23.437500
2990		23.437500
2991		27.343750
2992		23.437500
2993		29.296875
2994		27.343750
2995		31.250000
2996		29.296875
2997		33.203125
2998		31.250000
2999		35.156250
3000		33.203125
3001		37.109375
3002		35.156250
3003		39.062500
3004		35.156250
3005		41.015625
3006		37.109375
3007		41.015625
3008		39.062500
3009		42.968750
3010		41.015625
3011		44.921875
3012		41.015625
3013		46.875000
3014		44.921875
3015		46.875000
3016		44.921875
3017		48.828125
3018		44.921875
3019		48.828125
3020		46.875000
3021		50.781250
3022		48.828125
3023		50.781250
3024		48.828125
3025		52.734375
3026		48.828125
3027		52.734375
3028		50.781250
3029		54.687500
3030		50.781250
3031		54.687500
3032		50.781250
3033		54.687500
3034		50.781250
3035		54.687500
3036		52.734375
3037		54.687500
3038		50.781250
3039		54.687500
3040		52.734375
3041		54.687500
3042		52.734375
3043		54.687500
3044		52.734375
3045		54.687500
3046		50.781250
3047		54.687500
3048		50.781250
3049		54.687500
3050		50.781250
3051		54.687500
3052		50.781250
3053		52.734375
3054		48.828125
3055		52.734375
3056		48.828125
3057		52.734375
3058		44.921875
3059		50.781250
3060		46.875000
3061		50.781250
3062		44.921875
3063		48.828125
3064		44.921875
3065		46.875000
3066		42.968750
3067		46.875000
3068		41.015625
3069		44.921875
3070		39.062500
3071		42.968750
3072		39.062500
3073		41.015625
3074		37.109375
3075		39.062500
3076		35.156250
3077		39.062500
3078		33.203125
3079		37.109375
3080		31.250000
3081		35.156250
3082		29.296875
3083		33.203125
3084		27.343750
3085		31.250000
3086		25.390625
3087		29.296875
3088		23.437500
3089		27.343750
3090		21.484375
3091		25.390625
3092		17.578125
3093		23.437500
3094		15.625000
3095		21.484375
3096		13.671875
3097		17.578125
3098		11.718750
3099		15.625000
3100		9.765625
3101		13.671875
3102		7.812500
3103		11.718750
3104		3.906250
3105		9.765625
3106		1.953125
3107		5.859375
3108		0.000000
3109		3.906250
3110		-1.953125
3111		1.953125
3112		-3.906250
3113		0.000000
3114		-7.812500
3115		-1.953125
3116		-9.765625
3117		-5.859375
3118		-11.718750
3119		-7.812500
3120		-13.671875
3121		-9.765625
3122		-15.625000
3123		-11.718750
3124		-17.578125
3125		-13.671875
3126		-19.531250
3127		-15.625000
3128		-21.484375
3129		-17.578125
3130		-23.437500
3131		-19.531250
3132		-25.390625
3133		-21.484375
3134		-27.343750
3135		-23.437500
3136		-29.296875
3137		-25.390625
3138		-31.250000
3139		-27.343750
3140		-31.250000
3141		-29.296875
3142		-35.156250
3143		-29.296875
3144		-35.156250
3145		-31.250000
3146		-35.156250
3147		-33.203125
3148		-37.109375
3149		-33.203125
3150		-37.109375
3151		-35.156250
3152		-39.062500
3153		-35.156250
3154		-41.015625
3155		-37.109375
3156		-39.062500
3157		-37.109375
3158		-41.015625
3159		-37.109375
3160		-41.015625
3161		-37.109375
3162		-41.015625
3163		-37.109375
3164		-41.015625
3165		-39.062500
3166		-41.015625
3167		-37.109375
3168		-42.968750
3169		-39.062500
3170		-41.015625
3171		-37.109375
3172		-41.015625
3173		-37.109375
3174		-41.015625
3175		-37.109375
3176		-39.062500
3177		-37.109375
3178		-39.062500
3179		-35.156250
3180		-37.109375
3181		-35.156250
3182		-37.109375
3183		-33.203125
3184		-37.109375
3185		-33.203125
3186		-35.156250
3187		-31.250000
3188		-33.203125
3189		-29.296875
3190		-31.250000
3191		-29.296875
3192		-31.250000
3193		-27.343750
3194		-31.250000
3195		-25.390625
3196		-29.296875
3197		-23.437500
3198		-27.343750
3199		-21.484375
3200		-23.437500
3201		-19.531250
3202		-21.484375
3203		-17.578125
3204		-19.531250
3205		-15.625000
3206		-19.531250
3207		-13.671875
3208		-15.625000
3209		-13.671875
3210		-13.671875
3211		-9.765625
3212		-11.718750
3213		-7.812500
3214		-9.765625
3215		-5.859375
3216		-7.812500
3217		-3.906250
3218		-5.859375
3219		0.000000
3220		-3.906250
3221		1.953125
3222		0.000000
3223		3.906250
3224		1.953125
3225		5.859375
3226		3.906250
3227		7.812500
3228		5.859375
3229		9.765625
3230		7.812500
3231		11.718750
3232		11.718750
3233		15.625000
3234		13.671875
3235		17.578125
3236		15.625000
3237		19.531250
3238		17.578125
3239		23.437500
3240		19.531250
3241		23.437500
3242		21.484375
3243		25.390625
3244		23.437500
3245		27.343750
3246		25.390625
3247		29.296875
3248		27.343750
3249		33.203125
3250		29.296875
3251		35.156250
3252		33.203125
3253		35.156250
3254		33.203125
3255		37.109375
3256		35.156250
3257		39.062500
3258		37.109375
3259		41.015625
3260		39.062500
3261		42.968750
3262		41.015625
3263		44.921875
3264		41.015625
3265		44.921875
3266		42.968750
3267		46.875000
3268		44.921875
3269		48.828125
3270		46.875000
3271		48.828125
3272		46.875000
3273		50.781250
3274		48.828125
3275		50.781250
3276		48.828125
3277		50.781250
3278		48.828125
3279		52.734375
3280		50.781250
3281		52.734375
3282		50.781250
3283		54.687500
3284		50.781250
3285		54.687500
3286		50.781250
3287		54.687500
3288		52.734375
3289		54.687500
3290		50.781250
3291		54.687500
3292		52.734375
3293		54.687500
3294		50.781250
3295		54.687500
3296		50.781250
3297		54.687500
3298		50.781250
3299		54.687500
3300		50.781250
3301		54.687500
3302		50.781250
3303		54.687500
3304		48.828125
3305		52.734375
3306		48.828125
3307		52.734375
3308		48.828125
3309		50.781250
3310		46.875000
3311		50.781250
3312		46.875000
3313		50.781250
3314		44.921875
3315		48.828125
3316		44.921875
3317		46.875000
3318		42.968750
3319		46.875000
3320		41.015625
3321		44.921875
3322		41.015625
3323		42.968750
3324		39.062500
3325		42.968750
3326		37.109375
3327		41.015625
3328		35.156250
3329		39.062500
3330		33.203125
3331		37.109375
3332		31.250000
3333		35.156250
3334		29.296875
3335		33.203125
3336		27.343750
3337		31.250000
3338		25.390625
3339		29.296875
3340		23.437500
3341		27.343750
3342		21.484375
3343		25.390625
3344		17.578125
3345		23.437500
3346		17.578125
3347		21.484375
3348		13.671875
3349		17.578125
3350		11.718750
3351		15.625000
3352		9.765625
3353		13.671875
3354		7.812500
3355		11.718750
3356		3.906250
3357		9.765625
3358		3.906250
3359		5.859375
3360		0.000000
3361		3.906250
3362		-1.953125
3363		1.953125
3364		-3.906250
3365		0.000000
3366		-5.859375
3367		-1.953125
3368		-9.765625
3369		-5.859375
3370		-11.718750
3371		-5.859375
3372		-13.671875
3373		-9.765625
3374		-15.625000
3375		-11.718750
3376		-17.578125
3377		-13.671875
3378		-19.531250
3379		-15.625000
3380		-21.484375
3381		-17.578125
3382		-23.437500
3383		-19.531250
3384		-25.390625
3385		-21.484375
3386		-27.343750
3387		-23.437500
3388		-29.296875
3389		-25.390625
3390		-31.250000
3391		-25.390625
3392		-31.250000
3393		-29.296875
3394		-33.203125
3395		-29.296875
3396		-35.156250
3397		-31.250000
3398		-35.156250
3399		-33.203125
3400		-37.109375
3401		-33.203125
3402		-39.062500
3403		-35.156250
3404		-39.062500
3405		-35.156250
3406		-39.062500
3407		-35.156250
3408		-39.062500
3409		-37.109375
3410		-41.015625
3411		-39.062500
3412		-41.015625
3413		-37.109375
3414		-41.015625
3415		-37.109375
3416		-41.015625
3417		-39.062500
3418		-41.015625
3419		-39.062500
3420		-41.015625
3421		-39.062500
3422		-41.015625
3423		-39.062500
3424		-41.015625
3425		-37.109375
3426		-41.015625
3427		-39.062500
3428		-41.015625
3429		-35.156250
3430		-39.062500
3431		-37.109375
3432		-39.062500
3433		-35.156250
3434		-39.062500
3435		-35.156250
3436		-37.109375
3437		-33.203125
3438		-35.156250
3439		-31.250000
3440		-35.156250
3441		-31.250000
3442		-33.203125
3443		-29.296875
3444		-31.250000
3445		-27.343750
3446		-29.296875
3447		-27.343750
3448		-29.296875
3449		-25.390625
3450		-27.343750
3451		-21.484375
3452		-25.390625
3453		-21.484375
3454		-23.437500
3455		-19.531250
3456		-21.484375
3457		-17.578125
3458		-19.531250
3459		-15.625000
3460		-17.578125
3461		-13.671875
3462		-15.625000
3463		-9.765625
3464		-13.671875
3465		-9.765625
3466		-11.718750
3467		-5.859375
3468		-7.812500
3469		-3.906250
3470		-5.859375
3471		-1.953125
3472		-3.906250
3473		0.000000
3474		-1.953125
3475		1.953125
3476		0.000000
3477		3.906250
3478		3.906250
3479		7.812500
3480		3.906250
3481		9.765625
3482		7.812500
3483		11.718750
3484		9.765625
3485		15.625000
3486		11.718750
3487		17.578125
3488		15.625000
3489		19.531250
3490		17.578125
3491		21.484375
3492		19.531250
3493		23.437500
3494		21.484375
3495		25.390625
3496		23.437500
3497		27.343750
3498		25.390625
3499		29.296875
3500		27.343750
3501		31.250000
3502		29.296875
3503		33.203125
3504		31.250000
3505		35.156250
3506		33.203125
3507		37.109375
3508		35.156250
3509		39.062500
3510		37.109375
3511		41.015625
3512		39.062500
3513		42.968750
3514		41.015625
3515		44.921875
3516		41.015625
3517		44.921875
3518		42.968750
3519		46.875000
3520		42.968750
3521		46.875000
3522		44.921875
3523		48.828125
3524		46.875000
3525		50.781250
3526		48.828125
3527		50.781250
3528		48.828125
3529		50.781250
3530		48.828125
3531		52.734375
3532		50.781250
3533		52.734375
3534		50.781250
3535		54.687500
3536		50.781250
3537		54.687500
3538		50.781250
3539		54.687500
3540		50.781250
3541		54.687500
3542		50.781250
3543		54.687500
3544		52.734375
3545		54.687500
3546		50.781250
3547		54.687500
3548		50.781250
3549		54.687500
3550		50.781250
3551		54.687500
3552		50.781250
3553		54.687500
3554		50.781250
3555		54.687500
3556		50.781250
3557		52.734375
3558		48.828125
3559		52.734375
3560		48.828125
3561		50.781250
3562		46.875000
3563		50.781250
3564		46.875000
3565		50.781250
3566		44.921875
3567		48.828125
3568		44.921875
3569		46.875000
3570		42.968750
3571		46.875000
3572		41.015625
3573		44.921875
3574		39.062500
3575		42.968750
3576		39.062500
3577		42.968750
3578		37.109375
3579		41.015625
3580		35.156250
3581		39.062500
3582		33.203125
3583		37.109375
3584		31.250000
3585		35.156250
3586		27.343750
3587		33.203125
3588		27.343750
3589		31.250000
3590		25.390625
3591		29.296875
3592		23.437500
3593		27.343750
3594		21.484375
3595		25.390625
3596		19.531250
3597		23.437500
3598		17.578125
3599		21.484375
3600		13.671875
3601		17.578125
3602		11.718750
3603		15.625000
3604		9.765625
3605		13.671875
3606		7.812500
3607		11.718750
3608		3.906250
3609		9.765625
3610		3.906250
3611		7.812500
3612		0.000000
3613		3.906250
3614		-1.953125
3615		1.953125
3616		-3.906250
3617		0.000000
3618		-7.812500
3619		-1.953125
3620		-7.812500
3621		-3.906250
3622		-11.718750
3623		-5.859375
3624		-13.671875
3625		-9.765625
3626		-15.625000
3627		-11.718750
3628		-17.578125
3629		-13.671875
3630		-19.531250
3631		-15.625000
3632		-21.484375
3633		-17.578125
3634		-23.437500
3635		-19.531250
3636		-25.390625
3637		-21.484375
3638		-27.343750
3639		-23.437500
3640		-29.296875
3641		-25.390625
3642		-31.250000
3643		-27.343750
3644		-31.250000
3645		-27.343750
3646		-33.203125
3647		-29.296875
3648		-35.156250
3649		-31.250000
3650		-35.156250
3651		-33.203125
3652		-37.109375
3653		-33.203125
3654		-39.062500
3655		-35.156250
3656		-39.062500
3657		-35.156250
3658		-39.062500
3659		-37.109375
3660		-41.015625
3661		-37.109375
3662		-41.015625
3663		-39.062500
3664		-42.968750
3665		-39.062500
3666		-41.015625
3667		-39.062500
3668		-42.968750
3669		-39.062500
3670		-42.968750
3671		-39.062500
3672		-41.015625
3673		-39.062500
3674		-41.015625
3675		-39.062500
3676		-41.015625
3677		-37.109375
3678		-41.015625
3679		-39.062500
3680		-41.015625
3681		-37.109375
3682		-41.015625
3683		-37.109375
3684		-39.062500
3685		-35.156250
3686		-37.109375
3687		-35.156250
3688		-37.109375
3689		-33.203125
3690		-37.109375
3691		-31.250000
3692		-35.156250
3693		-31.250000
3694		-33.203125
3695		-29.296875
3696		-31.250000
3697		-29.296875
3698		-31.250000
3699		-27.343750
3700		-29.296875
3701		-25.390625
3702		-27.343750
3703		-23.437500
3704		-25.390625
3705		-21.484375
3706		-23.437500
3707		-19.531250
3708		-21.484375
3709		-17.578125
3710		-21.484375
3711		-15.625000
3712		-17.578125
3713		-13.671875
3714		-15.625000
3715		-11.718750
3716		-13.671875
3717		-9.765625
3718		-11.718750
3719		-5.859375
3720		-9.765625
3721		-3.906250
3722		-5.859375
3723		-1.953125
3724		-3.906250
3725		0.000000
3726		-1.953125
3727		1.953125
3728		0.000000
3729		3.906250
3730		1.953125
3731		7.812500
3732		3.906250
3733		9.765625
3734		7.812500
3735		11.718750
3736		9.765625
3737		13.671875
3738		11.718750
3739		15.625000
3740		13.671875
3741		17.578125
3742		15.625000
3743		21.484375
3744		17.578125
3745		23.437500
3746		21.484375
3747		25.390625
3748		23.437500
3749		27.343750
3750		25.390625
3751		29.296875
3752		27.343750
3753		31.250000
3754		29.296875
3755		33.203125
3756		29.296875
3757		35.156250
3758		33.203125
3759		37.109375
3760		35.156250
3761		39.062500
3762		37.109375
3763		41.015625
3764		39.062500
3765		42.968750
3766		39.062500
3767		42.968750
3768		41.015625
3769		44.921875
3770		42.968750
3771		46.875000
3772		42.968750
3773		46.875000
3774		44.921875
3775		48.828125
3776		46.875000
3777		50.781250
3778		46.875000
3779		50.781250
3780		48.828125
3781		50.781250
3782		48.828125
3783		52.734375
3784		48.828125
3785		52.734375
3786		50.781250
3787		52.734375
3788		50.781250
3789		54.687500
3790		50.781250
3791		54.687500
3792		52.734375
3793		54.687500
3794		50.781250
3795		54.687500
3796		52.734375
3797		54.687500
3798		52.734375
3799		54.687500
3800		50.781250
3801		54.687500
3802		50.781250
3803		54.687500
3804		50.781250
3805		54.687500
3806		50.781250
3807		52.734375
3808		48.828125
3809		52.734375
3810		48.828125
3811		52.734375
3812		48.828125
3813		50.781250
3814		48.828125
3815		50.781250
3816		46.875000
3817		50.781250
3818		44.921875
3819		48.828125
3820		42.968750
3821		46.875000
3822		42.968750
3823		46.875000
3824		41.015625
3825		44.921875
3826		41.015625
3827		44.921875
3828		39.062500
3829		42.968750
3830		37.109375
3831		41.015625
3832		35.156250
3833		39.062500
3834		33.203125
3835		37.109375
3836		31.250000
3837		35.156250
3838		29.296875
3839		33.203125
3840		27.343750
3841		33.203125
3842		25.390625
3843		29.296875
3844		23.437500
3845		27.343750
3846		21.484375
3847		25.390625
3848		19.531250
3849		23.437500
3850		17.578125
3851		21.484375
3852		15.625000
3853		19.531250
3854		13.671875
3855		17.578125
3856		9.765625
3857		13.671875
3858		7.812500
3859		11.718750
3860		3.906250
3861		9.765625
3862		3.906250
3863		7.812500
3864		1.953125
3865		5.859375
3866		-1.953125
3867		3.906250
3868		-3.906250
3869		1.953125
3870		-5.859375
3871		-1.953125
3872		-7.812500
3873		-3.906250
3874		-9.765625
3875		-5.859375
3876		-11.718750
3877		-7.812500
3878		-15.625000
3879		-11.718750
3880		-17.578125
3881		-13.671875
3882		-19.531250
3883		-15.625000
3884		-21.484375
3885		-17.578125
3886		-23.437500
3887		-19.531250
3888		-25.390625
3889		-19.531250
3890		-27.343750
3891		-23.437500
3892		-29.296875
3893		-25.390625
3894		-29.296875
3895		-25.390625
3896		-31.250000
3897		-29.296875
3898		-33.203125
3899		-29.296875
3900		-35.156250
3901		-31.250000
3902		-37.109375
3903		-31.250000
3904		-37.109375
3905		-33.203125
3906		-37.109375
3907		-35.156250
3908		-39.062500
3909		-35.156250
3910		-39.062500
3911		-37.109375
3912		-41.015625
3913		-37.109375
3914		-41.015625
3915		-39.062500
3916		-42.968750
3917		-39.062500
3918		-41.015625
3919		-39.062500
3920		-42.968750
3921		-39.062500
3922		-42.968750
3923		-39.062500
3924		-42.968750
3925		-39.062500
3926		-41.015625
3927		-39.062500
3928		-42.968750
3929		-39.062500
3930		-41.015625
3931		-39.062500
3932		-41.015625
3933		-37.109375
3934		-41.015625
3935		-37.109375
3936		-41.015625
3937		-35.156250
3938		-39.062500
3939		-35.156250
3940		-37.109375
3941		-33.203125
3942		-37.109375
3943		-33.203125
3944		-35.156250
3945		-31.250000
3946		-35.156250
3947		-31.250000
3948		-33.203125
3949		-29.296875
3950		-31.250000
3951		-27.343750
3952		-29.296875
3953		-25.390625
3954		-27.343750
3955		-23.437500
3956		-25.390625
3957		-21.484375
3958		-25.390625
3959		-21.484375
3960		-23.437500
3961		-17.578125
3962		-19.531250
3963		-17.578125
3964		-17.578125
3965		-13.671875
3966		-15.625000
3967		-11.718750
3968		-15.625000
3969		-9.765625
3970		-11.718750
3971		-7.812500
3972		-9.765625
3973		-5.859375
3974		-7.812500
3975		-3.906250
3976		-5.859375
3977		0.000000
3978		-3.906250
3979		1.953125
3980		0.000000
3981		3.906250
3982		1.953125
3983		5.859375
3984		3.906250
3985		7.812500
3986		5.859375
3987		9.765625
3988		7.812500
3989		13.671875
3990		11.718750
3991		15.625000
3992		13.671875
3993		17.578125
3994		15.625000
3995		19.531250
3996		17.578125
3997		21.484375
3998		19.531250
3999		23.437500
4000		21.484375
4001		27.343750
4002		23.437500
4003		29.296875
4004		27.343750
4005		31.250000
4006		29.296875
4007		33.203125
4008		29.296875
4009		35.156250
4010		31.250000
4011		37.109375
4012		33.203125
4013		37.109375
4014		35.156250
4015		39.062500
4016		37.109375
4017		41.015625
4018		37.109375
4019		42.968750
4020		41.015625
4021		44.921875
4022		41.015625
4023		44.921875
4024		42.968750
4025		46.875000
4026		44.921875
4027		46.875000
4028		44.921875
4029		48.828125
4030		46.875000
4031		48.828125
4032		46.875000
4033		50.781250
4034		46.875000
4035		52.734375
4036		48.828125
4037		52.734375
4038		48.828125
4039		52.734375
4040		50.781250
4041		52.734375
4042		50.781250
4043		54.687500
4044		50.781250
4045		54.687500
4046		50.781250
4047		54.687500
4048		52.734375
4049		54.687500
4050		50.781250
4051		54.687500
4052		50.781250
4053		54.687500
4054		50.781250
4055		54.687500
4056		50.781250
4057		54.687500
4058		50.781250
4059		54.687500
4060		50.781250
4061		52.734375
4062		48.828125
4063		52.734375
4064		48.828125
4065		50.781250
4066		48.828125
4067		50.781250
4068		46.875000
4069		50.781250
4070		44.921875
4071		48.828125
4072		44.921875
4073		48.828125
4074		42.968750
4075		46.875000
4076		41.015625
4077		46.875000
4078		41.015625
4079		44.921875
4080		39.062500
4081		42.968750
4082		37.109375
4083		41.015625
4084		35.156250
4085		39.062500
4086		33.203125
4087		37.109375
4088		31.250000
4089		35.156250
4090		31.250000
4091		35.156250
4092		27.343750
4093		31.250000
4094		27.343750
4095		29.296875
4096		23.437500
4097		29.296875
4098		21.484375
4099		25.390625
4100		19.531250
4101		23.437500
4102		17.578125
4103		23.437500
4104		15.625000
4105		19.531250
4106		13.671875
4107		17.578125
4108		9.765625
4109		13.671875
4110		7.812500
4111		13.671875
4112		5.859375
4113		9.765625
4114		3.906250
4115		7.812500
4116		1.953125
4117		5.859375
4118		0.000000
4119		3.906250
4120		-3.906250
4121		1.953125
4122		-5.859375
4123		-1.953125
4124		-7.812500
4125		-3.906250
4126		-9.765625
4127		-5.859375
4128		-11.718750
4129		-7.812500
4130		-13.671875
4131		-9.765625
4132		-15.625000
4133		-13.671875
4134		-19.531250
4135		-15.625000
4136		-21.484375
4137		-15.625000
4138		-23.437500
4139		-19.531250
4140		-23.437500
4141		-21.484375
4142		-27.343750
4143		-21.484375
4144		-27.343750
4145		-23.437500
4146		-31.250000
4147		-25.390625
4148		-31.250000
4149		-27.343750
4150		-33.203125
4151		-29.296875
4152		-35.156250
4153		-31.250000
4154		-35.156250
4155		-31.250000
4156		-37.109375
4157		-33.203125
4158		-39.062500
4159		-35.156250
4160		-39.062500
4161		-35.156250
4162		-39.062500
4163		-37.109375
4164		-41.015625
4165		-37.109375
4166		-41.015625
4167		-39.062500
4168		-41.015625
4169		-39.062500
4170		-41.015625
4171		-39.062500
4172		-42.968750
4173		-39.062500
4174		-42.968750
4175		-39.062500
4176		-42.968750
4177		-39.062500
4178		-41.015625
4179		-39.062500
4180		-42.968750
4181		-39.062500
4182		-41.015625
4183		-39.062500
4184		-41.015625
4185		-37.109375
4186		-42.968750
4187		-37.109375
4188		-39.062500
4189		-37.109375
4190		-39.062500
4191		-35.156250
4192		-37.109375
4193		-33.203125
4194		-37.109375
4195		-33.203125
4196		-35.156250
4197		-31.250000
4198		-35.156250
4199		-31.250000
4200		-33.203125
4201		-29.296875
4202		-31.250000
4203		-27.343750
4204		-31.250000
4205		-25.390625
4206		-27.343750
4207		-23.437500
4208		-27.343750
4209		-21.484375
4210		-23.437500
4211		-21.484375
4212		-23.437500
4213		-17.578125
4214		-21.484375
4215		-17.578125
4216		-17.578125
4217		-15.625000
4218		-17.578125
4219		-11.718750
4220		-15.625000
4221		-9.765625
4222		-11.718750
4223		-7.812500
4224		-11.718750
4225		-5.859375
4226		-7.812500
4227		-3.906250
4228		-5.859375
4229		0.000000
4230		-3.906250
4231		1.953125
4232		0.000000
4233		3.906250
4234		1.953125
4235		5.859375
4236		3.906250
4237		7.812500
4238		5.859375
4239		9.765625
4240		7.812500
4241		13.671875
4242		9.765625
4243		15.625000
4244		11.718750
4245		17.578125
4246		15.625000
4247		19.531250
4248		17.578125
4249		21.484375
4250		19.531250
4251		23.437500
4252		21.484375
4253		27.343750
4254		23.437500
4255		29.296875
4256		25.390625
4257		31.250000
4258		27.343750
4259		33.203125
4260		29.296875
4261		35.156250
4262		31.250000
4263		35.156250
4264		33.203125
4265		37.109375
4266		35.156250
4267		39.062500
4268		37.109375
4269		41.015625
4270		37.109375
4271		42.968750
4272		39.062500
4273		44.921875
4274		41.015625
4275		46.875000
4276		41.015625
4277		46.875000
4278		42.968750
4279		48.828125
4280		44.921875
4281		50.781250
4282		44.921875
4283		50.781250
4284		46.875000
4285		50.781250
4286		48.828125
4287		52.734375
4288		48.828125
4289		52.734375
4290		48.828125
4291		54.687500
4292		48.828125
4293		54.687500
4294		48.828125
4295		54.687500
4296		50.781250
4297		54.687500
4298		50.781250
4299		54.687500
4300		52.734375
4301		54.687500
4302		50.781250
4303		54.687500
4304		50.781250
4305		54.687500
4306		50.781250
4307		56.640625
4308		50.781250
4309		54.687500
4310		50.781250
4311		54.687500
4312		48.828125
4313		54.687500
4314		48.828125
4315		54.687500
4316		48.828125
4317		52.734375
4318		48.828125
4319		50.781250
4320		46.875000
4321		50.781250
4322		44.921875
4323		50.781250
4324		44.921875
4325		48.828125
4326		42.968750
4327		48.828125
4328		41.015625
4329		46.875000
4330		39.062500
4331		44.921875
4332		39.062500
4333		42.968750
4334		39.062500
4335		41.015625
4336		37.109375
4337		41.015625
4338		35.156250
4339		39.062500
4340		33.203125
4341		37.109375
4342		31.250000
4343		35.156250
4344		29.296875
4345		33.203125
4346		27.343750
4347		31.250000
4348		23.437500
4349		29.296875
4350		23.437500
4351		27.343750
4352		21.484375
4353		25.390625
4354		17.578125
4355		21.484375
4356		15.625000
4357		19.531250
4358		13.671875
4359		17.578125
4360		11.718750
4361		15.625000
4362		9.765625
4363		13.671875
4364		7.812500
4365		11.718750
4366		3.906250
4367		9.765625
4368		1.953125
4369		5.859375
4370		0.000000
4371		3.906250
4372		-1.953125
4373		1.953125
4374		-3.906250
4375		0.000000
4376		-7.812500
4377		-3.906250
4378		-9.765625
4379		-5.859375
4380		-11.718750
4381		-7.812500
4382		-13.671875
4383		-9.765625
4384		-15.625000
4385		-11.718750
4386		-17.578125
4387		-13.671875
4388		-19.531250
4389		-15.625000
4390		-21.484375
4391		-17.578125
4392		-23.437500
4393		-19.531250
4394		-25.390625
4395		-21.484375
4396		-27.343750
4397		-23.437500
4398		-29.296875
4399		-25.390625
4400		-31.250000
4401		-27.343750
4402		-33.203125
4403		-29.296875
4404		-33.203125
4405		-31.250000
4406		-35.156250
4407		-31.250000
4408		-35.156250
4409		-33.203125
4410		-37.109375
4411		-35.156250
4412		-39.062500
4413		-35.156250
4414		-39.062500
4415		-37.109375
4416		-39.062500
4417		-37.109375
4418		-39.062500
4419		-37.109375
4420		-41.015625
4421		-37.109375
4422		-41.015625
4423		-39.062500
4424		-41.015625
4425		-39.062500
4426		-41.015625
4427		-39.062500
4428		-41.015625
4429		-39.062500
4430		-41.015625
4431		-39.062500
4432		-41.015625
4433		-39.062500
4434		-41.015625
4435		-39.062500
4436		-41.015625
4437		-37.109375
4438		-42.968750
4439		-33.203125
4440		-42.968750
4441		-33.203125
4442		-41.015625
4443		-31.250000
4444		-37.109375
4445		-35.156250
4446		-37.109375
4447		-33.203125
4448		-35.156250
4449		-33.203125
4450		-33.203125
4451		-31.250000
4452		-33.203125
4453		-29.296875
4454		-33.203125
4455		-25.390625
4456		-33.203125
4457		-23.437500
4458		-31.250000
4459		-21.484375
4460		-27.343750
4461		-23.437500
4462		-25.390625
4463		-21.484375
4464		-23.437500
4465		-17.578125
4466		-21.484375
4467		-17.578125
4468		-19.531250
4469		-15.625000
4470		-15.625000
4471		-13.671875
4472		-17.578125
4473		-7.812500
4474		-15.625000
4475		-5.859375
4476		-13.671875
4477		-3.906250
4478		-7.812500
4479		-3.906250
4480		-5.859375
4481		-1.953125
4482		-3.906250
4483		0.000000
4484		0.000000
4485		1.953125
4486		1.953125
4487		5.859375
4488		1.953125
4489		11.718750
4490		3.906250
4491		13.671875
4492		5.859375
4493		15.625000
4494		9.765625
4495		13.671875
4496		13.671875
4497		17.578125
4498		15.625000
4499		19.531250
4500		17.578125
4501		21.484375
4502		19.531250
4503		23.437500
4504		19.531250
4505		29.296875
4506		21.484375
4507		31.250000
4508		23.437500
4509		33.203125
4510		23.437500
4511		35.156250
4512		29.296875
4513		33.203125
4514		33.203125
4515		35.156250
4516		33.203125
4517		37.109375
4518		35.156250
4519		39.062500
4520		37.109375
4521		41.015625
4522		35.156250
4523		44.921875
4524		37.109375
4525		46.875000
4526		39.062500
4527		48.828125
4528		42.968750
4529		46.875000
4530		44.921875
4531		46.875000
4532		44.921875
4533		48.828125
4534		46.875000
4535		48.828125
4536		48.828125
4537		50.781250
4538		44.921875
4539		54.687500
4540		46.875000
4541		54.687500
4542		46.875000
4543		56.640625
4544		48.828125
4545		54.687500
4546		50.781250
4547		52.734375
4548		50.781250
4549		54.687500
4550		52.734375
4551		54.687500
4552		52.734375
4553		54.687500
4554		52.734375
4555		54.687500
4556		48.828125
4557		58.593750
4558		48.828125
4559		58.593750
4560		48.828125
4561		58.593750
4562		50.781250
4563		54.687500
4564		50.781250
4565		52.734375
4566		50.781250
4567		52.734375
4568		48.828125
4569		52.734375
4570		48.828125
4571		50.781250
4572		44.921875
4573		54.687500
4574		42.968750
4575		52.734375
4576		41.015625
4577		52.734375
4578		44.921875
4579		46.875000
4580		42.968750
4581		46.875000
4582		41.015625
4583		44.921875
4584		41.015625
4585		42.968750
4586		39.062500
4587		41.015625
4588		33.203125
4589		42.968750
4590		31.250000
4591		42.968750
4592		31.250000
4593		41.015625
4594		29.296875
4595		39.062500
4596		29.296875
4597		33.203125
4598		27.343750
4599		31.250000
4600		25.390625
4601		29.296875
4602		23.437500
4603		27.343750
4604		21.484375
4605		25.390625
4606		17.578125
4607		25.390625
4608		13.671875
4609		23.437500
4610		11.718750
4611		21.484375
4612		11.718750
4613		15.625000
4614		9.765625
4615		13.671875
4616		7.812500
4617		11.718750
4618		5.859375
4619		9.765625
4620		3.906250
4621		7.812500
4622		1.953125
4623		3.906250
4624		-3.906250
4625		3.906250
4626		-5.859375
4627		1.953125
4628		-5.859375
4629		-1.953125
4630		-7.812500
4631		-3.906250
4632		-11.718750
4633		-5.859375
4634		-13.671875
4635		-9.765625
4636		-15.625000
4637		-11.718750
4638		-17.578125
4639		-13.671875
4640		-19.531250
4641		-15.625000
4642		-21.484375
4643		-15.625000
4644		-25.390625
4645		-17.578125
4646		-25.390625
4647		-21.484375
4648		-27.343750
4649		-23.437500
4650		-27.343750
4651		-25.390625
4652		-29.296875
4653		-27.343750
4654		-31.250000
4655		-29.296875
4656		-33.203125
4657		-29.296875
4658		-35.156250
4659		-29.296875
4660		-35.156250
4661		-31.250000
4662		-37.109375
4663		-33.203125
4664		-37.109375
4665		-35.156250
4666		-39.062500
4667		-35.156250
4668		-39.062500
4669		-37.109375
4670		-39.062500
4671		-37.109375
4672		-41.015625
4673		-37.109375
4674		-41.015625
4675		-39.062500
4676		-41.015625
4677		-39.062500
4678		-41.015625
4679		-39.062500
4680		-41.015625
4681		-39.062500
4682		-41.015625
4683		-39.062500
4684		-41.015625
4685		-39.062500
4686		-41.015625
4687		-39.062500
4688		-41.015625
4689		-37.109375
4690		-39.062500
4691		-37.109375
4692		-39.062500
4693		-37.109375
4694		-39.062500
4695		-35.156250
4696		-37.109375
4697		-35.156250
4698		-37.109375
4699		-33.203125
4700		-35.156250
4701		-33.203125
4702		-33.203125
4703		-31.250000
4704		-33.203125
4705		-29.296875
4706		-31.250000
4707		-29.296875
4708		-29.296875
4709		-25.390625
4710		-27.343750
4711		-25.390625
4712		-27.343750
4713		-23.437500
4714		-25.390625
4715		-21.484375
4716		-23.437500
4717		-19.531250
4718		-21.484375
4719		-17.578125
4720		-19.531250
4721		-15.625000
4722		-17.578125
4723		-13.671875
4724		-15.625000
4725		-11.718750
4726		-13.671875
4727		-7.812500
4728		-11.718750
4729		-5.859375
4730		-7.812500
4731		-3.906250
4732		-5.859375
4733		-1.953125
4734		-3.906250
4735		0.000000
4736		-1.953125
4737		1.953125
4738		1.953125
4739		3.906250
4740		1.953125
4741		7.812500
4742		5.859375
4743		9.765625
4744		7.812500
4745		11.718750
4746		9.765625
4747		15.625000
4748		11.718750
4749		15.625000
4750		15.625000
4751		19.531250
4752		17.578125
4753		21.484375
4754		19.531250
4755		23.437500
4756		21.484375
4757		25.390625
4758		23.437500
4759		27.343750
4760		25.390625
4761		29.296875
4762		27.343750
4763		31.250000
4764		29.296875
4765		33.203125
4766		31.250000
4767		35.156250
4768		33.203125
4769		37.109375
4770		35.156250
4771		39.062500
4772		37.109375
4773		41.015625
4774		37.109375
4775		42.968750
4776		39.062500
4777		44.921875
4778		41.015625
4779		44.921875
4780		42.968750
4781		46.875000
4782		44.921875
4783		46.875000
4784		44.921875
4785		48.828125
4786		46.875000
4787		48.828125
4788		46.875000
4789		50.781250
4790		46.875000
4791		52.734375
4792		48.828125
4793		52.734375
4794		50.781250
4795		52.734375
4796		50.781250
4797		54.687500
4798		50.781250
4799		54.687500
4800		52.734375
4801		54.687500
4802		52.734375
4803		54.687500
4804		52.734375
4805		54.687500
4806		50.781250
4807		54.687500
4808		50.781250
4809		56.640625
4810		52.734375
4811		54.687500
4812		52.734375
4813		54.687500
4814		50.781250
4815		54.687500
4816		50.781250
4817		54.687500
4818		50.781250
4819		52.734375
4820		50.781250
4821		52.734375
4822		48.828125
4823		50.781250
4824		46.875000
4825		52.734375
4826		46.875000
4827		50.781250
4828		46.875000
4829		48.828125
4830		44.921875
4831		48.828125
4832		42.968750
4833		46.875000
4834		42.968750
4835		44.921875
4836		41.015625
4837		44.921875
4838		39.062500
4839		42.968750
4840		35.156250
4841		41.015625
4842		35.156250
4843		39.062500
4844		35.156250
4845		37.109375
4846		33.203125
4847		35.156250
4848		29.296875
4849		35.156250
4850		29.296875
4851		33.203125
4852		25.390625
4853		29.296875
4854		23.437500
4855		27.343750
4856		21.484375
4857		25.390625
4858		19.531250
4859		25.390625
4860		17.578125
4861		21.484375
4862		15.625000
4863		19.531250
4864		13.671875
4865		17.578125
4866		9.765625
4867		15.625000
4868		7.812500
4869		11.718750
4870		5.859375
4871		9.765625
4872		3.906250
4873		7.812500
4874		0.000000
4875		5.859375
4876		-1.953125
4877		3.906250
4878		-3.906250
4879		0.000000
4880		-7.812500
4881		-1.953125
4882		-7.812500
4883		-3.906250
4884		-9.765625
4885		-5.859375
4886		-11.718750
4887		-9.765625
4888		-13.671875
4889		-11.718750
4890		-15.625000
4891		-13.671875
4892		-19.531250
4893		-13.671875
4894		-21.484375
4895		-15.625000
4896		-21.484375
4897		-19.531250
4898		-25.390625
4899		-21.484375
4900		-25.390625
4901		-21.484375
4902		-29.296875
4903		-25.390625
4904		-29.296875
4905		-25.390625
4906		-31.250000
4907		-27.343750
4908		-33.203125
4909		-29.296875
4910		-33.203125
4911		-31.250000
4912		-35.156250
4913		-33.203125
4914		-37.109375
4915		-33.203125
4916		-37.109375
4917		-33.203125
4918		-37.109375
4919		-35.156250
4920		-39.062500
4921		-37.109375
4922		-39.062500
4923		-37.109375
4924		-41.015625
4925		-37.109375
4926		-41.015625
4927		-39.062500
4928		-41.015625
4929		-39.062500
4930		-41.015625
4931		-39.062500
4932		-41.015625
4933		-39.062500
4934		-41.015625
4935		-39.062500
4936		-41.015625
4937		-39.062500
4938		-41.015625
4939		-39.062500
4940		-41.015625
4941		-37.109375
4942		-39.062500
4943		-37.109375
4944		-39.062500
4945		-37.109375
4946		-39.062500
4947		-35.156250
4948		-37.109375
4949		-35.156250
4950		-37.109375
4951		-33.203125
4952		-35.156250
4953		-33.203125
4954		-35.156250
4955		-31.250000
4956		-33.203125
4957		-29.296875
4958		-31.250000
4959		-29.296875
4960		-29.296875
4961		-27.343750
4962		-29.296875
4963		-25.390625
4964		-27.343750
4965		-23.437500
4966		-25.390625
4967		-21.484375
4968		-23.437500
4969		-19.531250
4970		-21.484375
4971		-17.578125
4972		-19.531250
4973		-15.625000
4974		-17.578125
4975		-13.671875
4976		-15.625000
4977		-11.718750
4978		-13.671875
4979		-9.765625
4980		-11.718750
4981		-7.812500
4982		-7.812500
4983		-5.859375
4984		-5.859375
4985		-1.953125
4986		-3.906250
4987		0.000000
4988		-1.953125
4989		1.953125
4990		0.000000
4991		3.906250
4992		1.953125
4993		5.859375
4994		5.859375
4995		9.765625
4996		7.812500
4997		11.718750
4998		9.765625
4999		13.671875
5000		11.718750
5001		17.578125
5002		13.671875
5003		17.578125
5004		17.578125
5005		21.484375
5006		19.531250
5007		23.437500
5008		21.484375
5009		25.390625
5010		23.437500
5011		27.343750
5012		25.390625
5013		29.296875
5014		27.343750
5015		31.250000
5016		29.296875
5017		33.203125
5018		31.250000
5019		35.156250
5020		33.203125
5021		37.109375
5022		35.156250
5023		39.062500
5024		37.109375
5025		39.062500
5026		37.109375
5027		41.015625
5028		41.015625
5029		42.968750
5030		41.015625
5031		44.921875
5032		42.968750
5033		44.921875
5034		44.921875
5035		46.875000
5036		44.921875
5037		48.828125
5038		46.875000
5039		48.828125
5040		48.828125
5041		50.781250
5042		46.875000
5043		50.781250
5044		48.828125
5045		52.734375
5046		50.781250
5047		52.734375
5048		50.781250
5049		52.734375
5050		50.781250
5051		54.687500
5052		52.734375
5053		54.687500
5054		52.734375
5055		54.687500
5056		52.734375
5057		54.687500
5058		52.734375
5059		54.687500
5060		50.781250
5061		56.640625
5062		50.781250
5063		56.640625
5064		52.734375
5065		54.687500
5066		50.781250
5067		54.687500
5068		50.781250
5069		54.687500
5070		50.781250
5071		52.734375
5072		50.781250
5073		52.734375
5074		48.828125
5075		52.734375
5076		46.875000
5077		52.734375
5078		46.875000
5079		50.781250
5080		46.875000
5081		48.828125
5082		44.921875
5083		48.828125
5084		44.921875
5085		46.875000
5086		42.968750
5087		44.921875
5088		41.015625
5089		44.921875
5090		39.062500
5091		42.968750
5092		35.156250
5093		41.015625
5094		35.156250
5095		41.015625
5096		35.156250
5097		39.062500
5098		33.203125
5099		37.109375
5100		31.250000
5101		35.156250
5102		29.296875
5103		33.203125
5104		27.343750
5105		31.250000
5106		25.390625
5107		29.296875
5108		23.437500
5109		27.343750
5110		19.531250
5111		25.390625
5112		17.578125
5113		23.437500
5114		15.625000
5115		19.531250
5116		13.671875
5117		17.578125
5118		11.718750
5119		15.625000
5120		9.765625
5121		13.671875
5122		7.812500
5123		9.765625
5124		3.906250
5125		7.812500
5126		0.000000
5127		5.859375
5128		-1.953125
5129		5.859375
5130		-1.953125
5131		1.953125
5132		-5.859375
5133		-1.953125
5134		-7.812500
5135		-3.906250
5136		-9.765625
5137		-5.859375
5138		-11.718750
5139		-7.812500
5140		-13.671875
5141		-9.765625
5142		-15.625000
5143		-11.718750
5144		-19.531250
5145		-13.671875
5146		-19.531250
5147		-15.625000
5148		-21.484375
5149		-17.578125
5150		-23.437500
5151		-21.484375
5152		-25.390625
5153		-21.484375
5154		-27.343750
5155		-23.437500
5156		-29.296875
5157		-25.390625
5158		-31.250000
5159		-27.343750
5160		-33.203125
5161		-27.343750
5162		-35.156250
5163		-29.296875
5164		-35.156250
5165		-31.250000
5166		-35.156250
5167		-33.203125
5168		-37.109375
5169		-35.156250
5170		-37.109375
5171		-35.156250
5172		-39.062500
5173		-35.156250
5174		-39.062500
5175		-37.109375
5176		-42.968750
5177		-37.109375
5178		-41.015625
5179		-35.156250
5180		-41.015625
5181		-37.109375
5182		-41.015625
5183		-39.062500
5184		-41.015625
5185		-39.062500
5186		-41.015625
5187		-39.062500
5188		-41.015625
5189		-39.062500
5190		-41.015625
5191		-39.062500
5192		-41.015625
5193		-37.109375
5194		-41.015625
5195		-35.156250
5196		-41.015625
5197		-35.156250
5198		-39.062500
5199		-35.156250
5200		-39.062500
5201		-35.156250
5202		-37.109375
5203		-33.203125
5204		-35.156250
5205		-33.203125
5206		-35.156250
5207		-31.250000
5208		-33.203125
5209		-31.250000
5210		-33.203125
5211		-27.343750
5212		-31.250000
5213		-25.390625
5214		-29.296875
5215		-25.390625
5216		-27.343750
5217		-23.437500
5218		-25.390625
5219		-21.484375
5220		-23.437500
5221		-19.531250
5222		-21.484375
5223		-17.578125
5224		-19.531250
5225		-15.625000
5226		-17.578125
5227		-13.671875
5228		-17.578125
5229		-11.718750
5230		-15.625000
5231		-9.765625
5232		-11.718750
5233		-7.812500
5234		-9.765625
5235		-5.859375
5236		-7.812500
5237		-3.906250
5238		-3.906250
5239		-1.953125
5240		-1.953125
5241		1.953125
5242		0.000000
5243		3.906250
5244		1.953125
5245		5.859375
5246		3.906250
5247		7.812500
5248		5.859375
5249		11.718750
5250		9.765625
5251		13.671875
5252		11.718750
5253		15.625000
5254		13.671875
5255		17.578125
5256		15.625000
5257		19.531250
5258		19.531250
5259		21.484375
5260		21.484375
5261		25.390625
5262		23.437500
5263		25.390625
5264		25.390625
5265		29.296875
5266		27.343750
5267		31.250000
5268		29.296875
5269		33.203125
5270		31.250000
5271		35.156250
5272		33.203125
5273		37.109375
5274		35.156250
5275		37.109375
5276		37.109375
5277		41.015625
5278		37.109375
5279		41.015625
5280		39.062500
5281		42.968750
5282		41.015625
5283		44.921875
5284		42.968750
5285		44.921875
5286		44.921875
5287		46.875000
5288		44.921875
5289		48.828125
5290		46.875000
5291		48.828125
5292		46.875000
5293		50.781250
5294		48.828125
5295		50.781250
5296		48.828125
5297		52.734375
5298		50.781250
5299		52.734375
5300		50.781250
5301		52.734375
5302		50.781250
5303		52.734375
5304		52.734375
5305		54.687500
5306		52.734375
5307		54.687500
5308		52.734375
5309		54.687500
5310		52.734375
5311		54.687500
5312		52.734375
5313		54.687500
5314		52.734375
5315		54.687500
5316		52.734375
5317		54.687500
5318		50.781250
5319		54.687500
5320		50.781250
5321		52.734375
5322		50.781250
5323		52.734375
5324		50.781250
5325		52.734375
5326		48.828125
5327		52.734375
5328		48.828125
5329		50.781250
5330		46.875000
5331		50.781250
5332		46.875000
5333		48.828125
5334		44.921875
5335		48.828125
5336		44.921875
5337		46.875000
5338		42.968750
5339		46.875000
5340		41.015625
5341		44.921875
5342		41.015625
5343		42.968750
5344		39.062500
5345		41.015625
5346		37.109375
5347		39.062500
5348		35.156250
5349		39.062500
5350		33.203125
5351		37.109375
5352		31.250000
5353		35.156250
5354		29.296875
5355		33.203125
5356		27.343750
5357		31.250000
5358		25.390625
5359		29.296875
5360		23.437500
5361		27.343750
5362		21.484375
5363		25.390625
5364		19.531250
5365		23.437500
5366		15.625000
5367		21.484375
5368		13.671875
5369		17.578125
5370		11.718750
5371		15.625000
5372		9.765625
5373		13.671875
5374		7.812500
5375		11.718750
5376		5.859375
5377		9.765625
5378		1.953125
5379		5.859375
5380		0.000000
5381		3.906250
5382		-1.953125
5383		1.953125
5384		-3.906250
5385		0.000000
5386		-5.859375
5387		-3.906250
5388		-9.765625
5389		-5.859375
5390		-11.718750
5391		-5.859375
5392		-13.671875
5393		-9.765625
5394		-15.625000
5395		-11.718750
5396		-17.578125
5397		-13.671875
5398		-19.531250
5399		-15.625000
5400		-21.484375
5401		-17.578125
5402		-23.437500
5403		-19.531250
5404		-25.390625
5405		-21.484375
5406		-27.343750
5407		-23.437500
5408		-29.296875
5409		-25.390625
5410		-31.250000
5411		-27.343750
5412		-31.250000
5413		-29.296875
5414		-33.203125
5415		-29.296875
5416		-35.156250
5417		-31.250000
5418		-35.156250
5419		-33.203125
5420		-37.109375
5421		-35.156250
5422		-37.109375
5423		-35.156250
5424		-39.062500
5425		-35.156250
5426		-39.062500
5427		-37.109375
5428		-39.062500
5429		-37.109375
5430		-41.015625
5431		-37.109375
5432		-41.015625
5433		-39.062500
5434		-41.015625
5435		-39.062500
5436		-41.015625
5437		-39.062500
5438		-41.015625
5439		-39.062500
5440		-41.015625
5441		-39.062500
5442		-41.015625
5443		-39.062500
5444		-41.015625
5445		-39.062500
5446		-39.062500
5447		-37.109375
5448		-39.062500
5449		-37.109375
5450		-39.062500
5451		-37.109375
5452		-37.109375
5453		-35.156250
5454		-37.109375
5455		-35.156250
5456		-37.109375
5457		-33.203125
5458		-35.156250
5459		-33.203125
5460		-33.203125
5461		-31.250000
5462		-33.203125
5463		-29.296875
5464		-31.250000
5465		-27.343750
5466		-29.296875
5467		-25.390625
5468		-27.343750
5469		-25.390625
5470		-25.390625
5471		-23.437500
5472		-25.390625
5473		-21.484375
5474		-23.437500
5475		-17.578125
5476		-21.484375
5477		-17.578125
5478		-17.578125
5479		-13.671875
5480		-15.625000
5481		-11.718750
5482		-13.671875
5483		-11.718750
5484		-11.718750
5485		-7.812500
5486		-9.765625
5487		-5.859375
5488		-7.812500
5489		-3.906250
5490		-5.859375
5491		-1.953125
5492		-3.906250
5493		0.000000
5494		0.000000
5495		1.953125
5496		1.953125
5497		5.859375
5498		3.906250
5499		7.812500
5500		5.859375
5501		9.765625
5502		7.812500
5503		11.718750
5504		11.718750
5505		15.625000
5506		11.718750
5507		17.578125
5508		15.625000
5509		19.531250
5510		17.578125
5511		21.484375
5512		19.531250
5513		23.437500
5514		21.484375
5515		25.390625
5516		23.437500
5517		27.343750
5518		25.390625
5519		29.296875
5520		29.296875
5521		31.250000
5522		29.296875
5523		33.203125
5524		31.250000
5525		35.156250
5526		33.203125
5527		37.109375
5528		35.156250
5529		39.062500
5530		37.109375
5531		41.015625
5532		39.062500
5533		42.968750
5534		41.015625
5535		42.968750
5536		42.968750
5537		44.921875
5538		42.968750
5539		46.875000
5540		44.921875
5541		46.875000
5542		46.875000
5543		48.828125
5544		46.875000
5545		50.781250
5546		48.828125
5547		50.781250
5548		48.828125
5549		52.734375
5550		48.828125
5551		52.734375
5552		50.781250
5553		52.734375
5554		50.781250
5555		52.734375
5556		50.781250
5557		54.687500
5558		52.734375
5559		54.687500
5560		50.781250
5561		54.687500
5562		52.734375
5563		54.687500
5564		52.734375
5565		54.687500
5566		52.734375
5567		54.687500
5568		52.734375
5569		54.687500
5570		52.734375
5571		54.687500
5572		50.781250
5573		54.687500
5574		50.781250
5575		52.734375
5576		50.781250
5577		52.734375
5578		48.828125
5579		52.734375
5580		48.828125
5581		50.781250
5582		46.875000
5583		50.781250
5584		46.875000
5585		50.781250
5586		44.921875
5587		48.828125
5588		44.921875
5589		46.875000
5590		42.968750
5591		46.875000
5592		41.015625
5593		44.921875
5594		41.015625
5595		42.968750
5596		39.062500
5597		42.968750
5598		37.109375
5599		41.015625
5600		35.156250
5601		39.062500
5602		33.203125
5603		37.109375
5604		31.250000
5605		35.156250
5606		29.296875
5607		33.203125
5608		27.343750
5609		31.250000
5610		25.390625
5611		29.296875
5612		23.437500
5613		27.343750
5614		21.484375
5615		25.390625
5616		19.531250
5617		23.437500
5618		17.578125
5619		21.484375
5620		15.625000
5621		17.578125
5622		11.718750
5623		15.625000
5624		9.765625
5625		13.671875
5626		7.812500
5627		11.718750
5628		3.906250
5629		9.765625
5630		3.906250
5631		7.812500
5632		0.000000
5633		3.906250
5634		-1.953125
5635		1.953125
5636		-3.906250
5637		0.000000
5638		-5.859375
5639		-1.953125
5640		-7.812500
5641		-3.906250
5642		-9.765625
5643		-7.812500
5644		-13.671875
5645		-9.765625
5646		-15.625000
5647		-11.718750
5648		-17.578125
5649		-13.671875
5650		-19.531250
5651		-15.625000
5652		-21.484375
5653		-17.578125
5654		-23.437500
5655		-19.531250
5656		-25.390625
5657		-21.484375
5658		-27.343750
5659		-23.437500
5660		-29.296875
5661		-25.390625
5662		-29.296875
5663		-27.343750
5664		-31.250000
5665		-27.343750
5666		-33.203125
5667		-29.296875
5668		-35.156250
5669		-31.250000
5670		-35.156250
5671		-33.203125
5672		-37.109375
5673		-33.203125
5674		-37.109375
5675		-35.156250
5676		-39.062500
5677		-35.156250
5678		-39.062500
5679		-37.109375
5680		-39.062500
5681		-37.109375
5682		-41.015625
5683		-37.109375
5684		-41.015625
5685		-39.062500
5686		-41.015625
5687		-39.062500
5688		-41.015625
5689		-39.062500
5690		-41.015625
5691		-39.062500
5692		-41.015625
5693		-39.062500
5694		-41.015625
5695		-39.062500
5696		-41.015625
5697		-39.062500
5698		-41.015625
5699		-37.109375
5700		-39.062500
5701		-37.109375
5702		-39.062500
5703		-37.109375
5704		-39.062500
5705		-35.156250
5706		-37.109375
5707		-35.156250
5708		-37.109375
5709		-33.203125
5710		-35.156250
5711		-33.203125
5712		-35.156250
5713		-31.250000
5714		-33.203125
5715		-29.296875
5716		-31.250000
5717		-29.296875
5718		-29.296875
5719		-27.343750
5720		-29.296875
5721		-25.390625
5722		-27.343750
5723		-23.437500
5724		-25.390625
5725		-21.484375
5726		-23.437500
5727		-19.531250
5728		-21.484375
5729		-17.578125
5730		-19.531250
5731		-15.625000
5732		-17.578125
5733		-13.671875
5734		-15.625000
5735		-11.718750
5736		-13.671875
5737		-9.765625
5738		-11.718750
5739		-7.812500
5740		-7.812500
5741		-3.906250
5742		-5.859375
5743		-1.953125
5744		-3.906250
5745		0.000000
5746		-1.953125
5747		1.953125
5748		1.953125
5749		3.906250
5750		3.906250
5751		7.812500
5752		5.859375
5753		9.765625
5754		7.812500
5755		11.718750
5756		9.765625
5757		13.671875
5758		11.718750
5759		15.625000
5760		13.671875
5761		17.578125
5762		17.578125
5763		21.484375
5764		19.531250
5765		23.437500
5766		21.484375
5767		25.390625
5768		23.437500
5769		27.343750
5770		25.390625
5771		29.296875
5772		27.343750
5773		31.250000
5774		29.296875
5775		33.203125
5776		31.250000
5777		35.156250
5778		33.203125
5779		37.109375
5780		35.156250
5781		39.062500
5782		37.109375
5783		39.062500
5784		39.062500
5785		41.015625
5786		41.015625
5787		42.968750
5788		41.015625
5789		44.921875
5790		42.968750
5791		46.875000
5792		44.921875
5793		46.875000
5794		44.921875
5795		48.828125
5796		46.875000
5797		48.828125
5798		48.828125
5799		50.781250
5800		48.828125
5801		50.781250
5802		48.828125
5803		50.781250
5804		50.781250
5805		52.734375
5806		50.781250
5807		52.734375
5808		50.781250
5809		52.734375
5810		50.781250
5811		54.687500
5812		52.734375
5813		54.687500
5814		52.734375
5815		54.687500
5816		52.734375
5817		54.687500
5818		52.734375
5819		54.687500
5820		52.734375
5821		54.687500
5822		50.781250
5823		54.687500
5824		50.781250
5825		52.734375
5826		50.781250
5827		52.734375
5828		50.781250
5829		52.734375
5830		48.828125
5831		52.734375
5832		48.828125
5833		50.781250
5834		48.828125
5835		50.781250
5836		46.875000
5837		48.828125
5838		46.875000
5839		48.828125
5840		44.921875
5841		48.828125
5842		42.968750
5843		46.875000
5844		41.015625
5845		44.921875
5846		41.015625
5847		42.968750
5848		39.062500
5849		42.968750
5850		37.109375
5851		41.015625
5852		35.156250
5853		39.062500
5854		33.203125
5855		37.109375
5856		31.250000
5857		35.156250
5858		29.296875
5859		33.203125
5860		27.343750
5861		31.250000
5862		25.390625
5863		29.296875
5864		23.437500
5865		27.343750
5866		21.484375
5867		25.390625
5868		19.531250
5869		23.437500
5870		17.578125
5871		21.484375
5872		15.625000
5873		19.531250
5874		11.718750
5875		17.578125
5876		9.765625
5877		13.671875
5878		7.812500
5879		11.718750
5880		5.859375
5881		9.765625
5882		3.906250
5883		7.812500
5884		0.000000
5885		5.859375
5886		-1.953125
5887		1.953125
5888		-3.906250
5889		0.000000
5890		-5.859375
5891		-1.953125
5892		-7.812500
5893		-3.906250
5894		-9.765625
5895		-7.812500
5896		-11.718750
5897		-7.812500
5898		-13.671875
5899		-11.718750
5900		-17.578125
5901		-13.671875
5902		-19.531250
5903		-15.625000
5904		-21.484375
5905		-17.578125
5906		-23.437500
5907		-19.531250
5908		-25.390625
5909		-21.484375
5910		-25.390625
5911		-23.437500
5912		-27.343750
5913		-25.390625
5914		-29.296875
5915		-27.343750
5916		-31.250000
5917		-27.343750
5918		-33.203125
5919		-29.296875
5920		-35.156250
5921		-31.250000
5922		-35.156250
5923		-33.203125
5924		-37.109375
5925		-33.203125
5926		-37.109375
5927		-35.156250
5928		-39.062500
5929		-35.156250
5930		-39.062500
5931		-37.109375
5932		-39.062500
5933		-37.109375
5934		-41.015625
5935		-37.109375
5936		-41.015625
5937		-39.062500
5938		-41.015625
5939		-39.062500
5940		-41.015625
5941		-39.062500
5942		-41.015625
5943		-39.062500
5944		-41.015625
5945		-39.062500
5946		-41.015625
5947		-39.062500
5948		-41.015625
5949		-39.062500
5950		-41.015625
5951		-39.062500
5952		-39.062500
5953		-37.109375
5954		-39.062500
5955		-37.109375
5956		-39.062500
5957		-37.109375
5958		-37.109375
5959		-35.156250
5960		-37.109375
5961		-33.203125
5962		-35.156250
5963		-33.203125
5964		-35.156250
5965		-31.250000
5966		-33.203125
5967		-31.250000
5968		-31.250000
5969		-29.296875
5970		-31.250000
5971		-27.343750
5972		-29.296875
5973		-25.390625
5974		-27.343750
5975		-23.437500
5976		-25.390625
5977		-21.484375
5978		-23.437500
5979		-19.531250
5980		-21.484375
5981		-17.578125
5982		-19.531250
5983		-15.625000
5984		-17.578125
5985		-13.671875
5986		-15.625000
5987		-11.718750
5988		-13.671875
5989		-9.765625
5990		-11.718750
5991		-7.812500
5992		-9.765625
5993		-5.859375
5994		-5.859375
5995		-1.953125
5996		-3.906250
5997		0.000000
5998		-1.953125
5999		1.953125
6000		0.000000
6001		3.906250
6002		1.953125
6003		7.812500
6004		3.906250
6005		7.812500
6006		7.812500
6007		11.718750
6008		9.765625
6009		13.671875
6010		11.718750
6011		15.625000
6012		13.671875
6013		17.578125
6014		17.578125
6015		19.531250
6016		19.531250
6017		23.437500
6018		21.484375
6019		25.390625
6020		23.437500
6021		27.343750
6022		25.390625
6023		29.296875
6024		27.343750
6025		31.250000
6026		29.296875
6027		33.203125
6028		31.250000
6029		35.156250
6030		33.203125
6031		37.109375
6032		35.156250
6033		39.062500
6034		37.109375
6035		39.062500
6036		39.062500
6037		41.015625
6038		39.062500
6039		42.968750
6040		41.015625
6041		44.921875
6042		42.968750
6043		44.921875
6044		44.921875
6045		46.875000
6046		44.921875
6047		48.828125
6048		46.875000
6049		48.828125
6050		46.875000
6051		50.781250
6052		48.828125
6053		50.781250
6054		48.828125
6055		52.734375
6056		50.781250
6057		52.734375
6058		50.781250
6059		52.734375
6060		50.781250
6061		52.734375
6062		52.734375
6063		54.687500
6064		52.734375
6065		54.687500
6066		52.734375
6067		54.687500
6068		52.734375
6069		54.687500
6070		52.734375
6071		54.687500
6072		52.734375
6073		54.687500
6074		52.734375
6075		54.687500
6076		50.781250
6077		54.687500
6078		50.781250
6079		54.687500
6080		50.781250
6081		52.734375
6082		50.781250
6083		52.734375
6084		48.828125
6085		52.734375
6086		48.828125
6087		50.781250
6088		44.921875
6089		50.781250
6090		46.875000
6091		50.781250
6092		44.921875
6093		48.828125
6094		42.968750
6095		48.828125
6096		42.968750
6097		44.921875
6098		41.015625
6099		44.921875
6100		39.062500
6101		42.968750
6102		37.109375
6103		41.015625
6104		37.109375
6105		39.062500
6106		33.203125
6107		39.062500
6108		33.203125
6109		37.109375
6110		29.296875
6111		35.156250
6112		29.296875
6113		33.203125
6114		25.390625
6115		31.250000
6116		25.390625
6117		27.343750
6118		21.484375
6119		25.390625
6120		19.531250
6121		25.390625
6122		15.625000
6123		21.484375
6124		15.625000
6125		19.531250
6126		9.765625
6127		17.578125
6128		11.718750
6129		15.625000
6130		7.812500
6131		13.671875
6132		5.859375
6133		9.765625
6134		3.906250
6135		7.812500
6136		0.000000
6137		5.859375
6138		-1.953125
6139		3.906250
6140		-3.906250
6141		1.953125
6142		-5.859375
6143		0.000000
6144		-9.765625
6145		-1.953125
6146		-11.718750
6147		-3.906250
6148		-11.718750
6149		-7.812500
6150		-13.671875
6151		-9.765625
6152		-17.578125
6153		-11.718750
6154		-21.484375
6155		-13.671875
6156		-21.484375
6157		-15.625000
6158		-23.437500
6159		-17.578125
6160		-25.390625
6161		-19.531250
6162		-25.390625
6163		-23.437500
6164		-29.296875
6165		-21.484375
6166		-29.296875
6167		-25.390625
6168		-31.250000
6169		-27.343750
6170		-33.203125
6171		-27.343750
6172		-35.156250
6173		-27.343750
6174		-35.156250
6175		-31.250000
6176		-37.109375
6177		-33.203125
6178		-41.015625
6179		-31.250000
6180		-42.968750
6181		-33.203125
6182		-39.062500
6183		-37.109375
6184		-39.062500
6185		-37.109375
6186		-41.015625
6187		-37.109375
6188		-42.968750
6189		-35.156250
6190		-42.968750
6191		-37.109375
6192		-42.968750
6193		-39.062500
6194		-44.921875
6195		-35.156250
6196		-42.968750
6197		-39.062500
6198		-44.921875
6199		-35.156250
6200		-41.015625
6201		-39.062500
6202		-41.015625
6203		-37.109375
6204		-44.921875
6205		-33.203125
6206		-41.015625
6207		-35.156250
6208		-39.062500
6209		-37.109375
6210		-41.015625
6211		-33.203125
6212		-41.015625
6213		-31.250000
6214		-39.062500
6215		-29.296875
6216		-35.156250
6217		-31.250000
6218		-33.203125
6219		-29.296875
6220		-33.203125
6221		-27.343750
6222		-33.203125
6223		-25.390625
6224		-31.250000
6225		-25.390625
6226		-27.343750
6227		-23.437500
6228		-27.343750
6229		-17.578125
6230		-25.390625
6231		-15.625000
6232		-25.390625
6233		-15.625000
6234		-19.531250
6235		-15.625000
6236		-19.531250
6237		-13.671875
6238		-17.578125
6239		-9.765625
6240		-13.671875
6241		-9.765625
6242		-11.718750
6243		-7.812500
6244		-9.765625
6245		-1.953125
6246		-11.718750
6247		0.000000
6248		-5.859375
6249		1.953125
6250		-1.953125
6251		1.953125
6252		0.000000
6253		3.906250
6254		1.953125
6255		7.812500
6256		1.953125
6257		9.765625
6258		7.812500
6259		11.718750
6260		9.765625
6261		13.671875
6262		7.812500
6263		17.578125
6264		11.718750
6265		19.531250
6266		15.625000
6267		19.531250
6268		17.578125
6269		21.484375
6270		21.484375
6271		25.390625
6272		21.484375
6273		29.296875
6274		21.484375
6275		29.296875
6276		27.343750
6277		31.250000
6278		27.343750
6279		37.109375
6280		27.343750
6281		35.156250
6282		29.296875
6283		37.109375
6284		35.156250
6285		39.062500
6286		37.109375
6287		41.015625
6288		35.156250
6289		44.921875
6290		39.062500
6291		44.921875
6292		41.015625
6293		44.921875
6294		41.015625
6295		48.828125
6296		41.015625
6297		50.781250
6298		42.968750
6299		50.781250
6300		46.875000
6301		48.828125
6302		46.875000
6303		50.781250
6304		46.875000
6305		52.734375
6306		44.921875
6307		54.687500
6308		48.828125
6309		54.687500
6310		50.781250
6311		52.734375
6312		48.828125
6313		56.640625
6314		50.781250
6315		54.687500
6316		50.781250
6317		56.640625
6318		52.734375
6319		54.687500
6320		52.734375
6321		54.687500
6322		50.781250
6323		58.593750
6324		50.781250
6325		56.640625
6326		52.734375
6327		54.687500
6328		48.828125
6329		56.640625
6330		48.828125
6331		56.640625
6332		48.828125
6333		54.687500
6334		50.781250
6335		52.734375
6336		48.828125
6337		52.734375
6338		46.875000
6339		52.734375
6340		44.921875
6341		54.687500
6342		44.921875
6343		50.781250
6344		44.921875
6345		48.828125
6346		41.015625
6347		50.781250
6348		39.062500
6349		46.875000
6350		41.015625
6351		44.921875
6352		39.062500
6353		42.968750
6354		37.109375
6355		41.015625
6356		35.156250
6357		42.968750
6358		33.203125
6359		41.015625
6360		33.203125
6361		37.109375
6362		29.296875
6363		35.156250
6364		29.296875
6365		33.203125
6366		25.390625
6367		33.203125
6368		25.390625
6369		29.296875
6370		23.437500
6371		27.343750
6372		21.484375
6373		25.390625
6374		17.578125
6375		25.390625
6376		15.625000
6377		21.484375
6378		11.718750
6379		17.578125
6380		11.718750
6381		17.578125
6382		9.765625
6383		13.671875
6384		7.812500
6385		11.718750
6386		3.906250
6387		7.812500
6388		1.953125
6389		5.859375
6390		0.000000
6391		3.906250
6392		-3.906250
6393		3.906250
6394		-3.906250
6395		0.000000
6396		-7.812500
6397		-1.953125
6398		-9.765625
6399		-5.859375
6400		-11.718750
6401		-7.812500
6402		-13.671875
6403		-9.765625
6404		-15.625000
6405		-11.718750
6406		-17.578125
6407		-13.671875
6408		-19.531250
6409		-15.625000
6410		-21.484375
6411		-17.578125
6412		-23.437500
6413		-19.531250
6414		-25.390625
6415		-21.484375
6416		-27.343750
6417		-23.437500
6418		-29.296875
6419		-25.390625
6420		-31.250000
6421		-27.343750
6422		-33.203125
6423		-27.343750
6424		-33.203125
6425		-31.250000
6426		-35.156250
6427		-31.250000
6428		-35.156250
6429		-31.250000
6430		-37.109375
6431		-33.203125
6432		-37.109375
6433		-35.156250
6434		-39.062500
6435		-35.156250
6436		-39.062500
6437		-37.109375
6438		-41.015625
6439		-37.109375
6440		-41.015625
6441		-37.109375
6442		-41.015625
6443		-37.109375
6444		-42.968750
6445		-37.109375
6446		-42.968750
6447		-37.109375
6448		-42.968750
6449		-37.109375
6450		-41.015625
6451		-37.109375
6452		-41.015625
6453		-39.062500
6454		-41.015625
6455		-37.109375
6456		-41.015625
6457		-37.109375
6458		-41.015625
6459		-35.156250
6460		-39.062500
6461		-33.203125
6462		-39.062500
6463		-33.203125
6464		-37.109375
6465		-33.203125
6466		-37.109375
6467		-31.250000
6468		-35.156250
6469		-31.250000
6470		-33.203125
6471		-31.250000
6472		-33.203125
6473		-27.343750
6474		-31.250000
6475		-25.390625
6476		-31.250000
6477		-25.390625
6478		-29.296875
6479		-23.437500
6480		-27.343750
6481		-21.484375
6482		-25.390625
6483		-19.531250
6484		-23.437500
6485		-17.578125
6486		-19.531250
6487		-15.625000
6488		-17.578125
6489		-13.671875
6490		-17.578125
6491		-11.718750
6492		-15.625000
6493		-9.765625
6494		-11.718750
6495		-5.859375
6496		-9.765625
6497		-3.906250
6498		-7.812500
6499		-1.953125
6500		-5.859375
6501		0.000000
6502		-1.953125
6503		1.953125
6504		0.000000
6505		3.906250
6506		1.953125
6507		5.859375
6508		3.906250
6509		9.765625
6510		5.859375
6511		11.718750
6512		5.859375
6513		13.671875
6514		11.718750
6515		15.625000
6516		11.718750
6517		17.578125
6518		15.625000
6519		19.531250
6520		17.578125
6521		21.484375
6522		19.531250
6523		25.390625
6524		21.484375
6525		27.343750
6526		23.437500
6527		29.296875
6528		25.390625
6529		31.250000
6530		27.343750
6531		33.203125
6532		29.296875
6533		35.156250
6534		33.203125
6535		37.109375
6536		33.203125
6537		37.109375
6538		35.156250
6539		41.015625
6540		37.109375
6541		41.015625
6542		39.062500
6543		42.968750
6544		39.062500
6545		46.875000
6546		41.015625
6547		46.875000
6548		42.968750
6549		46.875000
6550		44.921875
6551		48.828125
6552		46.875000
6553		48.828125
6554		46.875000
6555		50.781250
6556		48.828125
6557		50.781250
6558		48.828125
6559		52.734375
6560		48.828125
6561		52.734375
6562		48.828125
6563		54.687500
6564		50.781250
6565		54.687500
6566		52.734375
6567		54.687500
6568		50.781250
6569		54.687500
6570		52.734375
6571		54.687500
6572		52.734375
6573		56.640625
6574		52.734375
6575		54.687500
6576		52.734375
6577		54.687500
6578		50.781250
6579		56.640625
6580		50.781250
6581		54.687500
6582		50.781250
6583		54.687500
6584		50.781250
6585		54.687500
6586		50.781250
6587		52.734375
6588		50.781250
6589		52.734375
6590		48.828125
6591		52.734375
6592		48.828125
6593		50.781250
6594		46.875000
6595		50.781250
6596		44.921875
6597		50.781250
6598		44.921875
6599		48.828125
6600		42.968750
6601		46.875000
6602		41.015625
6603		46.875000
6604		41.015625
6605		42.968750
6606		39.062500
6607		42.968750
6608		37.109375
6609		41.015625
6610		35.156250
6611		39.062500
6612		33.203125
6613		39.062500
6614		31.250000
6615		35.156250
6616		29.296875
6617		33.203125
6618		27.343750
6619		31.250000
6620		25.390625
6621		29.296875
6622		23.437500
6623		27.343750
6624		21.484375
6625		25.390625
6626		19.531250
6627		23.437500
6628		15.625000
6629		21.484375
6630		15.625000
6631		19.531250
6632		11.718750
6633		17.578125
6634		9.765625
6635		13.671875
6636		7.812500
6637		11.718750
6638		5.859375
6639		9.765625
6640		1.953125
6641		7.812500
6642		1.953125
6643		3.906250
6644		-1.953125
6645		1.953125
6646		-3.906250
6647		1.953125
6648		-5.859375
6649		-1.953125
6650		-7.812500
6651		-3.906250
6652		-9.765625
6653		-5.859375
6654		-11.718750
6655		-9.765625
6656		-15.625000
6657		-11.718750
6658		-17.578125
6659		-11.718750
6660		-19.531250
6661		-15.625000
6662		-21.484375
6663		-17.578125
6664		-23.437500
6665		-19.531250
6666		-25.390625
6667		-21.484375
6668		-27.343750
6669		-21.484375
6670		-27.343750
6671		-25.390625
6672		-29.296875
6673		-27.343750
6674		-31.250000
6675		-27.343750
6676		-33.203125
6677		-29.296875
6678		-35.156250
6679		-31.250000
6680		-35.156250
6681		-31.250000
6682		-37.109375
6683		-33.203125
6684		-37.109375
6685		-33.203125
6686		-39.062500
6687		-35.156250
6688		-39.062500
6689		-37.109375
6690		-41.015625
6691		-35.156250
6692		-41.015625
6693		-37.109375
6694		-41.015625
6695		-37.109375
6696		-41.015625
6697		-37.109375
6698		-41.015625
6699		-39.062500
6700		-41.015625
6701		-39.062500
6702		-42.968750
6703		-37.109375
6704		-41.015625
6705		-39.062500
6706		-41.015625
6707		-37.109375
6708		-41.015625
6709		-37.109375
6710		-41.015625
6711		-37.109375
6712		-39.062500
6713		-37.109375
6714		-39.062500
6715		-35.156250
6716		-37.109375
6717		-33.203125
6718		-37.109375
6719		-31.250000
6720		-35.156250
6721		-33.203125
6722		-33.203125
6723		-31.250000
6724		-33.203125
6725		-29.296875
6726		-31.250000
6727		-27.343750
6728		-29.296875
6729		-25.390625
6730		-27.343750
6731		-25.390625
6732		-27.343750
6733		-21.484375
6734		-25.390625
6735		-21.484375
6736		-23.437500
6737		-19.531250
6738		-21.484375
6739		-17.578125
6740		-17.578125
6741		-13.671875
6742		-17.578125
6743		-13.671875
6744		-13.671875
6745		-9.765625
6746		-11.718750
6747		-7.812500
6748		-9.765625
6749		-5.859375
6750		-7.812500
6751		-3.906250
6752		-5.859375
6753		0.000000
6754		-3.906250
6755		0.000000
6756		-1.953125
6757		1.953125
6758		0.000000
6759		5.859375
6760		3.906250
6761		7.812500
6762		5.859375
6763		9.765625
6764		7.812500
6765		13.671875
6766		9.765625
6767		15.625000
6768		11.718750
6769		17.578125
6770		13.671875
6771		19.531250
6772		17.578125
6773		21.484375
6774		19.531250
6775		23.437500
6776		21.484375
6777		25.390625
6778		23.437500
6779		27.343750
6780		25.390625
6781		31.250000
6782		27.343750
6783		31.250000
6784		29.296875
6785		33.203125
6786		31.250000
6787		35.156250
6788		33.203125
6789		37.109375
6790		35.156250
6791		39.062500
6792		35.156250
6793		41.015625
6794		39.062500
6795		42.968750
6796		41.015625
6797		42.968750
6798		42.968750
6799		44.921875
6800		42.968750
6801		46.875000
6802		44.921875
6803		48.828125
6804		46.875000
6805		48.828125
6806		46.875000
6807		50.781250
6808		46.875000
6809		50.781250
6810		48.828125
6811		52.734375
6812		48.828125
6813		52.734375
6814		50.781250
6815		52.734375
6816		50.781250
6817		54.687500
6818		50.781250
6819		54.687500
6820		50.781250
6821		54.687500
6822		52.734375
6823		54.687500
6824		50.781250
6825		56.640625
6826		52.734375
6827		54.687500
6828		52.734375
6829		54.687500
6830		52.734375
6831		54.687500
6832		50.781250
6833		54.687500
6834		50.781250
6835		54.687500
6836		50.781250
6837		54.687500
6838		50.781250
6839		52.734375
6840		50.781250
6841		52.734375
6842		48.828125
6843		52.734375
6844		48.828125
6845		50.781250
6846		46.875000
6847		50.781250
6848		44.921875
6849		48.828125
6850		44.921875
6851		46.875000
6852		42.968750
6853		46.875000
6854		41.015625
6855		46.875000
6856		41.015625
6857		42.968750
6858		39.062500
6859		42.968750
6860		37.109375
6861		41.015625
6862		35.156250
6863		39.062500
6864		33.203125
6865		39.062500
6866		31.250000
6867		35.156250
6868		29.296875
6869		33.203125
6870		27.343750
6871		31.250000
6872		25.390625
6873		29.296875
6874		23.437500
6875		27.343750
6876		21.484375
6877		27.343750
6878		19.531250
6879		23.437500
6880		17.578125
6881		21.484375
6882		15.625000
6883		19.531250
6884		11.718750
6885		17.578125
6886		9.765625
6887		15.625000
6888		7.812500
6889		11.718750
6890		5.859375
6891		9.765625
6892		3.906250
6893		7.812500
6894		0.000000
6895		5.859375
6896		-1.953125
6897		1.953125
6898		-3.906250
6899		0.000000
6900		-5.859375
6901		-1.953125
6902		-7.812500
6903		-3.906250
6904		-9.765625
6905		-5.859375
6906		-11.718750
6907		-7.812500
6908		-15.625000
6909		-9.765625
6910		-17.578125
6911		-11.718750
6912		-19.531250
6913		-15.625000
6914		-21.484375
6915		-15.625000
6916		-23.437500
6917		-17.578125
6918		-25.390625
6919		-21.484375
6920		-27.343750
6921		-23.437500
6922		-27.343750
6923		-25.390625
6924		-29.296875
6925		-27.343750
6926		-31.250000
6927		-27.343750
6928		-33.203125
6929		-29.296875
6930		-35.156250
6931		-31.250000
6932		-35.156250
6933		-31.250000
6934		-37.109375
6935		-33.203125
6936		-37.109375
6937		-33.203125
6938		-39.062500
6939		-35.156250
6940		-39.062500
6941		-37.109375
6942		-41.015625
6943		-37.109375
6944		-41.015625
6945		-37.109375
6946		-41.015625
6947		-37.109375
6948		-42.968750
6949		-39.062500
6950		-42.968750
6951		-37.109375
6952		-41.015625
6953		-39.062500
6954		-41.015625
6955		-37.109375
6956		-41.015625
6957		-39.062500
6958		-41.015625
6959		-39.062500
6960		-41.015625
6961		-37.109375
6962		-41.015625
6963		-37.109375
6964		-39.062500
6965		-37.109375
6966		-39.062500
6967		-35.156250
6968		-39.062500
6969		-33.203125
6970		-37.109375
6971		-33.203125
6972		-37.109375
6973		-33.203125
6974		-35.156250
6975		-31.250000
6976		-33.203125
6977		-29.296875
6978		-33.203125
6979		-29.296875
6980		-31.250000
6981		-27.343750
6982		-29.296875
6983		-25.390625
6984		-27.343750
6985		-23.437500
6986		-25.390625
6987		-21.484375
6988		-23.437500
6989		-19.531250
6990		-21.484375
6991		-17.578125
6992		-19.531250
6993		-15.625000
6994		-17.578125
6995		-13.671875
6996		-15.625000
6997		-11.718750
6998		-13.671875
6999		-9.765625
7000		-11.718750
7001		-5.859375
7002		-9.765625
7003		-3.906250
7004		-5.859375
7005		-1.953125
7006		-3.906250
7007		0.000000
7008		-1.953125
7009		1.953125
7010		0.000000
7011		3.906250
7012		1.953125
7013		7.812500
7014		3.906250
7015		9.765625
7016		7.812500
7017		11.718750
7018		9.765625
7019		13.671875
7020		11.718750
7021		15.625000
7022		13.671875
7023		17.578125
7024		17.578125
7025		19.531250
7026		19.531250
7027		23.437500
7028		21.484375
7029		25.390625
7030		23.437500
7031		27.343750
7032		25.390625
7033		29.296875
7034		27.343750
7035		31.250000
7036		29.296875
7037		33.203125
7038		31.250000
7039		35.156250
7040		33.203125
7041		37.109375
7042		35.156250
7043		39.062500
7044		37.109375
7045		41.015625
7046		39.062500
7047		42.968750
7048		39.062500
7049		42.968750
7050		41.015625
7051		44.921875
7052		42.968750
7053		46.875000
7054		42.968750
7055		46.875000
7056		42.968750
7057		48.828125
7058		46.875000
7059		48.828125
7060		46.875000
7061		50.781250
7062		48.828125
7063		50.781250
7064		48.828125
7065		52.734375
7066		50.781250
7067		52.734375
7068		50.781250
7069		52.734375
7070		50.781250
7071		54.687500
7072		50.781250
7073		54.687500
7074		52.734375
7075		54.687500
7076		50.781250
7077		54.687500
7078		52.734375
7079		54.687500
7080		52.734375
7081		54.687500
7082		52.734375
7083		54.687500
7084		50.781250
7085		54.687500
7086		50.781250
7087		54.687500
7088		50.781250
7089		54.687500
7090		50.781250
7091		52.734375
7092		50.781250
7093		52.734375
7094		48.828125
7095		52.734375
7096		48.828125
7097		50.781250
7098		46.875000
7099		50.781250
7100		46.875000
7101		48.828125
7102		42.968750
7103		48.828125
7104		42.968750
7105		46.875000
7106		41.015625
7107		46.875000
7108		41.015625
7109		44.921875
7110		39.062500
7111		42.968750
7112		37.109375
7113		41.015625
7114		35.156250
7115		39.062500
7116		35.156250
7117		39.062500
7118		33.203125
7119		37.109375
7120		29.296875
7121		33.203125
7122		27.343750
7123		31.250000
7124		27.343750
7125		29.296875
7126		23.437500
7127		27.343750
7128		21.484375
7129		27.343750
7130		19.531250
7131		23.437500
7132		17.578125
7133		21.484375
7134		15.625000
7135		19.531250
7136		13.671875
7137		17.578125
7138		11.718750
7139		15.625000
7140		7.812500
7141		13.671875
7142		5.859375
7143		9.765625
7144		3.906250
7145		7.812500
7146		0.000000
7147		5.859375
7148		0.000000
7149		3.906250
7150		-3.906250
7151		1.953125
7152		-5.859375
7153		-1.953125
7154		-7.812500
7155		-3.906250
7156		-9.765625
7157		-5.859375
7158		-11.718750
7159		-7.812500
7160		-15.625000
7161		-9.765625
7162		-17.578125
7163		-11.718750
7164		-19.531250
7165		-13.671875
7166		-19.531250
7167		-15.625000
7168		-21.484375
7169		-19.531250
7170		-23.437500
7171		-19.531250
7172		-27.343750
7173		-21.484375
7174		-27.343750
7175		-25.390625
7176		-29.296875
7177		-25.390625
7178		-31.250000
7179		-27.343750
7180		-33.203125
7181		-29.296875
7182		-33.203125
7183		-31.250000
7184		-35.156250
7185		-31.250000
7186		-37.109375
7187		-33.203125
7188		-37.109375
7189		-33.203125
7190		-39.062500
7191		-35.156250
7192		-39.062500
7193		-37.109375
7194		-39.062500
7195		-37.109375
7196		-41.015625
7197		-37.109375
7198		-41.015625
7199		-37.109375
7200		-41.015625
7201		-39.062500
7202		-41.015625
7203		-39.062500
7204		-41.015625
7205		-39.062500
7206		-41.015625
7207		-37.109375
7208		-41.015625
7209		-39.062500
7210		-41.015625
7211		-39.062500
7212		-41.015625
7213		-37.109375
7214		-41.015625
7215		-37.109375
7216		-39.062500
7217		-37.109375
7218		-39.062500
7219		-35.156250
7220		-39.062500
7221		-35.156250
7222		-37.109375
7223		-33.203125
7224		-35.156250
7225		-33.203125
7226		-35.156250
7227		-31.250000
7228		-33.203125
7229		-29.296875
7230		-31.250000
7231		-27.343750
7232		-31.250000
7233		-27.343750
7234		-29.296875
7235		-25.390625
7236		-27.343750
7237		-23.437500
7238		-25.390625
7239		-21.484375
7240		-25.390625
7241		-19.531250
7242		-21.484375
7243		-17.578125
7244		-19.531250
7245		-15.625000
7246		-17.578125
7247		-13.671875
7248		-15.625000
7249		-11.718750
7250		-13.671875
7251		-9.765625
7252		-11.718750
7253		-7.812500
7254		-9.765625
7255		-3.906250
7256		-7.812500
7257		-1.953125
7258		-3.906250
7259		0.000000
7260		-1.953125
7261		1.953125
7262		0.000000
7263		5.859375
7264		1.953125
7265		5.859375
7266		3.906250
7267		9.765625
7268		7.812500
7269		11.718750
7270		9.765625
7271		13.671875
7272		11.718750
7273		15.625000
7274		13.671875
7275		17.578125
7276		15.625000
7277		19.531250
7278		19.531250
7279		21.484375
7280		21.484375
7281		25.390625
7282		23.437500
7283		27.343750
7284		25.390625
7285		29.296875
7286		27.343750
7287		31.250000
7288		29.296875
7289		33.203125
7290		31.250000
7291		35.156250
7292		33.203125
7293		37.109375
7294		35.156250
7295		39.062500
7296		35.156250
7297		41.015625
7298		37.109375
7299		41.015625
7300		39.062500
7301		42.968750
7302		41.015625
7303		44.921875
7304		42.968750
7305		46.875000
7306		44.921875
7307		46.875000
7308		44.921875
7309		48.828125
7310		46.875000
7311		48.828125
7312		46.875000
7313		50.781250
7314		46.875000
7315		52.734375
7316		48.828125
7317		52.734375
7318		50.781250
7319		52.734375
7320		50.781250
7321		52.734375
7322		50.781250
7323		54.687500
7324		50.781250
7325		54.687500
7326		52.734375
7327		54.687500
7328		52.734375
7329		54.687500
7330		52.734375
7331		54.687500
7332		52.734375
7333		56.640625
7334		52.734375
7335		54.687500
7336		50.781250
7337		54.687500
7338		50.781250
7339		54.687500
7340		50.781250
7341		54.687500
7342		50.781250
7343		52.734375
7344		50.781250
7345		52.734375
7346		48.828125
7347		52.734375
7348		48.828125
7349		52.734375
7350		46.875000
7351		50.781250
7352		46.875000
7353		48.828125
7354		44.921875
7355		48.828125
7356		42.968750
7357		46.875000
7358		42.968750
7359		46.875000
7360		41.015625
7361		44.921875
7362		39.062500
7363		42.968750
7364		37.109375
7365		42.968750
7366		37.109375
7367		41.015625
7368		35.156250
7369		39.062500
7370		31.250000
7371		37.109375
7372		31.250000
7373		35.156250
7374		29.296875
7375		33.203125
7376		27.343750
7377		31.250000
7378		25.390625
7379		29.296875
7380		21.484375
7381		27.343750
7382		19.531250
7383		25.390625
7384		19.531250
7385		23.437500
7386		15.625000
7387		19.531250
7388		13.671875
7389		17.578125
7390		11.718750
7391		15.625000
7392		9.765625
7393		13.671875
7394		7.812500
7395		11.718750
7396		3.906250
7397		9.765625
7398		1.953125
7399		7.812500
7400		0.000000
7401		3.906250
7402		-3.906250
7403		1.953125
7404		-3.906250
7405		0.000000
7406		-7.812500
7407		-1.953125
7408		-9.765625
7409		-5.859375
7410		-11.718750
7411		-7.812500
7412		-13.671875
7413		-9.765625
7414		-15.625000
7415		-9.765625
7416		-17.578125
7417		-13.671875
7418		-19.531250
7419		-15.625000
7420		-21.484375
7421		-17.578125
7422		-23.437500
7423		-19.531250
7424		-25.390625
7425		-21.484375
7426		-27.343750
7427		-23.437500
7428		-29.296875
7429		-25.390625
7430		-31.250000
7431		-27.343750
7432		-33.203125
7433		-27.343750
7434		-33.203125
7435		-29.296875
7436		-35.156250
7437		-31.250000
7438		-35.156250
7439		-33.203125
7440		-37.109375
7441		-33.203125
7442		-39.062500
7443		-35.156250
7444		-39.062500
7445		-35.156250
7446		-41.015625
7447		-37.109375
7448		-41.015625
7449		-37.109375
7450		-41.015625
7451		-37.109375
7452		-41.015625
7453		-39.062500
7454		-41.015625
7455		-37.109375
7456		-41.015625
7457		-39.062500
7458		-42.968750
7459		-37.109375
7460		-41.015625
7461		-39.062500
7462		-41.015625
7463		-39.062500
7464		-41.015625
7465		-37.109375
7466		-39.062500
7467		-37.109375
7468		-41.015625
7469		-37.109375
7470		-39.062500
7471		-35.156250
7472		-39.062500
7473		-35.156250
7474		-37.109375
7475		-33.203125
7476		-37.109375
7477		-33.203125
7478		-35.156250
7479		-31.250000
7480		-33.203125
7481		-31.250000
7482		-33.203125
7483		-29.296875
7484		-31.250000
7485		-27.343750
7486		-29.296875
7487		-25.390625
7488		-27.343750
7489		-23.437500
7490		-25.390625
7491		-21.484375
7492		-23.437500
7493		-19.531250
7494		-21.484375
7495		-19.531250
7496		-19.531250
7497		-15.625000
7498		-19.531250
7499		-15.625000
7500		-15.625000
7501		-11.718750
7502		-13.671875
7503		-9.765625
7504		-11.718750
7505		-7.812500
7506		-9.765625
7507		-5.859375
7508		-7.812500
7509		-1.953125
7510		-5.859375
7511		-1.953125
7512		-1.953125
7513		0.000000
7514		0.000000
7515		3.906250
7516		1.953125
7517		5.859375
7518		3.906250
7519		7.812500
7520		5.859375
7521		9.765625
7522		7.812500
7523		13.671875
7524		11.718750
7525		15.625000
7526		13.671875
7527		17.578125
7528		15.625000
7529		19.531250
7530		17.578125
7531		23.437500
7532		19.531250
7533		23.437500
7534		21.484375
7535		25.390625
7536		23.437500
7537		29.296875
7538		25.390625
7539		31.250000
7540		27.343750
7541		33.203125
7542		29.296875
7543		35.156250
7544		33.203125
7545		35.156250
7546		35.156250
7547		37.109375
7548		37.109375
7549		39.062500
7550		37.109375
7551		41.015625
7552		39.062500
7553		42.968750
7554		41.015625
7555		44.921875
7556		41.015625
7557		44.921875
7558		42.968750
7559		46.875000
7560		44.921875
7561		48.828125
7562		46.875000
7563		48.828125
7564		46.875000
7565		50.781250
7566		48.828125
7567		50.781250
7568		48.828125
7569		52.734375
7570		48.828125
7571		52.734375
7572		50.781250
7573		52.734375
7574		50.781250
7575		54.687500
7576		50.781250
7577		54.687500
7578		52.734375
7579		54.687500
7580		52.734375
7581		54.687500
7582		50.781250
7583		56.640625
7584		52.734375
7585		54.687500
7586		50.781250
7587		54.687500
7588		50.781250
7589		54.687500
7590		52.734375
7591		54.687500
7592		50.781250
7593		54.687500
7594		50.781250
7595		54.687500
7596		50.781250
7597		52.734375
7598		48.828125
7599		52.734375
7600		48.828125
7601		52.734375
7602		46.875000
7603		50.781250
7604		46.875000
7605		50.781250
7606		44.921875
7607		48.828125
7608		44.921875
7609		48.828125
7610		42.968750
7611		46.875000
7612		41.015625
7613		44.921875
7614		39.062500
7615		42.968750
7616		39.062500
7617		42.968750
7618		37.109375
7619		41.015625
7620		35.156250
7621		39.062500
7622		33.203125
7623		37.109375
7624		31.250000
7625		37.109375
7626		29.296875
7627		33.203125
7628		27.343750
7629		31.250000
7630		25.390625
7631		29.296875
7632		23.437500
7633		27.343750
7634		21.484375
7635		25.390625
7636		19.531250
7637		23.437500
7638		17.578125
7639		21.484375
7640		13.671875
7641		19.531250
7642		11.718750
7643		15.625000
7644		9.765625
7645		13.671875
7646		7.812500
7647		11.718750
7648		3.906250
7649		9.765625
7650		1.953125
7651		7.812500
7652		0.000000
7653		3.906250
7654		-1.953125
7655		1.953125
7656		-3.906250
7657		0.000000
7658		-5.859375
7659		-1.953125
7660		-9.765625
7661		-3.906250
7662		-11.718750
7663		-7.812500
7664		-13.671875
7665		-9.765625
7666		-15.625000
7667		-11.718750
7668		-17.578125
7669		-13.671875
7670		-19.531250
7671		-15.625000
7672		-21.484375
7673		-17.578125
7674		-23.437500
7675		-19.531250
7676		-25.390625
7677		-21.484375
7678		-27.343750
7679		-21.484375
7680		-29.296875
7681		-25.390625
7682		-31.250000
7683		-27.343750
7684		-31.250000
7685		-27.343750
7686		-33.203125
7687		-29.296875
7688		-35.156250
7689		-31.250000
7690		-35.156250
7691		-31.250000
7692		-37.109375
7693		-33.203125
7694		-39.062500
7695		-33.203125
7696		-39.062500
7697		-37.109375
7698		-39.062500
7699		-37.109375
7700		-41.015625
7701		-37.109375
7702		-41.015625
7703		-37.109375
7704		-41.015625
7705		-37.109375
7706		-41.015625
7707		-39.062500
7708		-41.015625
7709		-39.062500
7710		-41.015625
7711		-39.062500
7712		-41.015625
7713		-39.062500
7714		-41.015625
7715		-39.062500
7716		-41.015625
7717		-37.109375
7718		-41.015625
7719		-37.109375
7720		-41.015625
7721		-37.109375
7722		-39.062500
7723		-35.156250
7724		-39.062500
7725		-35.156250
7726		-37.109375
7727		-33.203125
7728		-37.109375
7729		-33.203125
7730		-35.156250
7731		-33.203125
7732		-35.156250
7733		-29.296875
7734		-33.203125
7735		-29.296875
7736		-31.250000
7737		-27.343750
7738		-29.296875
7739		-27.343750
7740		-29.296875
7741		-25.390625
7742		-27.343750
7743		-23.437500
7744		-25.390625
7745		-21.484375
7746		-23.437500
7747		-19.531250
7748		-21.484375
7749		-17.578125
7750		-19.531250
7751		-13.671875
7752		-17.578125
7753		-11.718750
7754		-15.625000
7755		-9.765625
7756		-11.718750
7757		-7.812500
7758		-9.765625
7759		-5.859375
7760		-7.812500
7761		-3.906250
7762		-5.859375
7763		-1.953125
7764		-3.906250
7765		0.000000
7766		-1.953125
7767		3.906250
7768		1.953125
7769		5.859375
7770		3.906250
7771		7.812500
7772		5.859375
7773		9.765625
7774		7.812500
7775		11.718750
7776		9.765625
7777		15.625000
7778		13.671875
7779		17.578125
7780		15.625000
7781		19.531250
7782		17.578125
7783		23.437500
7784		19.531250
7785		23.437500
7786		21.484375
7787		25.390625
7788		23.437500
7789		29.296875
7790		25.390625
7791		29.296875
7792		27.343750
7793		33.203125
7794		29.296875
7795		35.156250
7796		31.250000
7797		35.156250
7798		33.203125
7799		37.109375
7800		35.156250
7801		39.062500
7802		37.109375
7803		41.015625
7804		39.062500
7805		42.968750
7806		41.015625
7807		44.921875
7808		41.015625
7809		46.875000
7810		42.968750
7811		46.875000
7812		44.921875
7813		48.828125
7814		46.875000
7815		48.828125
7816		46.875000
7817		50.781250
7818		46.875000
7819		50.781250
7820		48.828125
7821		52.734375
7822		48.828125
7823		52.734375
7824		50.781250
7825		54.687500
7826		50.781250
7827		54.687500
7828		50.781250
7829		54.687500
7830		52.734375
7831		54.687500
7832		52.734375
7833		54.687500
7834		50.781250
7835		54.687500
7836		50.781250
7837		54.687500
7838		52.734375
7839		54.687500
7840		50.781250
7841		54.687500
7842		50.781250
7843		54.687500
7844		50.781250
7845		54.687500
7846		50.781250
7847		54.687500
7848		50.781250
7849		52.734375
7850		48.828125
7851		52.734375
7852		48.828125
7853		52.734375
7854		48.828125
7855		50.781250
7856		46.875000
7857		50.781250
7858		44.921875
7859		48.828125
7860		44.921875
7861		48.828125
7862		42.968750
7863		46.875000
7864		41.015625
7865		44.921875
7866		39.062500
7867		42.968750
7868		39.062500
7869		42.968750
7870		37.109375
7871		41.015625
7872		35.156250
7873		39.062500
7874		33.203125
7875		37.109375
7876		31.250000
7877		37.109375
7878		29.296875
7879		33.203125
7880		27.343750
7881		31.250000
7882		25.390625
7883		29.296875
7884		23.437500
7885		29.296875
7886		21.484375
7887		25.390625
7888		19.531250
7889		23.437500
7890		17.578125
7891		21.484375
7892		13.671875
7893		19.531250
7894		13.671875
7895		17.578125
7896		9.765625
7897		15.625000
7898		7.812500
7899		11.718750
7900		3.906250
7901		9.765625
7902		3.906250
7903		7.812500
7904		0.000000
7905		5.859375
7906		-1.953125
7907		1.953125
7908		-3.906250
7909		1.953125
7910		-5.859375
7911		-1.953125
7912		-7.812500
7913		-3.906250
7914		-9.765625
7915		-5.859375
7916		-11.718750
7917		-7.812500
7918		-15.625000
7919		-9.765625
7920		-17.578125
7921		-13.671875
7922		-19.531250
7923		-15.625000
7924		-21.484375
7925		-17.578125
7926		-23.437500
7927		-19.531250
7928		-25.390625
7929		-19.531250
7930		-27.343750
7931		-23.437500
7932		-27.343750
7933		-25.390625
7934		-31.250000
7935		-27.343750
7936		-31.250000
7937		-27.343750
7938		-33.203125
7939		-29.296875
7940		-35.156250
7941		-31.250000
7942		-35.156250
7943		-31.250000
7944		-37.109375
7945		-33.203125
7946		-39.062500
7947		-33.203125
7948		-39.062500
7949		-35.156250
7950		-39.062500
7951		-37.109375
7952		-41.015625
7953		-37.109375
7954		-41.015625
7955		-37.109375
7956		-41.015625
7957		-37.109375
7958		-41.015625
7959		-39.062500
7960		-41.015625
7961		-37.109375
7962		-42.968750
7963		-39.062500
7964		-41.015625
7965		-39.062500
7966		-41.015625
7967		-39.062500
7968		-41.015625
7969		-37.109375
7970		-41.015625
7971		-37.109375
7972		-41.015625
7973		-37.109375
7974		-39.062500
7975		-37.109375
7976		-39.062500
7977		-35.156250
7978		-37.109375
7979		-33.203125
7980		-37.109375
7981		-33.203125
7982		-35.156250
7983		-33.203125
7984		-35.156250
7985		-31.250000
7986		-33.203125
7987		-29.296875
7988		-31.250000
7989		-27.343750
7990		-29.296875
7991		-27.343750
7992		-29.296875
7993		-23.437500
7994		-27.343750
7995		-23.437500
7996		-25.390625
7997		-21.484375
7998		-23.437500
7999		-19.531250
8000		-21.484375
8001		-17.578125
8002		-19.531250
8003		-15.625000
8004		-17.578125
8005		-13.671875
8006		-15.625000
8007		-11.718750
8008		-13.671875
8009		-9.765625
8010		-9.765625
8011		-5.859375
8012		-9.765625
8013		-3.906250
8014		-7.812500
8015		-1.953125
8016		-3.906250
8017		0.000000
8018		-1.953125
8019		1.953125
8020		0.000000
8021		3.906250
8022		3.906250
8023		7.812500
8024		5.859375
8025		9.765625
8026		7.812500
8027		11.718750
8028		9.765625
8029		13.671875
8030		11.718750
8031		15.625000
8032		15.625000
8033		19.531250
8034		17.578125
8035		21.484375
8036		17.578125
8037		23.437500
8038		19.531250
8039		25.390625
8040		23.437500
8041		27.343750
8042		25.390625
8043		29.296875
8044		27.343750
8045		31.250000
8046		29.296875
8047		35.156250
8048		31.250000
8049		35.156250
8050		33.203125
8051		37.109375
8052		35.156250
8053		39.062500
8054		37.109375
8055		41.015625
8056		39.062500
8057		42.968750
8058		39.062500
8059		42.968750
8060		41.015625
8061		44.921875
8062		42.968750
8063		46.875000
8064		44.921875
8065		46.875000
8066		44.921875
8067		48.828125
8068		46.875000
8069		50.781250
8070		46.875000
8071		50.781250
8072		48.828125
8073		52.734375
8074		48.828125
8075		52.734375
8076		50.781250
8077		52.734375
8078		50.781250
8079		54.687500
8080		50.781250
8081		54.687500
8082		52.734375
8083		54.687500
8084		52.734375
8085		54.687500
8086		50.781250
8087		56.640625
8088		52.734375
8089		54.687500
8090		52.734375
8091		54.687500
8092		52.734375
8093		54.687500
8094		52.734375
8095		54.687500
8096		50.781250
8097		54.687500
8098		50.781250
8099		54.687500
8100		50.781250
8101		52.734375
8102		50.781250
8103		52.734375
8104		48.828125
8105		52.734375
8106		46.875000
8107		52.734375
8108		46.875000
8109		50.781250
8110		46.875000
8111		50.781250
8112		44.921875
8113		48.828125
8114		42.968750
8115		46.875000
8116		42.968750
8117		44.921875
8118		41.015625
8119		44.921875
8120		39.062500
8121		42.968750
8122		37.109375
8123		41.015625
8124		37.109375
8125		39.062500
8126		35.156250
8127		37.109375
8128		33.203125
8129		35.156250
8130		29.296875
8131		33.203125
8132		29.296875
8133		33.203125
8134		27.343750
8135		31.250000
8136		23.437500
8137		29.296875
8138		21.484375
8139		27.343750
8140		19.531250
8141		23.437500
8142		17.578125
8143		21.484375
8144		15.625000
8145		19.531250
8146		13.671875
8147		17.578125
8148		11.718750
8149		15.625000
8150		7.812500
8151		13.671875
8152		5.859375
8153		9.765625
8154		3.906250
8155		7.812500
8156		1.953125
8157		5.859375
8158		0.000000
8159		3.906250
8160		-3.906250
8161		0.000000
8162		-5.859375
8163		-1.953125
8164		-7.812500
8165		-1.953125
8166		-9.765625
8167		-5.859375
8168		-11.718750
8169		-7.812500
8170		-13.671875
8171		-9.765625
8172		-15.625000
8173		-11.718750
8174		-19.531250
8175		-13.671875
8176		-21.484375
8177		-17.578125
8178		-21.484375
8179		-17.578125
8180		-23.437500
8181		-19.531250
8182		-25.390625
8183		-21.484375
8184		-27.343750
8185		-23.437500
8186		-29.296875
8187		-25.390625
8188		-31.250000
8189		-27.343750
8190		-33.203125
8191		-29.296875
8192		-33.203125
8193		-29.296875
8194		-35.156250
8195		-31.250000
8196		-37.109375
8197		-33.203125
8198		-37.109375
8199		-33.203125
8200		-37.109375
8201		-35.156250
8202		-39.062500
8203		-35.156250
8204		-41.015625
8205		-35.156250
8206		-41.015625
8207		-37.109375
8208		-41.015625
8209		-37.109375
8210		-41.015625
8211		-39.062500
8212		-41.015625
8213		-39.062500
8214		-41.015625
8215		-39.062500
8216		-41.015625
8217		-39.062500
8218		-41.015625
8219		-39.062500
8220		-41.015625
8221		-37.109375
8222		-41.015625
8223		-37.109375
8224		-41.015625
8225		-37.109375
8226		-39.062500
8227		-35.156250
8228		-39.062500
8229		-35.156250
8230		-39.062500
8231		-35.156250
8232		-37.109375
8233		-33.203125
8234		-35.156250
8235		-33.203125
8236		-35.156250
8237		-31.250000
8238		-33.203125
8239		-29.296875
8240		-31.250000
8241		-27.343750
8242		-31.250000
8243		-27.343750
8244		-29.296875
8245		-25.390625
8246		-27.343750
8247		-23.437500
8248		-25.390625
8249		-21.484375
8250		-23.437500
8251		-19.531250
8252		-21.484375
8253		-17.578125
8254		-19.531250
8255		-15.625000
8256		-17.578125
8257		-13.671875
8258		-15.625000
8259		-11.718750
8260		-13.671875
8261		-9.765625
8262		-11.718750
8263		-7.812500
8264		-9.765625
8265		-3.906250
8266		-7.812500
8267		-1.953125
8268		-3.906250
8269		0.000000
8270		-1.953125
8271		1.953125
8272		0.000000
8273		3.906250
8274		1.953125
8275		7.812500
8276		5.859375
8277		7.812500
8278		7.812500
8279		11.718750
8280		9.765625
8281		13.671875
8282		11.718750
8283		15.625000
8284		13.671875
8285		17.578125
8286		17.578125
8287		19.531250
8288		17.578125
8289		23.437500
8290		21.484375
8291		25.390625
8292		23.437500
8293		27.343750
8294		25.390625
8295		29.296875
8296		27.343750
8297		31.250000
8298		29.296875
8299		33.203125
8300		29.296875
8301		35.156250
8302		33.203125
8303		37.109375
8304		35.156250
8305		39.062500
8306		37.109375
8307		41.015625
8308		39.062500
8309		41.015625
8310		39.062500
8311		42.968750
8312		41.015625
8313		44.921875
8314		42.968750
8315		46.875000
8316		42.968750
8317		46.875000
8318		44.921875
8319		48.828125
8320		46.875000
8321		50.781250
8322		46.875000
8323		50.781250
8324		48.828125
8325		52.734375
8326		48.828125
8327		52.734375
8328		50.781250
8329		52.734375
8330		50.781250
8331		54.687500
8332		50.781250
8333		54.687500
8334		52.734375
8335		54.687500
8336		52.734375
8337		54.687500
8338		50.781250
8339		54.687500
8340		52.734375
8341		54.687500
8342		52.734375
8343		54.687500
8344		52.734375
8345		54.687500
8346		50.781250
8347		54.687500
8348		50.781250
8349		54.687500
8350		50.781250
8351		54.687500
8352		50.781250
8353		52.734375
8354		50.781250
8355		52.734375
8356		48.828125
8357		52.734375
8358		48.828125
8359		50.781250
8360		46.875000
8361		50.781250
8362		46.875000
8363		50.781250
8364		44.921875
8365		48.828125
8366		42.968750
8367		46.875000
8368		42.968750
8369		44.921875
8370		41.015625
8371		44.921875
8372		41.015625
8373		42.968750
8374		37.109375
8375		42.968750
8376		37.109375
8377		41.015625
8378		35.156250
8379		39.062500
8380		33.203125
8381		37.109375
8382		31.250000
8383		35.156250
8384		29.296875
8385		35.156250
8386		27.343750
8387		31.250000
8388		25.390625
8389		29.296875
8390		23.437500
8391		27.343750
8392		19.531250
8393		25.390625
8394		19.531250
8395		23.437500
8396		15.625000
8397		19.531250
8398		13.671875
8399		17.578125
8400		11.718750
8401		15.625000
8402		9.765625
8403		13.671875
8404		5.859375
8405		11.718750
8406		3.906250
8407		9.765625
8408		1.953125
8409		5.859375
8410		0.000000
8411		3.906250
8412		-1.953125
8413		1.953125
8414		-3.906250
8415		0.000000
8416		-7.812500
8417		-1.953125
8418		-9.765625
8419		-5.859375
8420		-11.718750
8421		-7.812500
8422		-13.671875
8423		-9.765625
8424		-15.625000
8425		-11.718750
8426		-19.531250
8427		-13.671875
8428		-19.531250
8429		-15.625000
8430		-21.484375
8431		-17.578125
8432		-23.437500
8433		-19.531250
8434		-25.390625
8435		-21.484375
8436		-27.343750
8437		-23.437500
8438		-29.296875
8439		-25.390625
8440		-31.250000
8441		-27.343750
8442		-33.203125
8443		-29.296875
8444		-33.203125
8445		-29.296875
8446		-35.156250
8447		-31.250000
8448		-35.156250
8449		-33.203125
8450		-37.109375
8451		-33.203125
8452		-37.109375
8453		-35.156250
8454		-39.062500
8455		-35.156250
8456		-39.062500
8457		-35.156250
8458		-41.015625
8459		-37.109375
8460		-41.015625
8461		-37.109375
8462		-41.015625
8463		-37.109375
8464		-41.015625
8465		-39.062500
8466		-41.015625
8467		-39.062500
8468		-41.015625
8469		-37.109375
8470		-41.015625
8471		-39.062500
8472		-41.015625
8473		-37.109375
8474		-41.015625
8475		-37.109375
8476		-41.015625
8477		-37.109375
8478		-39.062500
8479		-37.109375
8480		-39.062500
8481		-35.156250
8482		-39.062500
8483		-35.156250
8484		-37.109375
8485		-33.203125
8486		-35.156250
8487		-33.203125
8488		-35.156250
8489		-31.250000
8490		-33.203125
8491		-29.296875
8492		-33.203125
8493		-29.296875
8494		-31.250000
8495		-27.343750
8496		-29.296875
8497		-25.390625
8498		-29.296875
8499		-23.437500
8500		-25.390625
8501		-21.484375
8502		-23.437500
8503		-21.484375
8504		-21.484375
8505		-17.578125
8506		-19.531250
8507		-15.625000
8508		-19.531250
8509		-13.671875
8510		-15.625000
8511		-11.718750
8512		-13.671875
8513		-9.765625
8514		-11.718750
8515		-7.812500
8516		-9.765625
8517		-5.859375
8518		-7.812500
8519		-3.906250
8520		-3.906250
8521		-1.953125
8522		-1.953125
8523		1.953125
8524		0.000000
8525		3.906250
8526		1.953125
8527		7.812500
8528		3.906250
8529		7.812500
8530		5.859375
8531		11.718750
8532		9.765625
8533		13.671875
8534		11.718750
8535		15.625000
8536		13.671875
8537		17.578125
8538		15.625000
8539		19.531250
8540		17.578125
8541		23.437500
8542		19.531250
8543		25.390625
8544		21.484375
8545		27.343750
8546		25.390625
8547		29.296875
8548		27.343750
8549		31.250000
8550		29.296875
8551		33.203125
8552		29.296875
8553		35.156250
8554		33.203125
8555		37.109375
8556		35.156250
8557		39.062500
8558		35.156250
8559		39.062500
8560		37.109375
8561		41.015625
8562		39.062500
8563		42.968750
8564		41.015625
8565		44.921875
8566		41.015625
8567		46.875000
8568		42.968750
8569		46.875000
8570		44.921875
8571		48.828125
8572		46.875000
8573		50.781250
8574		46.875000
8575		50.781250
8576		48.828125
8577		50.781250
8578		48.828125
8579		52.734375
8580		48.828125
8581		52.734375
8582		50.781250
8583		52.734375
8584		50.781250
8585		54.687500
8586		52.734375
8587		54.687500
8588		52.734375
8589		54.687500
8590		52.734375
8591		54.687500
8592		52.734375
8593		54.687500
8594		52.734375
8595		54.687500
8596		52.734375
8597		56.640625
8598		50.781250
8599		54.687500
8600		50.781250
8601		54.687500
8602		50.781250
8603		54.687500
8604		50.781250
8605		52.734375
8606		48.828125
8607		52.734375
8608		48.828125
8609		52.734375
8610		48.828125
8611		52.734375
8612		48.828125
8613		50.781250
8614		46.875000
8615		48.828125
8616		44.921875
8617		48.828125
8618		44.921875
8619		48.828125
8620		42.968750
8621		46.875000
8622		41.015625
8623		44.921875
8624		41.015625
8625		44.921875
8626		39.062500
8627		41.015625
8628		37.109375
8629		41.015625
8630		35.156250
8631		39.062500
8632		33.203125
8633		37.109375
8634		31.250000
8635		35.156250
8636		29.296875
8637		35.156250
8638		27.343750
8639		31.250000
8640		25.390625
8641		29.296875
8642		23.437500
8643		27.343750
8644		21.484375
8645		25.390625
8646		17.578125
8647		23.437500
8648		17.578125
8649		21.484375
8650		13.671875
8651		17.578125
8652		11.718750
8653		15.625000
8654		9.765625
8655		13.671875
8656		5.859375
8657		11.718750
8658		5.859375
8659		9.765625
8660		1.953125
8661		7.812500
8662		0.000000
8663		3.906250
8664		-1.953125
8665		1.953125
8666		-3.906250
8667		0.000000
8668		-7.812500
8669		-1.953125
8670		-7.812500
8671		-5.859375
8672		-11.718750
8673		-7.812500
8674		-13.671875
8675		-9.765625
8676		-15.625000
8677		-11.718750
8678		-17.578125
8679		-13.671875
8680		-19.531250
8681		-15.625000
8682		-21.484375
8683		-17.578125
8684		-23.437500
8685		-19.531250
8686		-25.390625
8687		-21.484375
8688		-27.343750
8689		-23.437500
8690		-29.296875
8691		-25.390625
8692		-31.250000
8693		-27.343750
8694		-31.250000
8695		-27.343750
8696		-33.203125
8697		-29.296875
8698		-35.156250
8699		-31.250000
8700		-35.156250
8701		-31.250000
8702		-37.109375
8703		-33.203125
8704		-37.109375
8705		-35.156250
8706		-39.062500
8707		-35.156250
8708		-39.062500
8709		-35.156250
8710		-41.015625
8711		-37.109375
8712		-41.015625
8713		-37.109375
8714		-41.015625
8715		-37.109375
8716		-41.015625
8717		-39.062500
8718		-41.015625
8719		-37.109375
8720		-42.968750
8721		-37.109375
8722		-41.015625
8723		-39.062500
8724		-41.015625
8725		-37.109375
8726		-41.015625
8727		-37.109375
8728		-41.015625
8729		-37.109375
8730		-39.062500
8731		-37.109375
8732		-39.062500
8733		-35.156250
8734		-37.109375
8735		-33.203125
8736		-37.109375
8737		-33.203125
8738		-35.156250
8739		-33.203125
8740		-37.109375
8741		-31.250000
8742		-35.156250
8743		-31.250000
8744		-33.203125
8745		-29.296875
8746		-31.250000
8747		-27.343750
8748		-29.296875
8749		-25.390625
8750		-27.343750
8751		-23.437500
8752		-27.343750
8753		-21.484375
8754		-23.437500
8755		-19.531250
8756		-21.484375
8757		-19.531250
8758		-21.484375
8759		-15.625000
8760		-19.531250
8761		-13.671875
8762		-17.578125
8763		-11.718750
8764		-15.625000
8765		-9.765625
8766		-11.718750
8767		-7.812500
8768		-9.765625
8769		-5.859375
8770		-7.812500
8771		-3.906250
8772		-5.859375
8773		-1.953125
8774		-3.906250
8775		1.953125
8776		-1.953125
8777		3.906250
8778		1.953125
8779		5.859375
8780		3.906250
8781		7.812500
8782		5.859375
8783		11.718750
8784		7.812500
8785		11.718750
8786		11.718750
8787		15.625000
8788		11.718750
8789		17.578125
8790		15.625000
8791		19.531250
8792		17.578125
8793		21.484375
8794		19.531250
8795		23.437500
8796		21.484375
8797		25.390625
8798		25.390625
8799		29.296875
8800		25.390625
8801		29.296875
8802		27.343750
8803		33.203125
8804		29.296875
8805		33.203125
8806		33.203125
8807		35.156250
8808		33.203125
8809		39.062500
8810		37.109375
8811		39.062500
8812		37.109375
8813		41.015625
8814		39.062500
8815		42.968750
8816		39.062500
8817		44.921875
8818		41.015625
8819		46.875000
8820		42.968750
8821		46.875000
8822		44.921875
8823		48.828125
8824		46.875000
8825		48.828125
8826		46.875000
8827		50.781250
8828		48.828125
8829		50.781250
8830		48.828125
8831		52.734375
8832		48.828125
8833		54.687500
8834		50.781250
8835		54.687500
8836		50.781250
8837		54.687500
8838		50.781250
8839		54.687500
8840		52.734375
8841		54.687500
8842		52.734375
8843		56.640625
8844		50.781250
8845		56.640625
8846		52.734375
8847		56.640625
8848		52.734375
8849		54.687500
8850		50.781250
8851		56.640625
8852		50.781250
8853		56.640625
8854		50.781250
8855		54.687500
8856		50.781250
8857		54.687500
8858		50.781250
8859		52.734375
8860		46.875000
8861		54.687500
8862		46.875000
8863		54.687500
8864		48.828125
8865		50.781250
8866		44.921875
8867		52.734375
8868		44.921875
8869		50.781250
8870		42.968750
8871		48.828125
8872		42.968750
8873		46.875000
8874		42.968750
8875		44.921875
8876		39.062500
8877		46.875000
8878		37.109375
8879		44.921875
8880		35.156250
8881		42.968750
8882		33.203125
8883		41.015625
8884		33.203125
8885		39.062500
8886		31.250000
8887		37.109375
8888		31.250000
8889		35.156250
8890		29.296875
8891		31.250000
8892		25.390625
8893		31.250000
8894		21.484375
8895		29.296875
8896		21.484375
8897		27.343750
8898		17.578125
8899		25.390625
8900		15.625000
8901		23.437500
8902		13.671875
8903		21.484375
8904		11.718750
8905		19.531250
8906		9.765625
8907		13.671875
8908		7.812500
8909		11.718750
8910		3.906250
8911		11.718750
8912		1.953125
8913		9.765625
8914		0.000000
8915		7.812500
8916		-3.906250
8917		5.859375
8918		-5.859375
8919		1.953125
8920		-7.812500
8921		0.000000
8922		-7.812500
8923		-3.906250
8924		-9.765625
8925		-5.859375
8926		-15.625000
8927		-7.812500
8928		-17.578125
8929		-9.765625
8930		-19.531250
8931		-11.718750
8932		-19.531250
8933		-13.671875
8934		-21.484375
8935		-15.625000
8936		-23.437500
8937		-17.578125
8938		-25.390625
8939		-19.531250
8940		-25.390625
8941		-23.437500
8942		-29.296875
8943		-23.437500
8944		-31.250000
8945		-25.390625
8946		-33.203125
8947		-25.390625
8948		-35.156250
8949		-27.343750
8950		-37.109375
8951		-27.343750
8952		-37.109375
8953		-29.296875
8954		-37.109375
8955		-31.250000
8956		-37.109375
8957		-35.156250
8958		-37.109375
8959		-35.156250
8960		-41.015625
8961		-35.156250
8962		-41.015625
8963		-35.156250
8964		-41.015625
8965		-37.109375
8966		-41.015625
8967		-37.109375
8968		-42.968750
8969		-37.109375
8970		-41.015625
8971		-37.109375
8972		-41.015625
8973		-37.109375
8974		-41.015625
8975		-39.062500
8976		-42.968750
8977		-35.156250
8978		-42.968750
8979		-35.156250
8980		-42.968750
8981		-35.156250
8982		-41.015625
8983		-35.156250
8984		-41.015625
8985		-33.203125
8986		-39.062500
8987		-33.203125
8988		-39.062500
8989		-33.203125
8990		-37.109375
8991		-33.203125
8992		-35.156250
8993		-31.250000
8994		-35.156250
8995		-27.343750
8996		-35.156250
8997		-27.343750
8998		-33.203125
8999		-25.390625
9000		-31.250000
9001		-23.437500
9002		-29.296875
9003		-21.484375
9004		-27.343750
9005		-19.531250
9006		-25.390625
9007		-21.484375
9008		-21.484375
9009		-17.578125
9010		-21.484375
9011		-13.671875
9012		-19.531250
9013		-11.718750
9014		-19.531250
9015		-9.765625
9016		-17.578125
9017		-7.812500
9018		-13.671875
9019		-5.859375
9020		-11.718750
9021		-3.906250
9022		-9.765625
9023		-3.906250
9024		-5.859375
9025		0.000000
9026		-3.906250
9027		3.906250
9028		-1.953125
9029		5.859375
9030		0.000000
9031		7.812500
9032		1.953125
9033		9.765625
9034		3.906250
9035		11.718750
9036		5.859375
9037		15.625000
9038		9.765625
9039		15.625000
9040		13.671875
9041		17.578125
9042		15.625000
9043		19.531250
9044		17.578125
9045		23.437500
9046		19.531250
9047		25.390625
9048		21.484375
9049		29.296875
9050		21.484375
9051		31.250000
9052		23.437500
9053		33.203125
9054		27.343750
9055		35.156250
9056		27.343750
9057		35.156250
9058		33.203125
9059		35.156250
9060		33.203125
9061		41.015625
9062		33.203125
9063		42.968750
9064		35.156250
9065		42.968750
9066		37.109375
9067		44.921875
9068		39.062500
9069		46.875000
9070		41.015625
9071		48.828125
9072		41.015625
9073		48.828125
9074		44.921875
9075		48.828125
9076		46.875000
9077		48.828125
9078		44.921875
9079		52.734375
9080		44.921875
9081		52.734375
9082		46.875000
9083		54.687500
9084		46.875000
9085		56.640625
9086		48.828125
9087		56.640625
9088		48.828125
9089		56.640625
9090		52.734375
9091		54.687500
9092		52.734375
9093		54.687500
9094		50.781250
9095		56.640625
9096		50.781250
9097		58.593750
9098		50.781250
9099		58.593750
9100		50.781250
9101		58.593750
9102		50.781250
9103		58.593750
9104		50.781250
9105		58.593750
9106		50.781250
9107		56.640625
9108		52.734375
9109		54.687500
9110		50.781250
9111		54.687500
9112		46.875000
9113		56.640625
9114		48.828125
9115		54.687500
9116		46.875000
9117		54.687500
9118		44.921875
9119		54.687500
9120		44.921875
9121		52.734375
9122		42.968750
9123		50.781250
9124		44.921875
9125		46.875000
9126		42.968750
9127		46.875000
9128		39.062500
9129		46.875000
9130		37.109375
9131		44.921875
9132		37.109375
9133		42.968750
9134		35.156250
9135		42.968750
9136		33.203125
9137		41.015625
9138		31.250000
9139		39.062500
9140		29.296875
9141		37.109375
9142		29.296875
9143		33.203125
9144		25.390625
9145		31.250000
9146		23.437500
9147		31.250000
9148		21.484375
9149		29.296875
9150		19.531250
9151		27.343750
9152		15.625000
9153		25.390625
9154		13.671875
9155		21.484375
9156		11.718750
9157		19.531250
9158		11.718750
9159		15.625000
9160		9.765625
9161		13.671875
9162		3.906250
9163		11.718750
9164		1.953125
9165		11.718750
9166		0.000000
9167		7.812500
9168		-1.953125
9169		5.859375
9170		-3.906250
9171		3.906250
9172		-7.812500
9173		1.953125
9174		-5.859375
9175		-1.953125
9176		-9.765625
9177		-5.859375
9178		-13.671875
9179		-5.859375
9180		-15.625000
9181		-7.812500
9182		-17.578125
9183		-9.765625
9184		-19.531250
9185		-11.718750
9186		-21.484375
9187		-13.671875
9188		-23.437500
9189		-15.625000
9190		-25.390625
9191		-17.578125
9192		-25.390625
9193		-21.484375
9194		-27.343750
9195		-23.437500
9196		-31.250000
9197		-23.437500
9198		-33.203125
9199		-25.390625
9200		-33.203125
9201		-25.390625
9202		-35.156250
9203		-27.343750
9204		-37.109375
9205		-29.296875
9206		-37.109375
9207		-29.296875
9208		-37.109375
9209		-33.203125
9210		-37.109375
9211		-35.156250
9212		-39.062500
9213		-33.203125
9214		-41.015625
9215		-33.203125
9216		-41.015625
9217		-35.156250
9218		-42.968750
9219		-35.156250
9220		-42.968750
9221		-35.156250
9222		-42.968750
9223		-35.156250
9224		-42.968750
9225		-35.156250
9226		-41.015625
9227		-37.109375
9228		-42.968750
9229		-35.156250
9230		-41.015625
9231		-35.156250
9232		-41.015625
9233		-35.156250
9234		-41.015625
9235		-33.203125
9236		-41.015625
9237		-33.203125
9238		-41.015625
9239		-33.203125
9240		-39.062500
9241		-31.250000
9242		-35.156250
9243		-33.203125
9244		-35.156250
9245		-31.250000
9246		-35.156250
9247		-27.343750
9248		-35.156250
9249		-27.343750
9250		-33.203125
9251		-25.390625
9252		-31.250000
9253		-23.437500
9254		-29.296875
9255		-21.484375
9256		-29.296875
9257		-19.531250
9258		-27.343750
9259		-19.531250
9260		-23.437500
9261		-19.531250
9262		-21.484375
9263		-15.625000
9264		-21.484375
9265		-13.671875
9266		-17.578125
9267		-9.765625
9268		-15.625000
9269		-9.765625
9270		-15.625000
9271		-5.859375
9272		-11.718750
9273		-3.906250
9274		-9.765625
9275		-1.953125
9276		-5.859375
9277		-1.953125
9278		-3.906250
9279		1.953125
9280		-3.906250
9281		5.859375
9282		0.000000
9283		7.812500
9284		1.953125
9285		9.765625
9286		3.906250
9287		11.718750
9288		5.859375
9289		15.625000
9290		7.812500
9291		17.578125
9292		11.718750
9293		17.578125
9294		15.625000
9295		19.531250
9296		15.625000
9297		23.437500
9298		17.578125
9299		25.390625
9300		19.531250
9301		27.343750
9302		21.484375
9303		29.296875
9304		23.437500
9305		33.203125
9306		25.390625
9307		33.203125
9308		27.343750
9309		35.156250
9310		31.250000
9311		35.156250
9312		33.203125
9313		41.015625
9314		33.203125
9315		41.015625
9316		35.156250
9317		42.968750
9318		37.109375
9319		44.921875
9320		39.062500
9321		46.875000
9322		39.062500
9323		48.828125
9324		41.015625
9325		48.828125
9326		44.921875
9327		48.828125
9328		46.875000
9329		48.828125
9330		44.921875
9331		52.734375
9332		46.875000
9333		54.687500
9334		46.875000
9335		54.687500
9336		48.828125
9337		54.687500
9338		48.828125
9339		56.640625
9340		50.781250
9341		56.640625
9342		50.781250
9343		56.640625
9344		52.734375
9345		54.687500
9346		50.781250
9347		58.593750
9348		50.781250
9349		58.593750
9350		50.781250
9351		58.593750
9352		50.781250
9353		58.593750
9354		50.781250
9355		58.593750
9356		50.781250
9357		58.593750
9358		50.781250
9359		56.640625
9360		52.734375
9361		54.687500
9362		52.734375
9363		54.687500
9364		48.828125
9365		56.640625
9366		48.828125
9367		54.687500
9368		46.875000
9369		54.687500
9370		44.921875
9371		52.734375
9372		44.921875
9373		52.734375
9374		42.968750
9375		50.781250
9376		44.921875
9377		48.828125
9378		44.921875
9379		46.875000
9380		39.062500
9381		46.875000
9382		39.062500
9383		46.875000
9384		37.109375
9385		44.921875
9386		35.156250
9387		42.968750
9388		33.203125
9389		42.968750
9390		31.250000
9391		39.062500
9392		31.250000
9393		37.109375
9394		29.296875
9395		33.203125
9396		25.390625
9397		31.250000
9398		23.437500
9399		33.203125
9400		21.484375
9401		29.296875
9402		19.531250
9403		27.343750
9404		17.578125
9405		25.390625
9406		13.671875
9407		23.437500
9408		13.671875
9409		21.484375
9410		13.671875
9411		15.625000
9412		9.765625
9413		13.671875
9414		5.859375
9415		13.671875
9416		3.906250
9417		11.718750
9418		1.953125
9419		9.765625
9420		-1.953125
9421		7.812500
9422		-3.906250
9423		3.906250
9424		-5.859375
9425		1.953125
9426		-5.859375
9427		0.000000
9428		-7.812500
9429		-3.906250
9430		-11.718750
9431		-5.859375
9432		-13.671875
9433		-7.812500
9434		-17.578125
9435		-9.765625
9436		-19.531250
9437		-11.718750
9438		-21.484375
9439		-13.671875
9440		-23.437500
9441		-15.625000
9442		-25.390625
9443		-17.578125
9444		-25.390625
9445		-21.484375
9446		-27.343750
9447		-23.437500
9448		-31.250000
9449		-23.437500
9450		-31.250000
9451		-23.437500
9452		-33.203125
9453		-25.390625
9454		-35.156250
9455		-27.343750
9456		-35.156250
9457		-27.343750
9458		-37.109375
9459		-29.296875
9460		-35.156250
9461		-31.250000
9462		-37.109375
9463		-33.203125
9464		-39.062500
9465		-33.203125
9466		-41.015625
9467		-33.203125
9468		-41.015625
9469		-33.203125
9470		-41.015625
9471		-35.156250
9472		-42.968750
9473		-35.156250
9474		-42.968750
9475		-35.156250
9476		-42.968750
9477		-35.156250
9478		-39.062500
9479		-37.109375
9480		-41.015625
9481		-35.156250
9482		-42.968750
9483		-35.156250
9484		-41.015625
9485		-35.156250
9486		-41.015625
9487		-33.203125
9488		-41.015625
9489		-33.203125
9490		-39.062500
9491		-33.203125
9492		-39.062500
9493		-31.250000
9494		-35.156250
9495		-33.203125
9496		-35.156250
9497		-31.250000
9498		-37.109375
9499		-29.296875
9500		-35.156250
9501		-27.343750
9502		-33.203125
9503		-25.390625
9504		-31.250000
9505		-23.437500
9506		-31.250000
9507		-21.484375
9508		-29.296875
9509		-21.484375
9510		-27.343750
9511		-21.484375
9512		-21.484375
9513		-19.531250
9514		-21.484375
9515		-15.625000
9516		-21.484375
9517		-13.671875
9518		-19.531250
9519		-9.765625
9520		-17.578125
9521		-7.812500
9522		-13.671875
9523		-5.859375
9524		-11.718750
9525		-3.906250
9526		-9.765625
9527		-1.953125
9528		-5.859375
9529		-1.953125
9530		-3.906250
9531		0.000000
9532		-3.906250
9533		5.859375
9534		-1.953125
9535		7.812500
9536		1.953125
9537		9.765625
9538		1.953125
9539		11.718750
9540		5.859375
9541		13.671875
9542		7.812500
9543		15.625000
9544		9.765625
9545		15.625000
9546		15.625000
9547		19.531250
9548		15.625000
9549		23.437500
9550		17.578125
9551		25.390625
9552		19.531250
9553		27.343750
9554		21.484375
9555		29.296875
9556		23.437500
9557		31.250000
9558		25.390625
9559		33.203125
9560		29.296875
9561		35.156250
9562		31.250000
9563		35.156250
9564		33.203125
9565		39.062500
9566		33.203125
9567		41.015625
9568		35.156250
9569		42.968750
9570		37.109375
9571		44.921875
9572		39.062500
9573		46.875000
9574		41.015625
9575		46.875000
9576		41.015625
9577		48.828125
9578		44.921875
9579		48.828125
9580		46.875000
9581		48.828125
9582		44.921875
9583		52.734375
9584		46.875000
9585		54.687500
9586		46.875000
9587		54.687500
9588		48.828125
9589		54.687500
9590		48.828125
9591		56.640625
9592		48.828125
9593		56.640625
9594		48.828125
9595		56.640625
9596		52.734375
9597		54.687500
9598		50.781250
9599		56.640625
9600		50.781250
9601		58.593750
9602		50.781250
9603		58.593750
9604		50.781250
9605		58.593750
9606		50.781250
9607		58.593750
9608		50.781250
9609		58.593750
9610		50.781250
9611		58.593750
9612		52.734375
9613		54.687500
9614		52.734375
9615		54.687500
9616		48.828125
9617		56.640625
9618		48.828125
9619		56.640625
9620		46.875000
9621		54.687500
9622		46.875000
9623		54.687500
9624		44.921875
9625		52.734375
9626		44.921875
9627		52.734375
9628		42.968750
9629		50.781250
9630		44.921875
9631		46.875000
9632		41.015625
9633		46.875000
9634		39.062500
9635		46.875000
9636		37.109375
9637		44.921875
9638		35.156250
9639		42.968750
9640		33.203125
9641		41.015625
9642		31.250000
9643		39.062500
9644		31.250000
9645		39.062500
9646		31.250000
9647		35.156250
9648		27.343750
9649		33.203125
9650		23.437500
9651		33.203125
9652		21.484375
9653		31.250000
9654		21.484375
9655		27.343750
9656		17.578125
9657		25.390625
9658		15.625000
9659		23.437500
9660		13.671875
9661		21.484375
9662		13.671875
9663		17.578125
9664		11.718750
9665		15.625000
9666		7.812500
9667		13.671875
9668		3.906250
9669		11.718750
9670		1.953125
9671		9.765625
9672		0.000000
9673		7.812500
9674		-1.953125
9675		5.859375
9676		-5.859375
9677		1.953125
9678		-5.859375
9679		0.000000
9680		-7.812500
9681		-3.906250
9682		-11.718750
9683		-5.859375
9684		-15.625000
9685		-5.859375
9686		-15.625000
9687		-7.812500
9688		-17.578125
9689		-9.765625
9690		-21.484375
9691		-11.718750
9692		-21.484375
9693		-15.625000
9694		-23.437500
9695		-17.578125
9696		-23.437500
9697		-21.484375
9698		-25.390625
9699		-21.484375
9700		-29.296875
9701		-21.484375
9702		-31.250000
9703		-23.437500
9704		-33.203125
9705		-25.390625
9706		-35.156250
9707		-25.390625
9708		-35.156250
9709		-27.343750
9710		-37.109375
9711		-29.296875
9712		-37.109375
9713		-31.250000
9714		-37.109375
9715		-33.203125
9716		-39.062500
9717		-33.203125
9718		-41.015625
9719		-33.203125
9720		-41.015625
9721		-33.203125
9722		-41.015625
9723		-35.156250
9724		-41.015625
9725		-35.156250
9726		-41.015625
9727		-35.156250
9728		-42.968750
9729		-35.156250
9730		-39.062500
9731		-37.109375
9732		-41.015625
9733		-37.109375
9734		-42.968750
9735		-35.156250
9736		-41.015625
9737		-35.156250
9738		-41.015625
9739		-33.203125
9740		-41.015625
9741		-33.203125
9742		-39.062500
9743		-33.203125
9744		-39.062500
9745		-31.250000
9746		-35.156250
9747		-33.203125
9748		-35.156250
9749		-31.250000
9750		-35.156250
9751		-27.343750
9752		-35.156250
9753		-27.343750
9754		-33.203125
9755		-25.390625
9756		-31.250000
9757		-23.437500
9758		-29.296875
9759		-23.437500
9760		-27.343750
9761		-21.484375
9762		-27.343750
9763		-19.531250
9764		-23.437500
9765		-19.531250
9766		-21.484375
9767		-15.625000
9768		-21.484375
9769		-13.671875
9770		-19.531250
9771		-11.718750
9772		-17.578125
9773		-9.765625
9774		-15.625000
9775		-5.859375
9776		-13.671875
9777		-3.906250
9778		-11.718750
9779		-3.906250
9780		-5.859375
9781		-1.953125
9782		-3.906250
9783		0.000000
9784		-3.906250
9785		3.906250
9786		-1.953125
9787		5.859375
9788		0.000000
9789		9.765625
9790		3.906250
9791		11.718750
9792		5.859375
9793		13.671875
9794		7.812500
9795		15.625000
9796		9.765625
9797		15.625000
9798		15.625000
9799		19.531250
9800		15.625000
9801		23.437500
9802		15.625000
9803		25.390625
9804		19.531250
9805		27.343750
9806		21.484375
9807		29.296875
9808		23.437500
9809		31.250000
9810		25.390625
9811		33.203125
9812		27.343750
9813		35.156250
9814		31.250000
9815		35.156250
9816		33.203125
9817		37.109375
9818		33.203125
9819		41.015625
9820		35.156250
9821		42.968750
9822		37.109375
9823		44.921875
9824		39.062500
9825		46.875000
9826		41.015625
9827		46.875000
9828		41.015625
9829		48.828125
9830		44.921875
9831		48.828125
9832		46.875000
9833		48.828125
9834		44.921875
9835		52.734375
9836		46.875000
9837		54.687500
9838		46.875000
9839		54.687500
9840		48.828125
9841		54.687500
9842		48.828125
9843		56.640625
9844		48.828125
9845		56.640625
9846		50.781250
9847		56.640625
9848		52.734375
9849		54.687500
9850		52.734375
9851		58.593750
9852		50.781250
9853		58.593750
9854		50.781250
9855		58.593750
9856		50.781250
9857		58.593750
9858		50.781250
9859		58.593750
9860		50.781250
9861		58.593750
9862		50.781250
9863		58.593750
9864		52.734375
9865		54.687500
9866		52.734375
9867		54.687500
9868		48.828125
9869		56.640625
9870		48.828125
9871		56.640625
9872		48.828125
9873		54.687500
9874		46.875000
9875		54.687500
9876		44.921875
9877		52.734375
9878		44.921875
9879		52.734375
9880		44.921875
9881		50.781250
9882		44.921875
9883		46.875000
9884		41.015625
9885		46.875000
9886		39.062500
9887		46.875000
9888		37.109375
9889		44.921875
9890		37.109375
9891		44.921875
9892		35.156250
9893		42.968750
9894		33.203125
9895		41.015625
9896		31.250000
9897		39.062500
9898		31.250000
9899		35.156250
9900		29.296875
9901		33.203125
9902		25.390625
9903		33.203125
9904		23.437500
9905		31.250000
9906		21.484375
9907		29.296875
9908		17.578125
9909		27.343750
9910		15.625000
9911		25.390625
9912		13.671875
9913		21.484375
9914		13.671875
9915		17.578125
9916		11.718750
9917		15.625000
9918		5.859375
9919		13.671875
9920		3.906250
9921		13.671875
9922		1.953125
9923		9.765625
9924		0.000000
9925		7.812500
9926		-1.953125
9927		5.859375
9928		-5.859375
9929		3.906250
9930		-5.859375
9931		1.953125
9932		-5.859375
9933		-3.906250
9934		-9.765625
9935		-5.859375
9936		-13.671875
9937		-5.859375
9938		-15.625000
9939		-7.812500
9940		-19.531250
9941		-9.765625
9942		-19.531250
9943		-11.718750
9944		-21.484375
9945		-13.671875
9946		-23.437500
9947		-15.625000
9948		-23.437500
9949		-19.531250
9950		-25.390625
9951		-21.484375
9952		-29.296875
9953		-21.484375
9954		-31.250000
9955		-23.437500
9956		-33.203125
9957		-25.390625
9958		-33.203125
9959		-25.390625
9960		-35.156250
9961		-27.343750
9962		-37.109375
9963		-29.296875
9964		-37.109375
9965		-29.296875
9966		-37.109375
9967		-33.203125
9968		-39.062500
9969		-33.203125
9970		-41.015625
9971		-33.203125
9972		-41.015625
9973		-33.203125
9974		-41.015625
9975		-33.203125
9976		-41.015625
9977		-35.156250
9978		-42.968750
9979		-35.156250
9980		-42.968750
9981		-35.156250
9982		-39.062500
9983		-37.109375
9984		-39.062500
9985		-37.109375
9986		-41.015625
9987		-35.156250
9988		-41.015625
9989		-35.156250
9990		-41.015625
9991		-35.156250
9992		-41.015625
9993		-33.203125
9994		-39.062500
9995		-33.203125
9996		-39.062500
9997		-31.250000
9998		-37.109375
9999		-33.203125
10000		-35.156250
