Channel              :		CH1
Frequency            :		1.975kHz
Period               :		0.506ms
PK-PK                :		150.4mV
Probe attenuation    :		1X
Voltage per ADC value:		0.122070mV
Time interval        :		2.00000us

index		CH1_Voltage(mV)
1		72.265625
2		72.265625
3		76.171875
4		72.265625
5		76.171875
6		72.265625
7		74.218750
8		70.312500
9		74.218750
10		70.312500
11		74.218750
12		70.312500
13		72.265625
14		68.359375
15		72.265625
16		68.359375
17		70.312500
18		66.406250
19		70.312500
20		62.500000
21		68.359375
22		62.500000
23		66.406250
24		60.546875
25		64.453125
26		58.593750
27		62.500000
28		56.640625
29		60.546875
30		54.687500
31		58.593750
32		52.734375
33		56.640625
34		48.828125
35		54.687500
36		46.875000
37		50.781250
38		44.921875
39		48.828125
40		41.015625
41		46.875000
42		39.062500
43		42.968750
44		35.156250
45		41.015625
46		31.250000
47		37.109375
48		29.296875
49		33.203125
50		25.390625
51		31.250000
52		23.437500
53		27.343750
54		19.531250
55		25.390625
56		15.625000
57		21.484375
58		11.718750
59		17.578125
60		7.812500
61		13.671875
62		5.859375
63		11.718750
64		1.953125
65		7.812500
66		-1.953125
67		3.906250
68		-5.859375
69		0.000000
70		-7.812500
71		-3.906250
72		-11.718750
73		-7.812500
74		-15.625000
75		-11.718750
76		-19.531250
77		-13.671875
78		-23.437500
79		-17.578125
80		-25.390625
81		-21.484375
82		-29.296875
83		-23.437500
84		-33.203125
85		-27.343750
86		-35.156250
87		-31.250000
88		-39.062500
89		-33.203125
90		-41.015625
91		-37.109375
92		-44.921875
93		-39.062500
94		-46.875000
95		-41.015625
96		-48.828125
97		-44.921875
98		-50.781250
99		-46.875000
100		-52.734375
101		-48.828125
102		-56.640625
103		-50.781250
104		-58.593750
105		-54.687500
106		-60.546875
107		-56.640625
108		-60.546875
109		-58.593750
110		-62.500000
111		-58.593750
112		-62.500000
113		-60.546875
114		-64.453125
115		-62.500000
116		-66.406250
117		-62.500000
118		-66.406250
119		-64.453125
120		-66.406250
121		-64.453125
122		-68.359375
123		-64.453125
124		-66.406250
125		-64.453125
126		-68.359375
127		-64.453125
128		-68.359375
129		-64.453125
130		-66.406250
131		-64.453125
132		-68.359375
133		-64.453125
134		-66.406250
135		-62.500000
136		-66.406250
137		-62.500000
138		-64.453125
139		-60.546875
140		-62.500000
141		-60.546875
142		-62.500000
143		-58.593750
144		-60.546875
145		-56.640625
146		-58.593750
147		-54.687500
148		-56.640625
149		-52.734375
150		-54.687500
151		-50.781250
152		-52.734375
153		-48.828125
154		-50.781250
155		-46.875000
156		-48.828125
157		-42.968750
158		-44.921875
159		-41.015625
160		-42.968750
161		-37.109375
162		-39.062500
163		-35.156250
164		-37.109375
165		-31.250000
166		-33.203125
167		-29.296875
168		-29.296875
169		-25.390625
170		-27.343750
171		-21.484375
172		-23.437500
173		-19.531250
174		-21.484375
175		-15.625000
176		-17.578125
177		-11.718750
178		-13.671875
179		-7.812500
180		-9.765625
181		-5.859375
182		-7.812500
183		-1.953125
184		-3.906250
185		1.953125
186		0.000000
187		5.859375
188		3.906250
189		9.765625
190		7.812500
191		11.718750
192		11.718750
193		15.625000
194		13.671875
195		19.531250
196		17.578125
197		21.484375
198		21.484375
199		27.343750
200		25.390625
201		29.296875
202		27.343750
203		33.203125
204		31.250000
205		35.156250
206		33.203125
207		39.062500
208		37.109375
209		41.015625
210		41.015625
211		44.921875
212		41.015625
213		46.875000
214		44.921875
215		50.781250
216		48.828125
217		52.734375
218		50.781250
219		56.640625
220		52.734375
221		56.640625
222		54.687500
223		58.593750
224		56.640625
225		60.546875
226		60.546875
227		64.453125
228		60.546875
229		66.406250
230		64.453125
231		66.406250
232		64.453125
233		68.359375
234		66.406250
235		70.312500
236		68.359375
237		70.312500
238		68.359375
239		72.265625
240		70.312500
241		72.265625
242		72.265625
243		74.218750
244		72.265625
245		76.171875
246		72.265625
247		76.171875
248		72.265625
249		76.171875
250		72.265625
251		76.171875
252		74.218750
253		76.171875
254		72.265625
255		76.171875
256		72.265625
257		76.171875
258		72.265625
259		74.218750
260		72.265625
261		74.218750
262		70.312500
263		74.218750
264		70.312500
265		74.218750
266		70.312500
267		72.265625
268		68.359375
269		70.312500
270		66.406250
271		70.312500
272		66.406250
273		68.359375
274		64.453125
275		66.406250
276		62.500000
277		64.453125
278		60.546875
279		64.453125
280		58.593750
281		62.500000
282		54.687500
283		60.546875
284		52.734375
285		58.593750
286		50.781250
287		54.687500
288		48.828125
289		52.734375
290		46.875000
291		50.781250
292		42.968750
293		46.875000
294		39.062500
295		44.921875
296		37.109375
297		42.968750
298		33.203125
299		39.062500
300		31.250000
301		35.156250
302		27.343750
303		33.203125
304		25.390625
305		29.296875
306		21.484375
307		25.390625
308		17.578125
309		23.437500
310		13.671875
311		19.531250
312		11.718750
313		17.578125
314		7.812500
315		11.718750
316		3.906250
317		9.765625
318		0.000000
319		5.859375
320		-3.906250
321		1.953125
322		-7.812500
323		-1.953125
324		-9.765625
325		-3.906250
326		-13.671875
327		-9.765625
328		-17.578125
329		-11.718750
330		-21.484375
331		-15.625000
332		-23.437500
333		-17.578125
334		-27.343750
335		-21.484375
336		-29.296875
337		-25.390625
338		-33.203125
339		-29.296875
340		-37.109375
341		-31.250000
342		-39.062500
343		-35.156250
344		-42.968750
345		-39.062500
346		-44.921875
347		-41.015625
348		-46.875000
349		-42.968750
350		-50.781250
351		-46.875000
352		-52.734375
353		-48.828125
354		-54.687500
355		-50.781250
356		-56.640625
357		-52.734375
358		-58.593750
359		-54.687500
360		-60.546875
361		-56.640625
362		-62.500000
363		-58.593750
364		-62.500000
365		-58.593750
366		-64.453125
367		-60.546875
368		-66.406250
369		-62.500000
370		-66.406250
371		-62.500000
372		-66.406250
373		-64.453125
374		-68.359375
375		-64.453125
376		-68.359375
377		-64.453125
378		-68.359375
379		-64.453125
380		-68.359375
381		-64.453125
382		-68.359375
383		-64.453125
384		-68.359375
385		-64.453125
386		-68.359375
387		-62.500000
388		-66.406250
389		-62.500000
390		-66.406250
391		-60.546875
392		-64.453125
393		-60.546875
394		-62.500000
395		-60.546875
396		-60.546875
397		-56.640625
398		-60.546875
399		-56.640625
400		-58.593750
401		-54.687500
402		-54.687500
403		-50.781250
404		-52.734375
405		-50.781250
406		-50.781250
407		-46.875000
408		-48.828125
409		-44.921875
410		-46.875000
411		-42.968750
412		-42.968750
413		-39.062500
414		-41.015625
415		-37.109375
416		-39.062500
417		-33.203125
418		-35.156250
419		-31.250000
420		-31.250000
421		-27.343750
422		-29.296875
423		-23.437500
424		-25.390625
425		-21.484375
426		-21.484375
427		-17.578125
428		-19.531250
429		-13.671875
430		-17.578125
431		-11.718750
432		-11.718750
433		-7.812500
434		-7.812500
435		-3.906250
436		-5.859375
437		0.000000
438		-1.953125
439		3.906250
440		1.953125
441		7.812500
442		5.859375
443		9.765625
444		7.812500
445		13.671875
446		11.718750
447		17.578125
448		15.625000
449		21.484375
450		19.531250
451		23.437500
452		23.437500
453		27.343750
454		25.390625
455		31.250000
456		29.296875
457		33.203125
458		33.203125
459		37.109375
460		35.156250
461		41.015625
462		39.062500
463		42.968750
464		41.015625
465		46.875000
466		44.921875
467		48.828125
468		44.921875
469		50.781250
470		48.828125
471		52.734375
472		50.781250
473		56.640625
474		54.687500
475		58.593750
476		56.640625
477		60.546875
478		58.593750
479		62.500000
480		58.593750
481		64.453125
482		62.500000
483		66.406250
484		64.453125
485		68.359375
486		66.406250
487		68.359375
488		66.406250
489		70.312500
490		68.359375
491		72.265625
492		70.312500
493		72.265625
494		70.312500
495		74.218750
496		70.312500
497		76.171875
498		72.265625
499		74.218750
500		72.265625
501		76.171875
502		72.265625
503		76.171875
504		72.265625
505		76.171875
506		74.218750
507		76.171875
508		72.265625
509		76.171875
510		74.218750
511		76.171875
512		72.265625
513		74.218750
514		72.265625
515		76.171875
516		70.312500
517		74.218750
518		70.312500
519		74.218750
520		68.359375
521		72.265625
522		68.359375
523		70.312500
524		66.406250
525		70.312500
526		64.453125
527		68.359375
528		64.453125
529		66.406250
530		62.500000
531		64.453125
532		60.546875
533		64.453125
534		58.593750
535		62.500000
536		54.687500
537		58.593750
538		52.734375
539		56.640625
540		50.781250
541		56.640625
542		46.875000
543		52.734375
544		44.921875
545		50.781250
546		41.015625
547		46.875000
548		39.062500
549		44.921875
550		37.109375
551		41.015625
552		33.203125
553		39.062500
554		31.250000
555		35.156250
556		27.343750
557		33.203125
558		23.437500
559		29.296875
560		21.484375
561		25.390625
562		17.578125
563		21.484375
564		11.718750
565		19.531250
566		9.765625
567		15.625000
568		5.859375
569		11.718750
570		3.906250
571		7.812500
572		0.000000
573		3.906250
574		-5.859375
575		0.000000
576		-7.812500
577		-1.953125
578		-11.718750
579		-5.859375
580		-15.625000
581		-9.765625
582		-17.578125
583		-13.671875
584		-21.484375
585		-15.625000
586		-25.390625
587		-19.531250
588		-27.343750
589		-21.484375
590		-31.250000
591		-25.390625
592		-35.156250
593		-29.296875
594		-37.109375
595		-33.203125
596		-39.062500
597		-35.156250
598		-42.968750
599		-37.109375
600		-46.875000
601		-41.015625
602		-48.828125
603		-42.968750
604		-50.781250
605		-46.875000
606		-52.734375
607		-48.828125
608		-54.687500
609		-50.781250
610		-56.640625
611		-52.734375
612		-58.593750
613		-54.687500
614		-60.546875
615		-56.640625
616		-62.500000
617		-58.593750
618		-62.500000
619		-60.546875
620		-64.453125
621		-60.546875
622		-64.453125
623		-62.500000
624		-66.406250
625		-62.500000
626		-68.359375
627		-62.500000
628		-66.406250
629		-64.453125
630		-68.359375
631		-64.453125
632		-66.406250
633		-64.453125
634		-68.359375
635		-64.453125
636		-68.359375
637		-64.453125
638		-66.406250
639		-62.500000
640		-66.406250
641		-62.500000
642		-66.406250
643		-60.546875
644		-64.453125
645		-60.546875
646		-62.500000
647		-60.546875
648		-62.500000
649		-58.593750
650		-60.546875
651		-56.640625
652		-58.593750
653		-54.687500
654		-56.640625
655		-52.734375
656		-54.687500
657		-50.781250
658		-52.734375
659		-48.828125
660		-50.781250
661		-46.875000
662		-46.875000
663		-42.968750
664		-44.921875
665		-41.015625
666		-42.968750
667		-37.109375
668		-39.062500
669		-35.156250
670		-37.109375
671		-31.250000
672		-35.156250
673		-29.296875
674		-31.250000
675		-25.390625
676		-27.343750
677		-21.484375
678		-23.437500
679		-19.531250
680		-21.484375
681		-15.625000
682		-17.578125
683		-11.718750
684		-13.671875
685		-9.765625
686		-9.765625
687		-5.859375
688		-7.812500
689		-1.953125
690		-3.906250
691		1.953125
692		0.000000
693		5.859375
694		3.906250
695		7.812500
696		7.812500
697		11.718750
698		9.765625
699		15.625000
700		13.671875
701		19.531250
702		17.578125
703		21.484375
704		21.484375
705		25.390625
706		23.437500
707		29.296875
708		27.343750
709		33.203125
710		31.250000
711		35.156250
712		33.203125
713		39.062500
714		37.109375
715		42.968750
716		39.062500
717		44.921875
718		42.968750
719		46.875000
720		44.921875
721		50.781250
722		48.828125
723		52.734375
724		50.781250
725		54.687500
726		52.734375
727		58.593750
728		56.640625
729		58.593750
730		58.593750
731		60.546875
732		60.546875
733		64.453125
734		62.500000
735		66.406250
736		62.500000
737		68.359375
738		64.453125
739		68.359375
740		66.406250
741		70.312500
742		68.359375
743		70.312500
744		68.359375
745		72.265625
746		70.312500
747		74.218750
748		72.265625
749		74.218750
750		72.265625
751		76.171875
752		72.265625
753		76.171875
754		72.265625
755		76.171875
756		74.218750
757		76.171875
758		74.218750
759		76.171875
760		74.218750
761		76.171875
762		74.218750
763		76.171875
764		74.218750
765		76.171875
766		72.265625
767		76.171875
768		72.265625
769		76.171875
770		70.312500
771		74.218750
772		70.312500
773		74.218750
774		68.359375
775		72.265625
776		68.359375
777		72.265625
778		66.406250
779		70.312500
780		64.453125
781		68.359375
782		62.500000
783		66.406250
784		60.546875
785		64.453125
786		58.593750
787		62.500000
788		56.640625
789		60.546875
790		54.687500
791		58.593750
792		52.734375
793		56.640625
794		48.828125
795		54.687500
796		46.875000
797		50.781250
798		42.968750
799		48.828125
800		41.015625
801		44.921875
802		39.062500
803		42.968750
804		35.156250
805		41.015625
806		33.203125
807		37.109375
808		29.296875
809		35.156250
810		25.390625
811		31.250000
812		23.437500
813		27.343750
814		19.531250
815		23.437500
816		15.625000
817		21.484375
818		11.718750
819		17.578125
820		7.812500
821		13.671875
822		5.859375
823		9.765625
824		1.953125
825		7.812500
826		-1.953125
827		3.906250
828		-5.859375
829		0.000000
830		-7.812500
831		-3.906250
832		-13.671875
833		-5.859375
834		-15.625000
835		-9.765625
836		-19.531250
837		-13.671875
838		-23.437500
839		-17.578125
840		-27.343750
841		-21.484375
842		-29.296875
843		-23.437500
844		-31.250000
845		-27.343750
846		-35.156250
847		-31.250000
848		-39.062500
849		-33.203125
850		-41.015625
851		-35.156250
852		-44.921875
853		-39.062500
854		-46.875000
855		-41.015625
856		-48.828125
857		-44.921875
858		-50.781250
859		-46.875000
860		-52.734375
861		-48.828125
862		-54.687500
863		-50.781250
864		-56.640625
865		-54.687500
866		-60.546875
867		-54.687500
868		-60.546875
869		-56.640625
870		-62.500000
871		-58.593750
872		-64.453125
873		-60.546875
874		-64.453125
875		-60.546875
876		-64.453125
877		-62.500000
878		-66.406250
879		-62.500000
880		-66.406250
881		-64.453125
882		-68.359375
883		-64.453125
884		-66.406250
885		-64.453125
886		-68.359375
887		-64.453125
888		-66.406250
889		-64.453125
890		-66.406250
891		-62.500000
892		-66.406250
893		-62.500000
894		-66.406250
895		-60.546875
896		-64.453125
897		-62.500000
898		-62.500000
899		-60.546875
900		-62.500000
901		-58.593750
902		-60.546875
903		-56.640625
904		-58.593750
905		-54.687500
906		-58.593750
907		-54.687500
908		-56.640625
909		-50.781250
910		-52.734375
911		-48.828125
912		-52.734375
913		-46.875000
914		-48.828125
915		-44.921875
916		-46.875000
917		-41.015625
918		-44.921875
919		-39.062500
920		-41.015625
921		-35.156250
922		-39.062500
923		-33.203125
924		-35.156250
925		-29.296875
926		-31.250000
927		-27.343750
928		-29.296875
929		-23.437500
930		-25.390625
931		-21.484375
932		-23.437500
933		-17.578125
934		-19.531250
935		-13.671875
936		-15.625000
937		-11.718750
938		-13.671875
939		-7.812500
940		-7.812500
941		-3.906250
942		-5.859375
943		0.000000
944		-1.953125
945		3.906250
946		0.000000
947		5.859375
948		5.859375
949		9.765625
950		7.812500
951		13.671875
952		11.718750
953		17.578125
954		15.625000
955		21.484375
956		19.531250
957		23.437500
958		23.437500
959		27.343750
960		25.390625
961		29.296875
962		29.296875
963		33.203125
964		31.250000
965		37.109375
966		35.156250
967		39.062500
968		37.109375
969		42.968750
970		41.015625
971		44.921875
972		44.921875
973		48.828125
974		46.875000
975		50.781250
976		48.828125
977		54.687500
978		52.734375
979		56.640625
980		54.687500
981		58.593750
982		56.640625
983		60.546875
984		58.593750
985		62.500000
986		60.546875
987		64.453125
988		62.500000
989		66.406250
990		64.453125
991		68.359375
992		66.406250
993		70.312500
994		68.359375
995		70.312500
996		68.359375
997		72.265625
998		70.312500
999		72.265625
1000		70.312500
1001		74.218750
1002		72.265625
1003		76.171875
1004		72.265625
1005		76.171875
1006		72.265625
1007		76.171875
1008		72.265625
1009		76.171875
1010		74.218750
1011		76.171875
1012		72.265625
1013		78.125000
1014		74.218750
1015		76.171875
1016		74.218750
1017		76.171875
1018		72.265625
1019		76.171875
1020		72.265625
1021		76.171875
1022		72.265625
1023		76.171875
1024		70.312500
1025		74.218750
1026		70.312500
1027		74.218750
1028		68.359375
1029		72.265625
1030		68.359375
1031		72.265625
1032		66.406250
1033		68.359375
1034		64.453125
1035		68.359375
1036		62.500000
1037		66.406250
1038		60.546875
1039		64.453125
1040		58.593750
1041		62.500000
1042		56.640625
1043		60.546875
1044		52.734375
1045		58.593750
1046		52.734375
1047		56.640625
1048		48.828125
1049		52.734375
1050		46.875000
1051		50.781250
1052		42.968750
1053		48.828125
1054		41.015625
1055		44.921875
1056		37.109375
1057		42.968750
1058		35.156250
1059		39.062500
1060		31.250000
1061		37.109375
1062		27.343750
1063		33.203125
1064		25.390625
1065		29.296875
1066		21.484375
1067		27.343750
1068		19.531250
1069		23.437500
1070		15.625000
1071		19.531250
1072		11.718750
1073		15.625000
1074		7.812500
1075		13.671875
1076		3.906250
1077		9.765625
1078		1.953125
1079		5.859375
1080		-1.953125
1081		1.953125
1082		-5.859375
1083		-1.953125
1084		-9.765625
1085		-3.906250
1086		-13.671875
1087		-7.812500
1088		-15.625000
1089		-11.718750
1090		-19.531250
1091		-15.625000
1092		-23.437500
1093		-17.578125
1094		-27.343750
1095		-21.484375
1096		-29.296875
1097		-25.390625
1098		-33.203125
1099		-27.343750
1100		-35.156250
1101		-31.250000
1102		-39.062500
1103		-33.203125
1104		-41.015625
1105		-37.109375
1106		-44.921875
1107		-39.062500
1108		-46.875000
1109		-42.968750
1110		-48.828125
1111		-44.921875
1112		-50.781250
1113		-46.875000
1114		-52.734375
1115		-48.828125
1116		-54.687500
1117		-52.734375
1118		-58.593750
1119		-52.734375
1120		-58.593750
1121		-56.640625
1122		-60.546875
1123		-56.640625
1124		-62.500000
1125		-58.593750
1126		-64.453125
1127		-60.546875
1128		-64.453125
1129		-60.546875
1130		-66.406250
1131		-62.500000
1132		-66.406250
1133		-62.500000
1134		-66.406250
1135		-64.453125
1136		-66.406250
1137		-62.500000
1138		-66.406250
1139		-64.453125
1140		-66.406250
1141		-64.453125
1142		-66.406250
1143		-62.500000
1144		-66.406250
1145		-62.500000
1146		-64.453125
1147		-62.500000
1148		-66.406250
1149		-62.500000
1150		-64.453125
1151		-60.546875
1152		-62.500000
1153		-58.593750
1154		-60.546875
1155		-56.640625
1156		-58.593750
1157		-56.640625
1158		-58.593750
1159		-54.687500
1160		-56.640625
1161		-52.734375
1162		-54.687500
1163		-50.781250
1164		-52.734375
1165		-48.828125
1166		-48.828125
1167		-46.875000
1168		-46.875000
1169		-42.968750
1170		-44.921875
1171		-39.062500
1172		-42.968750
1173		-37.109375
1174		-39.062500
1175		-35.156250
1176		-37.109375
1177		-31.250000
1178		-35.156250
1179		-29.296875
1180		-31.250000
1181		-25.390625
1182		-27.343750
1183		-23.437500
1184		-23.437500
1185		-19.531250
1186		-21.484375
1187		-15.625000
1188		-17.578125
1189		-11.718750
1190		-15.625000
1191		-9.765625
1192		-9.765625
1193		-5.859375
1194		-7.812500
1195		-1.953125
1196		-3.906250
1197		1.953125
1198		0.000000
1199		3.906250
1200		3.906250
1201		7.812500
1202		7.812500
1203		11.718750
1204		9.765625
1205		15.625000
1206		13.671875
1207		19.531250
1208		17.578125
1209		21.484375
1210		19.531250
1211		25.390625
1212		23.437500
1213		29.296875
1214		27.343750
1215		31.250000
1216		31.250000
1217		35.156250
1218		33.203125
1219		39.062500
1220		37.109375
1221		41.015625
1222		39.062500
1223		44.921875
1224		42.968750
1225		46.875000
1226		44.921875
1227		50.781250
1228		48.828125
1229		52.734375
1230		50.781250
1231		54.687500
1232		52.734375
1233		56.640625
1234		56.640625
1235		58.593750
1236		56.640625
1237		64.453125
1238		58.593750
1239		64.453125
1240		62.500000
1241		66.406250
1242		64.453125
1243		68.359375
1244		64.453125
1245		70.312500
1246		66.406250
1247		72.265625
1248		68.359375
1249		72.265625
1250		70.312500
1251		72.265625
1252		70.312500
1253		74.218750
1254		70.312500
1255		76.171875
1256		72.265625
1257		76.171875
1258		74.218750
1259		76.171875
1260		72.265625
1261		78.125000
1262		74.218750
1263		76.171875
1264		74.218750
1265		78.125000
1266		74.218750
1267		76.171875
1268		74.218750
1269		76.171875
1270		72.265625
1271		78.125000
1272		70.312500
1273		78.125000
1274		72.265625
1275		78.125000
1276		72.265625
1277		74.218750
1278		70.312500
1279		76.171875
1280		68.359375
1281		74.218750
1282		68.359375
1283		74.218750
1284		68.359375
1285		70.312500
1286		64.453125
1287		70.312500
1288		62.500000
1289		68.359375
1290		60.546875
1291		68.359375
1292		60.546875
1293		64.453125
1294		58.593750
1295		62.500000
1296		52.734375
1297		60.546875
1298		52.734375
1299		58.593750
1300		50.781250
1301		54.687500
1302		48.828125
1303		52.734375
1304		42.968750
1305		50.781250
1306		41.015625
1307		48.828125
1308		37.109375
1309		46.875000
1310		35.156250
1311		42.968750
1312		31.250000
1313		39.062500
1314		29.296875
1315		37.109375
1316		27.343750
1317		33.203125
1318		23.437500
1319		29.296875
1320		19.531250
1321		25.390625
1322		15.625000
1323		25.390625
1324		11.718750
1325		19.531250
1326		7.812500
1327		15.625000
1328		3.906250
1329		13.671875
1330		0.000000
1331		9.765625
1332		0.000000
1333		5.859375
1334		-3.906250
1335		1.953125
1336		-7.812500
1337		-1.953125
1338		-11.718750
1339		-3.906250
1340		-15.625000
1341		-7.812500
1342		-19.531250
1343		-11.718750
1344		-21.484375
1345		-13.671875
1346		-25.390625
1347		-17.578125
1348		-29.296875
1349		-21.484375
1350		-31.250000
1351		-25.390625
1352		-33.203125
1353		-29.296875
1354		-39.062500
1355		-31.250000
1356		-41.015625
1357		-33.203125
1358		-42.968750
1359		-37.109375
1360		-46.875000
1361		-39.062500
1362		-48.828125
1363		-41.015625
1364		-52.734375
1365		-42.968750
1366		-52.734375
1367		-46.875000
1368		-54.687500
1369		-50.781250
1370		-56.640625
1371		-52.734375
1372		-60.546875
1373		-52.734375
1374		-60.546875
1375		-54.687500
1376		-62.500000
1377		-56.640625
1378		-64.453125
1379		-56.640625
1380		-64.453125
1381		-58.593750
1382		-66.406250
1383		-58.593750
1384		-64.453125
1385		-62.500000
1386		-66.406250
1387		-62.500000
1388		-68.359375
1389		-60.546875
1390		-68.359375
1391		-62.500000
1392		-68.359375
1393		-60.546875
1394		-68.359375
1395		-62.500000
1396		-68.359375
1397		-60.546875
1398		-68.359375
1399		-60.546875
1400		-64.453125
1401		-62.500000
1402		-62.500000
1403		-60.546875
1404		-64.453125
1405		-56.640625
1406		-64.453125
1407		-56.640625
1408		-62.500000
1409		-54.687500
1410		-60.546875
1411		-52.734375
1412		-58.593750
1413		-50.781250
1414		-58.593750
1415		-48.828125
1416		-54.687500
1417		-46.875000
1418		-50.781250
1419		-46.875000
1420		-48.828125
1421		-42.968750
1422		-48.828125
1423		-41.015625
1424		-44.921875
1425		-37.109375
1426		-42.968750
1427		-35.156250
1428		-41.015625
1429		-31.250000
1430		-37.109375
1431		-27.343750
1432		-35.156250
1433		-25.390625
1434		-29.296875
1435		-23.437500
1436		-25.390625
1437		-21.484375
1438		-23.437500
1439		-15.625000
1440		-21.484375
1441		-11.718750
1442		-17.578125
1443		-7.812500
1444		-13.671875
1445		-5.859375
1446		-11.718750
1447		-1.953125
1448		-7.812500
1449		1.953125
1450		-3.906250
1451		3.906250
1452		1.953125
1453		7.812500
1454		5.859375
1455		11.718750
1456		5.859375
1457		15.625000
1458		9.765625
1459		19.531250
1460		13.671875
1461		23.437500
1462		17.578125
1463		25.390625
1464		19.531250
1465		29.296875
1466		23.437500
1467		31.250000
1468		29.296875
1469		33.203125
1470		31.250000
1471		37.109375
1472		33.203125
1473		41.015625
1474		35.156250
1475		44.921875
1476		39.062500
1477		46.875000
1478		42.968750
1479		50.781250
1480		44.921875
1481		52.734375
1482		46.875000
1483		54.687500
1484		50.781250
1485		56.640625
1486		54.687500
1487		58.593750
1488		54.687500
1489		62.500000
1490		56.640625
1491		64.453125
1492		58.593750
1493		66.406250
1494		60.546875
1495		68.359375
1496		62.500000
1497		70.312500
1498		64.453125
1499		72.265625
1500		66.406250
1501		72.265625
1502		68.359375
1503		72.265625
1504		70.312500
1505		74.218750
1506		68.359375
1507		76.171875
1508		70.312500
1509		78.125000
1510		70.312500
1511		78.125000
1512		72.265625
1513		78.125000
1514		72.265625
1515		78.125000
1516		72.265625
1517		78.125000
1518		74.218750
1519		76.171875
1520		74.218750
1521		78.125000
1522		72.265625
1523		78.125000
1524		72.265625
1525		78.125000
1526		70.312500
1527		78.125000
1528		70.312500
1529		78.125000
1530		70.312500
1531		76.171875
1532		68.359375
1533		76.171875
1534		68.359375
1535		74.218750
1536		68.359375
1537		72.265625
1538		64.453125
1539		72.265625
1540		64.453125
1541		70.312500
1542		60.546875
1543		68.359375
1544		60.546875
1545		66.406250
1546		56.640625
1547		64.453125
1548		54.687500
1549		64.453125
1550		52.734375
1551		60.546875
1552		52.734375
1553		56.640625
1554		50.781250
1555		54.687500
1556		44.921875
1557		54.687500
1558		42.968750
1559		50.781250
1560		39.062500
1561		48.828125
1562		37.109375
1563		44.921875
1564		33.203125
1565		42.968750
1566		29.296875
1567		39.062500
1568		29.296875
1569		37.109375
1570		27.343750
1571		31.250000
1572		21.484375
1573		27.343750
1574		17.578125
1575		27.343750
1576		13.671875
1577		23.437500
1578		11.718750
1579		19.531250
1580		7.812500
1581		15.625000
1582		3.906250
1583		13.671875
1584		1.953125
1585		9.765625
1586		-1.953125
1587		3.906250
1588		-3.906250
1589		0.000000
1590		-9.765625
1591		-1.953125
1592		-13.671875
1593		-3.906250
1594		-17.578125
1595		-7.812500
1596		-21.484375
1597		-11.718750
1598		-25.390625
1599		-15.625000
1600		-27.343750
1601		-17.578125
1602		-29.296875
1603		-23.437500
1604		-31.250000
1605		-27.343750
1606		-37.109375
1607		-29.296875
1608		-39.062500
1609		-31.250000
1610		-42.968750
1611		-33.203125
1612		-44.921875
1613		-35.156250
1614		-46.875000
1615		-39.062500
1616		-50.781250
1617		-41.015625
1618		-50.781250
1619		-44.921875
1620		-52.734375
1621		-48.828125
1622		-56.640625
1623		-50.781250
1624		-58.593750
1625		-50.781250
1626		-60.546875
1627		-52.734375
1628		-62.500000
1629		-54.687500
1630		-64.453125
1631		-54.687500
1632		-64.453125
1633		-56.640625
1634		-66.406250
1635		-58.593750
1636		-64.453125
1637		-60.546875
1638		-64.453125
1639		-62.500000
1640		-68.359375
1641		-60.546875
1642		-68.359375
1643		-60.546875
1644		-68.359375
1645		-60.546875
1646		-68.359375
1647		-60.546875
1648		-68.359375
1649		-60.546875
1650		-68.359375
1651		-60.546875
1652		-66.406250
1653		-60.546875
1654		-64.453125
1655		-60.546875
1656		-64.453125
1657		-58.593750
1658		-64.453125
1659		-56.640625
1660		-62.500000
1661		-54.687500
1662		-62.500000
1663		-52.734375
1664		-60.546875
1665		-52.734375
1666		-58.593750
1667		-50.781250
1668		-56.640625
1669		-48.828125
1670		-52.734375
1671		-48.828125
1672		-48.828125
1673		-44.921875
1674		-48.828125
1675		-41.015625
1676		-46.875000
1677		-39.062500
1678		-44.921875
1679		-35.156250
1680		-41.015625
1681		-33.203125
1682		-39.062500
1683		-31.250000
1684		-37.109375
1685		-27.343750
1686		-31.250000
1687		-25.390625
1688		-27.343750
1689		-21.484375
1690		-23.437500
1691		-17.578125
1692		-23.437500
1693		-13.671875
1694		-19.531250
1695		-11.718750
1696		-17.578125
1697		-7.812500
1698		-11.718750
1699		-3.906250
1700		-9.765625
1701		0.000000
1702		-5.859375
1703		1.953125
1704		0.000000
1705		3.906250
1706		3.906250
1707		9.765625
1708		3.906250
1709		13.671875
1710		7.812500
1711		17.578125
1712		11.718750
1713		19.531250
1714		15.625000
1715		23.437500
1716		17.578125
1717		27.343750
1718		21.484375
1719		29.296875
1720		27.343750
1721		31.250000
1722		31.250000
1723		35.156250
1724		33.203125
1725		41.015625
1726		35.156250
1727		42.968750
1728		39.062500
1729		44.921875
1730		41.015625
1731		48.828125
1732		42.968750
1733		50.781250
1734		46.875000
1735		54.687500
1736		48.828125
1737		54.687500
1738		52.734375
1739		56.640625
1740		54.687500
1741		62.500000
1742		54.687500
1743		64.453125
1744		56.640625
1745		66.406250
1746		60.546875
1747		68.359375
1748		62.500000
1749		68.359375
1750		62.500000
1751		70.312500
1752		64.453125
1753		72.265625
1754		68.359375
1755		72.265625
1756		70.312500
1757		72.265625
1758		68.359375
1759		76.171875
1760		70.312500
1761		76.171875
1762		70.312500
1763		78.125000
1764		72.265625
1765		78.125000
1766		72.265625
1767		78.125000
1768		72.265625
1769		80.078125
1770		74.218750
1771		78.125000
1772		74.218750
1773		78.125000
1774		72.265625
1775		78.125000
1776		72.265625
1777		78.125000
1778		72.265625
1779		78.125000
1780		70.312500
1781		78.125000
1782		70.312500
1783		78.125000
1784		70.312500
1785		76.171875
1786		68.359375
1787		76.171875
1788		68.359375
1789		72.265625
1790		66.406250
1791		70.312500
1792		66.406250
1793		72.265625
1794		62.500000
1795		70.312500
1796		60.546875
1797		68.359375
1798		60.546875
1799		66.406250
1800		58.593750
1801		64.453125
1802		56.640625
1803		62.500000
1804		54.687500
1805		58.593750
1806		52.734375
1807		56.640625
1808		46.875000
1809		54.687500
1810		44.921875
1811		52.734375
1812		42.968750
1813		50.781250
1814		39.062500
1815		46.875000
1816		35.156250
1817		44.921875
1818		33.203125
1819		41.015625
1820		31.250000
1821		39.062500
1822		29.296875
1823		33.203125
1824		23.437500
1825		29.296875
1826		19.531250
1827		29.296875
1828		15.625000
1829		25.390625
1830		13.671875
1831		21.484375
1832		9.765625
1833		19.531250
1834		5.859375
1835		15.625000
1836		3.906250
1837		11.718750
1838		1.953125
1839		5.859375
1840		-1.953125
1841		1.953125
1842		-7.812500
1843		0.000000
1844		-11.718750
1845		-1.953125
1846		-15.625000
1847		-5.859375
1848		-17.578125
1849		-9.765625
1850		-21.484375
1851		-11.718750
1852		-25.390625
1853		-15.625000
1854		-25.390625
1855		-21.484375
1856		-29.296875
1857		-25.390625
1858		-35.156250
1859		-27.343750
1860		-37.109375
1861		-29.296875
1862		-41.015625
1863		-31.250000
1864		-42.968750
1865		-35.156250
1866		-46.875000
1867		-37.109375
1868		-48.828125
1869		-41.015625
1870		-48.828125
1871		-42.968750
1872		-50.781250
1873		-46.875000
1874		-54.687500
1875		-48.828125
1876		-58.593750
1877		-48.828125
1878		-58.593750
1879		-50.781250
1880		-60.546875
1881		-52.734375
1882		-62.500000
1883		-54.687500
1884		-64.453125
1885		-56.640625
1886		-64.453125
1887		-58.593750
1888		-62.500000
1889		-60.546875
1890		-64.453125
1891		-60.546875
1892		-68.359375
1893		-60.546875
1894		-68.359375
1895		-60.546875
1896		-68.359375
1897		-60.546875
1898		-68.359375
1899		-60.546875
1900		-68.359375
1901		-60.546875
1902		-68.359375
1903		-60.546875
1904		-66.406250
1905		-60.546875
1906		-64.453125
1907		-62.500000
1908		-64.453125
1909		-58.593750
1910		-64.453125
1911		-58.593750
1912		-64.453125
1913		-56.640625
1914		-62.500000
1915		-54.687500
1916		-62.500000
1917		-52.734375
1918		-58.593750
1919		-50.781250
1920		-58.593750
1921		-50.781250
1922		-54.687500
1923		-48.828125
1924		-50.781250
1925		-46.875000
1926		-50.781250
1927		-42.968750
1928		-48.828125
1929		-41.015625
1930		-44.921875
1931		-37.109375
1932		-42.968750
1933		-35.156250
1934		-39.062500
1935		-31.250000
1936		-37.109375
1937		-29.296875
1938		-33.203125
1939		-27.343750
1940		-29.296875
1941		-25.390625
1942		-27.343750
1943		-19.531250
1944		-25.390625
1945		-15.625000
1946		-21.484375
1947		-11.718750
1948		-17.578125
1949		-9.765625
1950		-15.625000
1951		-5.859375
1952		-11.718750
1953		-1.953125
1954		-7.812500
1955		0.000000
1956		-1.953125
1957		1.953125
1958		1.953125
1959		7.812500
1960		1.953125
1961		11.718750
1962		5.859375
1963		15.625000
1964		9.765625
1965		19.531250
1966		13.671875
1967		23.437500
1968		17.578125
1969		25.390625
1970		19.531250
1971		29.296875
1972		25.390625
1973		29.296875
1974		29.296875
1975		33.203125
1976		31.250000
1977		37.109375
1978		33.203125
1979		41.015625
1980		35.156250
1981		44.921875
1982		39.062500
1983		46.875000
1984		41.015625
1985		48.828125
1986		44.921875
1987		52.734375
1988		46.875000
1989		52.734375
1990		52.734375
1991		56.640625
1992		52.734375
1993		60.546875
1994		54.687500
1995		62.500000
1996		56.640625
1997		64.453125
1998		58.593750
1999		66.406250
2000		60.546875
2001		68.359375
2002		62.500000
2003		70.312500
2004		64.453125
2005		70.312500
2006		66.406250
2007		70.312500
2008		68.359375
2009		72.265625
2010		68.359375
2011		76.171875
2012		70.312500
2013		76.171875
2014		70.312500
2015		76.171875
2016		70.312500
2017		78.125000
2018		70.312500
2019		78.125000
2020		72.265625
2021		80.078125
2022		74.218750
2023		78.125000
2024		74.218750
2025		78.125000
2026		72.265625
2027		80.078125
2028		72.265625
2029		78.125000
2030		70.312500
2031		78.125000
2032		70.312500
2033		78.125000
2034		70.312500
2035		78.125000
2036		70.312500
2037		78.125000
2038		70.312500
2039		76.171875
2040		70.312500
2041		72.265625
2042		66.406250
2043		72.265625
2044		64.453125
2045		72.265625
2046		62.500000
2047		70.312500
2048		62.500000
2049		70.312500
2050		58.593750
2051		68.359375
2052		58.593750
2053		64.453125
2054		56.640625
2055		64.453125
2056		56.640625
2057		58.593750
2058		52.734375
2059		56.640625
2060		48.828125
2061		56.640625
2062		44.921875
2063		54.687500
2064		42.968750
2065		52.734375
2066		39.062500
2067		48.828125
2068		37.109375
2069		46.875000
2070		35.156250
2071		42.968750
2072		33.203125
2073		41.015625
2074		31.250000
2075		35.156250
2076		25.390625
2077		31.250000
2078		21.484375
2079		31.250000
2080		17.578125
2081		27.343750
2082		13.671875
2083		23.437500
2084		11.718750
2085		21.484375
2086		7.812500
2087		17.578125
2088		5.859375
2089		13.671875
2090		3.906250
2091		7.812500
2092		-1.953125
2093		3.906250
2094		-7.812500
2095		1.953125
2096		-9.765625
2097		0.000000
2098		-13.671875
2099		-3.906250
2100		-17.578125
2101		-7.812500
2102		-19.531250
2103		-11.718750
2104		-23.437500
2105		-13.671875
2106		-25.390625
2107		-17.578125
2108		-27.343750
2109		-23.437500
2110		-33.203125
2111		-25.390625
2112		-37.109375
2113		-27.343750
2114		-39.062500
2115		-31.250000
2116		-42.968750
2117		-33.203125
2118		-44.921875
2119		-37.109375
2120		-46.875000
2121		-39.062500
2122		-48.828125
2123		-41.015625
2124		-50.781250
2125		-46.875000
2126		-52.734375
2127		-48.828125
2128		-56.640625
2129		-48.828125
2130		-58.593750
2131		-50.781250
2132		-60.546875
2133		-52.734375
2134		-60.546875
2135		-54.687500
2136		-62.500000
2137		-54.687500
2138		-64.453125
2139		-56.640625
2140		-62.500000
2141		-60.546875
2142		-64.453125
2143		-62.500000
2144		-68.359375
2145		-60.546875
2146		-68.359375
2147		-60.546875
2148		-68.359375
2149		-60.546875
2150		-68.359375
2151		-60.546875
2152		-68.359375
2153		-62.500000
2154		-68.359375
2155		-60.546875
2156		-68.359375
2157		-60.546875
2158		-64.453125
2159		-62.500000
2160		-66.406250
2161		-60.546875
2162		-66.406250
2163		-58.593750
2164		-64.453125
2165		-56.640625
2166		-64.453125
2167		-56.640625
2168		-60.546875
2169		-54.687500
2170		-60.546875
2171		-52.734375
2172		-58.593750
2173		-50.781250
2174		-54.687500
2175		-50.781250
2176		-52.734375
2177		-48.828125
2178		-50.781250
2179		-44.921875
2180		-50.781250
2181		-41.015625
2182		-46.875000
2183		-39.062500
2184		-44.921875
2185		-37.109375
2186		-42.968750
2187		-33.203125
2188		-39.062500
2189		-31.250000
2190		-35.156250
2191		-29.296875
2192		-31.250000
2193		-27.343750
2194		-27.343750
2195		-21.484375
2196		-27.343750
2197		-17.578125
2198		-23.437500
2199		-15.625000
2200		-21.484375
2201		-11.718750
2202		-17.578125
2203		-7.812500
2204		-13.671875
2205		-3.906250
2206		-9.765625
2207		-1.953125
2208		-3.906250
2209		0.000000
2210		-1.953125
2211		3.906250
2212		0.000000
2213		9.765625
2214		3.906250
2215		13.671875
2216		7.812500
2217		15.625000
2218		11.718750
2219		19.531250
2220		13.671875
2221		23.437500
2222		17.578125
2223		27.343750
2224		21.484375
2225		27.343750
2226		27.343750
2227		31.250000
2228		27.343750
2229		37.109375
2230		31.250000
2231		39.062500
2232		33.203125
2233		42.968750
2234		37.109375
2235		44.921875
2236		39.062500
2237		48.828125
2238		42.968750
2239		50.781250
2240		44.921875
2241		52.734375
2242		50.781250
2243		54.687500
2244		52.734375
2245		58.593750
2246		52.734375
2247		60.546875
2248		54.687500
2249		62.500000
2250		56.640625
2251		64.453125
2252		60.546875
2253		66.406250
2254		60.546875
2255		68.359375
2256		62.500000
2257		70.312500
2258		66.406250
2259		70.312500
2260		68.359375
2261		72.265625
2262		68.359375
2263		74.218750
2264		68.359375
2265		76.171875
2266		68.359375
2267		76.171875
2268		70.312500
2269		78.125000
2270		70.312500
2271		78.125000
2272		72.265625
2273		78.125000
2274		72.265625
2275		78.125000
2276		74.218750
2277		76.171875
2278		72.265625
2279		80.078125
2280		72.265625
2281		80.078125
2282		72.265625
2283		78.125000
2284		72.265625
2285		78.125000
2286		70.312500
2287		78.125000
2288		70.312500
2289		78.125000
2290		70.312500
2291		76.171875
2292		70.312500
2293		74.218750
2294		68.359375
2295		72.265625
2296		64.453125
2297		72.265625
2298		64.453125
2299		72.265625
2300		62.500000
2301		70.312500
2302		62.500000
2303		68.359375
2304		58.593750
2305		66.406250
2306		56.640625
2307		66.406250
2308		56.640625
2309		62.500000
2310		54.687500
2311		58.593750
2312		50.781250
2313		56.640625
2314		46.875000
2315		56.640625
2316		44.921875
2317		52.734375
2318		42.968750
2319		50.781250
2320		39.062500
2321		48.828125
2322		37.109375
2323		44.921875
2324		35.156250
2325		42.968750
2326		33.203125
2327		37.109375
2328		27.343750
2329		35.156250
2330		25.390625
2331		33.203125
2332		21.484375
2333		29.296875
2334		17.578125
2335		25.390625
2336		13.671875
2337		23.437500
2338		9.765625
2339		19.531250
2340		7.812500
2341		15.625000
2342		5.859375
2343		9.765625
2344		1.953125
2345		5.859375
2346		-3.906250
2347		5.859375
2348		-7.812500
2349		1.953125
2350		-11.718750
2351		-1.953125
2352		-15.625000
2353		-5.859375
2354		-17.578125
2355		-9.765625
2356		-21.484375
2357		-11.718750
2358		-21.484375
2359		-15.625000
2360		-25.390625
2361		-21.484375
2362		-31.250000
2363		-23.437500
2364		-33.203125
2365		-25.390625
2366		-37.109375
2367		-29.296875
2368		-41.015625
2369		-31.250000
2370		-42.968750
2371		-33.203125
2372		-44.921875
2373		-37.109375
2374		-46.875000
2375		-39.062500
2376		-48.828125
2377		-44.921875
2378		-50.781250
2379		-46.875000
2380		-54.687500
2381		-46.875000
2382		-56.640625
2383		-48.828125
2384		-58.593750
2385		-50.781250
2386		-60.546875
2387		-52.734375
2388		-62.500000
2389		-54.687500
2390		-64.453125
2391		-56.640625
2392		-62.500000
2393		-58.593750
2394		-62.500000
2395		-60.546875
2396		-66.406250
2397		-60.546875
2398		-66.406250
2399		-60.546875
2400		-68.359375
2401		-60.546875
2402		-68.359375
2403		-60.546875
2404		-68.359375
2405		-60.546875
2406		-68.359375
2407		-60.546875
2408		-66.406250
2409		-60.546875
2410		-64.453125
2411		-62.500000
2412		-66.406250
2413		-58.593750
2414		-66.406250
2415		-58.593750
2416		-64.453125
2417		-56.640625
2418		-64.453125
2419		-56.640625
2420		-62.500000
2421		-54.687500
2422		-60.546875
2423		-52.734375
2424		-60.546875
2425		-50.781250
2426		-54.687500
2427		-50.781250
2428		-52.734375
2429		-48.828125
2430		-52.734375
2431		-44.921875
2432		-50.781250
2433		-42.968750
2434		-48.828125
2435		-41.015625
2436		-44.921875
2437		-37.109375
2438		-42.968750
2439		-35.156250
2440		-41.015625
2441		-31.250000
2442		-37.109375
2443		-31.250000
2444		-33.203125
2445		-27.343750
2446		-29.296875
2447		-23.437500
2448		-29.296875
2449		-19.531250
2450		-25.390625
2451		-17.578125
2452		-21.484375
2453		-11.718750
2454		-19.531250
2455		-9.765625
2456		-15.625000
2457		-5.859375
2458		-11.718750
2459		-3.906250
2460		-5.859375
2461		-1.953125
2462		-3.906250
2463		1.953125
2464		-1.953125
2465		7.812500
2466		3.906250
2467		11.718750
2468		5.859375
2469		13.671875
2470		9.765625
2471		19.531250
2472		13.671875
2473		21.484375
2474		15.625000
2475		25.390625
2476		19.531250
2477		25.390625
2478		25.390625
2479		29.296875
2480		27.343750
2481		35.156250
2482		29.296875
2483		37.109375
2484		31.250000
2485		41.015625
2486		35.156250
2487		44.921875
2488		39.062500
2489		46.875000
2490		41.015625
2491		50.781250
2492		44.921875
2493		50.781250
2494		48.828125
2495		52.734375
2496		50.781250
2497		56.640625
2498		50.781250
2499		60.546875
2500		54.687500
2501		62.500000
2502		56.640625
2503		64.453125
2504		58.593750
2505		66.406250
2506		60.546875
2507		68.359375
2508		62.500000
2509		70.312500
2510		66.406250
2511		70.312500
2512		68.359375
2513		70.312500
2514		68.359375
2515		74.218750
2516		68.359375
2517		76.171875
2518		70.312500
2519		76.171875
2520		70.312500
2521		78.125000
2522		70.312500
2523		78.125000
2524		70.312500
2525		78.125000
2526		72.265625
2527		78.125000
2528		74.218750
2529		78.125000
2530		72.265625
2531		80.078125
2532		72.265625
2533		80.078125
2534		72.265625
2535		80.078125
2536		72.265625
2537		80.078125
2538		72.265625
2539		80.078125
2540		70.312500
2541		78.125000
2542		70.312500
2543		78.125000
2544		70.312500
2545		74.218750
2546		70.312500
2547		74.218750
2548		66.406250
2549		76.171875
2550		66.406250
2551		74.218750
2552		64.453125
2553		72.265625
2554		62.500000
2555		70.312500
2556		60.546875
2557		68.359375
2558		58.593750
2559		66.406250
2560		58.593750
2561		64.453125
2562		56.640625
2563		60.546875
2564		52.734375
2565		58.593750
2566		50.781250
2567		58.593750
2568		46.875000
2569		56.640625
2570		44.921875
2571		52.734375
2572		42.968750
2573		50.781250
2574		39.062500
2575		48.828125
2576		37.109375
2577		44.921875
2578		35.156250
2579		39.062500
2580		31.250000
2581		37.109375
2582		27.343750
2583		35.156250
2584		21.484375
2585		31.250000
2586		19.531250
2587		29.296875
2588		15.625000
2589		25.390625
2590		11.718750
2591		21.484375
2592		9.765625
2593		19.531250
2594		7.812500
2595		13.671875
2596		3.906250
2597		9.765625
2598		0.000000
2599		5.859375
2600		-3.906250
2601		3.906250
2602		-7.812500
2603		1.953125
2604		-11.718750
2605		-1.953125
2606		-15.625000
2607		-5.859375
2608		-19.531250
2609		-9.765625
2610		-19.531250
2611		-13.671875
2612		-23.437500
2613		-17.578125
2614		-29.296875
2615		-21.484375
2616		-31.250000
2617		-21.484375
2618		-35.156250
2619		-25.390625
2620		-39.062500
2621		-29.296875
2622		-41.015625
2623		-31.250000
2624		-42.968750
2625		-35.156250
2626		-44.921875
2627		-37.109375
2628		-46.875000
2629		-42.968750
2630		-48.828125
2631		-44.921875
2632		-52.734375
2633		-46.875000
2634		-54.687500
2635		-48.828125
2636		-58.593750
2637		-50.781250
2638		-60.546875
2639		-50.781250
2640		-60.546875
2641		-52.734375
2642		-62.500000
2643		-54.687500
2644		-62.500000
2645		-56.640625
2646		-62.500000
2647		-60.546875
2648		-66.406250
2649		-58.593750
2650		-66.406250
2651		-58.593750
2652		-68.359375
2653		-60.546875
2654		-68.359375
2655		-60.546875
2656		-68.359375
2657		-60.546875
2658		-68.359375
2659		-60.546875
2660		-68.359375
2661		-60.546875
2662		-64.453125
2663		-62.500000
2664		-64.453125
2665		-60.546875
2666		-66.406250
2667		-58.593750
2668		-64.453125
2669		-58.593750
2670		-64.453125
2671		-56.640625
2672		-62.500000
2673		-56.640625
2674		-62.500000
2675		-54.687500
2676		-60.546875
2677		-52.734375
2678		-56.640625
2679		-52.734375
2680		-54.687500
2681		-50.781250
2682		-54.687500
2683		-46.875000
2684		-52.734375
2685		-44.921875
2686		-50.781250
2687		-42.968750
2688		-48.828125
2689		-39.062500
2690		-44.921875
2691		-37.109375
2692		-42.968750
2693		-33.203125
2694		-39.062500
2695		-33.203125
2696		-35.156250
2697		-31.250000
2698		-31.250000
2699		-25.390625
2700		-31.250000
2701		-21.484375
2702		-27.343750
2703		-17.578125
2704		-23.437500
2705		-15.625000
2706		-19.531250
2707		-11.718750
2708		-17.578125
2709		-7.812500
2710		-15.625000
2711		-5.859375
2712		-7.812500
2713		-3.906250
2714		-5.859375
2715		0.000000
2716		-1.953125
2717		5.859375
2718		0.000000
2719		7.812500
2720		3.906250
2721		11.718750
2722		5.859375
2723		15.625000
2724		9.765625
2725		19.531250
2726		13.671875
2727		23.437500
2728		17.578125
2729		23.437500
2730		21.484375
2731		27.343750
2732		25.390625
2733		33.203125
2734		27.343750
2735		37.109375
2736		31.250000
2737		39.062500
2738		33.203125
2739		42.968750
2740		37.109375
2741		44.921875
2742		39.062500
2743		48.828125
2744		41.015625
2745		48.828125
2746		46.875000
2747		50.781250
2748		48.828125
2749		54.687500
2750		50.781250
2751		58.593750
2752		52.734375
2753		60.546875
2754		54.687500
2755		62.500000
2756		56.640625
2757		64.453125
2758		58.593750
2759		66.406250
2760		60.546875
2761		68.359375
2762		64.453125
2763		68.359375
2764		66.406250
2765		70.312500
2766		66.406250
2767		74.218750
2768		66.406250
2769		74.218750
2770		68.359375
2771		76.171875
2772		70.312500
2773		76.171875
2774		70.312500
2775		78.125000
2776		70.312500
2777		78.125000
2778		72.265625
2779		78.125000
2780		74.218750
2781		76.171875
2782		74.218750
2783		80.078125
2784		72.265625
2785		80.078125
2786		72.265625
2787		80.078125
2788		72.265625
2789		80.078125
2790		72.265625
2791		80.078125
2792		72.265625
2793		78.125000
2794		70.312500
2795		78.125000
2796		72.265625
2797		74.218750
2798		72.265625
2799		74.218750
2800		68.359375
2801		74.218750
2802		66.406250
2803		74.218750
2804		64.453125
2805		72.265625
2806		64.453125
2807		72.265625
2808		62.500000
2809		70.312500
2810		60.546875
2811		68.359375
2812		60.546875
2813		66.406250
2814		58.593750
2815		62.500000
2816		54.687500
2817		60.546875
2818		50.781250
2819		60.546875
2820		48.828125
2821		56.640625
2822		44.921875
2823		54.687500
2824		42.968750
2825		52.734375
2826		39.062500
2827		48.828125
2828		39.062500
2829		46.875000
2830		37.109375
2831		41.015625
2832		33.203125
2833		39.062500
2834		27.343750
2835		37.109375
2836		25.390625
2837		35.156250
2838		21.484375
2839		31.250000
2840		17.578125
2841		27.343750
2842		15.625000
2843		23.437500
2844		11.718750
2845		21.484375
2846		9.765625
2847		15.625000
2848		5.859375
2849		11.718750
2850		1.953125
2851		7.812500
2852		-3.906250
2853		5.859375
2854		-5.859375
2855		1.953125
2856		-9.765625
2857		0.000000
2858		-13.671875
2859		-3.906250
2860		-15.625000
2861		-7.812500
2862		-17.578125
2863		-11.718750
2864		-21.484375
2865		-15.625000
2866		-25.390625
2867		-19.531250
2868		-31.250000
2869		-21.484375
2870		-33.203125
2871		-23.437500
2872		-35.156250
2873		-27.343750
2874		-39.062500
2875		-31.250000
2876		-42.968750
2877		-33.203125
2878		-44.921875
2879		-37.109375
2880		-44.921875
2881		-41.015625
2882		-46.875000
2883		-42.968750
2884		-52.734375
2885		-44.921875
2886		-54.687500
2887		-46.875000
2888		-56.640625
2889		-48.828125
2890		-58.593750
2891		-50.781250
2892		-60.546875
2893		-52.734375
2894		-62.500000
2895		-52.734375
2896		-62.500000
2897		-54.687500
2898		-62.500000
2899		-58.593750
2900		-66.406250
2901		-58.593750
2902		-66.406250
2903		-58.593750
2904		-66.406250
2905		-60.546875
2906		-66.406250
2907		-60.546875
2908		-68.359375
2909		-60.546875
2910		-68.359375
2911		-60.546875
2912		-68.359375
2913		-60.546875
2914		-64.453125
2915		-62.500000
2916		-64.453125
2917		-62.500000
2918		-66.406250
2919		-60.546875
2920		-66.406250
2921		-58.593750
2922		-66.406250
2923		-58.593750
2924		-64.453125
2925		-56.640625
2926		-62.500000
2927		-56.640625
2928		-62.500000
2929		-54.687500
2930		-60.546875
2931		-54.687500
2932		-56.640625
2933		-52.734375
2934		-54.687500
2935		-48.828125
2936		-54.687500
2937		-46.875000
2938		-52.734375
2939		-44.921875
2940		-48.828125
2941		-41.015625
2942		-46.875000
2943		-39.062500
2944		-44.921875
2945		-35.156250
2946		-41.015625
2947		-35.156250
2948		-37.109375
2949		-33.203125
2950		-33.203125
2951		-27.343750
2952		-33.203125
2953		-23.437500
2954		-29.296875
2955		-19.531250
2956		-25.390625
2957		-17.578125
2958		-23.437500
2959		-13.671875
2960		-19.531250
2961		-9.765625
2962		-15.625000
2963		-7.812500
2964		-11.718750
2965		-5.859375
2966		-7.812500
2967		-1.953125
2968		-3.906250
2969		3.906250
2970		-1.953125
2971		7.812500
2972		0.000000
2973		9.765625
2974		3.906250
2975		13.671875
2976		7.812500
2977		17.578125
2978		11.718750
2979		21.484375
2980		13.671875
2981		21.484375
2982		19.531250
2983		25.390625
2984		23.437500
2985		29.296875
2986		25.390625
2987		33.203125
2988		29.296875
2989		37.109375
2990		31.250000
2991		39.062500
2992		35.156250
2993		42.968750
2994		37.109375
2995		46.875000
2996		41.015625
2997		48.828125
2998		44.921875
2999		50.781250
3000		48.828125
3001		52.734375
3002		48.828125
3003		56.640625
3004		50.781250
3005		58.593750
3006		54.687500
3007		62.500000
3008		54.687500
3009		64.453125
3010		56.640625
3011		66.406250
3012		60.546875
3013		68.359375
3014		62.500000
3015		68.359375
3016		66.406250
3017		68.359375
3018		66.406250
3019		72.265625
3020		66.406250
3021		74.218750
3022		68.359375
3023		74.218750
3024		68.359375
3025		76.171875
3026		70.312500
3027		76.171875
3028		70.312500
3029		78.125000
3030		72.265625
3031		78.125000
3032		74.218750
3033		76.171875
3034		74.218750
3035		78.125000
3036		72.265625
3037		80.078125
3038		72.265625
3039		80.078125
3040		72.265625
3041		80.078125
3042		72.265625
3043		80.078125
3044		72.265625
3045		80.078125
3046		70.312500
3047		78.125000
3048		72.265625
3049		76.171875
3050		72.265625
3051		74.218750
3052		68.359375
3053		76.171875
3054		68.359375
3055		76.171875
3056		66.406250
3057		74.218750
3058		64.453125
3059		72.265625
3060		62.500000
3061		70.312500
3062		60.546875
3063		70.312500
3064		60.546875
3065		68.359375
3066		58.593750
3067		62.500000
3068		54.687500
3069		62.500000
3070		52.734375
3071		60.546875
3072		50.781250
3073		58.593750
3074		46.875000
3075		56.640625
3076		44.921875
3077		52.734375
3078		42.968750
3079		50.781250
3080		41.015625
3081		48.828125
3082		39.062500
3083		42.968750
3084		35.156250
3085		39.062500
3086		29.296875
3087		39.062500
3088		27.343750
3089		37.109375
3090		23.437500
3091		33.203125
3092		19.531250
3093		29.296875
3094		15.625000
3095		27.343750
3096		13.671875
3097		23.437500
3098		11.718750
3099		19.531250
3100		7.812500
3101		13.671875
3102		1.953125
3103		9.765625
3104		0.000000
3105		7.812500
3106		-3.906250
3107		3.906250
3108		-7.812500
3109		1.953125
3110		-11.718750
3111		-1.953125
3112		-13.671875
3113		-5.859375
3114		-17.578125
3115		-9.765625
3116		-19.531250
3117		-13.671875
3118		-23.437500
3119		-17.578125
3120		-27.343750
3121		-19.531250
3122		-31.250000
3123		-21.484375
3124		-33.203125
3125		-25.390625
3126		-37.109375
3127		-27.343750
3128		-41.015625
3129		-31.250000
3130		-42.968750
3131		-35.156250
3132		-44.921875
3133		-39.062500
3134		-46.875000
3135		-42.968750
3136		-50.781250
3137		-42.968750
3138		-52.734375
3139		-44.921875
3140		-54.687500
3141		-46.875000
3142		-58.593750
3143		-48.828125
3144		-58.593750
3145		-50.781250
3146		-60.546875
3147		-52.734375
3148		-60.546875
3149		-54.687500
3150		-60.546875
3151		-58.593750
3152		-64.453125
3153		-58.593750
3154		-66.406250
3155		-58.593750
3156		-66.406250
3157		-60.546875
3158		-66.406250
3159		-60.546875
3160		-68.359375
3161		-60.546875
3162		-68.359375
3163		-60.546875
3164		-68.359375
3165		-60.546875
3166		-66.406250
3167		-62.500000
3168		-66.406250
3169		-60.546875
3170		-68.359375
3171		-60.546875
3172		-66.406250
3173		-58.593750
3174		-66.406250
3175		-58.593750
3176		-64.453125
3177		-56.640625
3178		-64.453125
3179		-56.640625
3180		-62.500000
3181		-54.687500
3182		-60.546875
3183		-54.687500
3184		-56.640625
3185		-52.734375
3186		-56.640625
3187		-50.781250
3188		-56.640625
3189		-46.875000
3190		-52.734375
3191		-44.921875
3192		-50.781250
3193		-42.968750
3194		-48.828125
3195		-41.015625
3196		-46.875000
3197		-39.062500
3198		-42.968750
3199		-37.109375
3200		-39.062500
3201		-35.156250
3202		-35.156250
3203		-29.296875
3204		-35.156250
3205		-25.390625
3206		-31.250000
3207		-23.437500
3208		-27.343750
3209		-19.531250
3210		-25.390625
3211		-15.625000
3212		-21.484375
3213		-13.671875
3214		-17.578125
3215		-9.765625
3216		-13.671875
3217		-7.812500
3218		-9.765625
3219		-3.906250
3220		-7.812500
3221		0.000000
3222		-5.859375
3223		3.906250
3224		-1.953125
3225		7.812500
3226		1.953125
3227		11.718750
3228		5.859375
3229		13.671875
3230		7.812500
3231		19.531250
3232		11.718750
3233		19.531250
3234		17.578125
3235		23.437500
3236		21.484375
3237		29.296875
3238		23.437500
3239		31.250000
3240		27.343750
3241		35.156250
3242		29.296875
3243		39.062500
3244		33.203125
3245		41.015625
3246		35.156250
3247		44.921875
3248		39.062500
3249		46.875000
3250		42.968750
3251		48.828125
3252		46.875000
3253		50.781250
3254		46.875000
3255		54.687500
3256		48.828125
3257		58.593750
3258		50.781250
3259		60.546875
3260		54.687500
3261		62.500000
3262		56.640625
3263		64.453125
3264		58.593750
3265		66.406250
3266		60.546875
3267		66.406250
3268		64.453125
3269		68.359375
3270		64.453125
3271		72.265625
3272		66.406250
3273		74.218750
3274		66.406250
3275		74.218750
3276		68.359375
3277		76.171875
3278		68.359375
3279		76.171875
3280		70.312500
3281		78.125000
3282		72.265625
3283		78.125000
3284		74.218750
3285		76.171875
3286		74.218750
3287		78.125000
3288		72.265625
3289		80.078125
3290		72.265625
3291		80.078125
3292		72.265625
3293		80.078125
3294		72.265625
3295		80.078125
3296		72.265625
3297		80.078125
3298		72.265625
3299		78.125000
3300		74.218750
3301		76.171875
3302		72.265625
3303		76.171875
3304		70.312500
3305		76.171875
3306		68.359375
3307		76.171875
3308		68.359375
3309		74.218750
3310		66.406250
3311		72.265625
3312		64.453125
3313		72.265625
3314		62.500000
3315		70.312500
3316		62.500000
3317		68.359375
3318		60.546875
3319		64.453125
3320		56.640625
3321		62.500000
3322		54.687500
3323		62.500000
3324		52.734375
3325		60.546875
3326		48.828125
3327		58.593750
3328		46.875000
3329		54.687500
3330		42.968750
3331		52.734375
3332		41.015625
3333		50.781250
3334		39.062500
3335		44.921875
3336		37.109375
3337		41.015625
3338		33.203125
3339		41.015625
3340		29.296875
3341		37.109375
3342		25.390625
3343		35.156250
3344		23.437500
3345		31.250000
3346		19.531250
3347		27.343750
3348		15.625000
3349		23.437500
3350		13.671875
3351		21.484375
3352		11.718750
3353		15.625000
3354		5.859375
3355		11.718750
3356		1.953125
3357		9.765625
3358		-1.953125
3359		5.859375
3360		-5.859375
3361		3.906250
3362		-7.812500
3363		0.000000
3364		-11.718750
3365		-1.953125
3366		-13.671875
3367		-5.859375
3368		-17.578125
3369		-11.718750
3370		-21.484375
3371		-15.625000
3372		-27.343750
3373		-17.578125
3374		-29.296875
3375		-21.484375
3376		-33.203125
3377		-23.437500
3378		-35.156250
3379		-25.390625
3380		-39.062500
3381		-29.296875
3382		-41.015625
3383		-33.203125
3384		-41.015625
3385		-37.109375
3386		-44.921875
3387		-41.015625
3388		-48.828125
3389		-41.015625
3390		-52.734375
3391		-42.968750
3392		-54.687500
3393		-44.921875
3394		-56.640625
3395		-46.875000
3396		-56.640625
3397		-50.781250
3398		-60.546875
3399		-52.734375
3400		-60.546875
3401		-52.734375
3402		-60.546875
3403		-56.640625
3404		-64.453125
3405		-56.640625
3406		-64.453125
3407		-58.593750
3408		-66.406250
3409		-58.593750
3410		-66.406250
3411		-58.593750
3412		-68.359375
3413		-60.546875
3414		-68.359375
3415		-60.546875
3416		-68.359375
3417		-60.546875
3418		-66.406250
3419		-62.500000
3420		-66.406250
3421		-62.500000
3422		-68.359375
3423		-60.546875
3424		-66.406250
3425		-60.546875
3426		-66.406250
3427		-58.593750
3428		-66.406250
3429		-58.593750
3430		-64.453125
3431		-56.640625
3432		-62.500000
3433		-56.640625
3434		-62.500000
3435		-54.687500
3436		-58.593750
3437		-54.687500
3438		-56.640625
3439		-50.781250
3440		-56.640625
3441		-48.828125
3442		-54.687500
3443		-46.875000
3444		-52.734375
3445		-42.968750
3446		-50.781250
3447		-41.015625
3448		-48.828125
3449		-39.062500
3450		-44.921875
3451		-37.109375
3452		-39.062500
3453		-35.156250
3454		-37.109375
3455		-33.203125
3456		-37.109375
3457		-27.343750
3458		-33.203125
3459		-23.437500
3460		-29.296875
3461		-21.484375
3462		-27.343750
3463		-17.578125
3464		-23.437500
3465		-13.671875
3466		-19.531250
3467		-11.718750
3468		-15.625000
3469		-9.765625
3470		-11.718750
3471		-5.859375
3472		-7.812500
3473		-1.953125
3474		-5.859375
3475		1.953125
3476		-1.953125
3477		5.859375
3478		1.953125
3479		7.812500
3480		5.859375
3481		11.718750
3482		7.812500
3483		15.625000
3484		11.718750
3485		17.578125
3486		15.625000
3487		21.484375
3488		19.531250
3489		25.390625
3490		21.484375
3491		29.296875
3492		23.437500
3493		33.203125
3494		27.343750
3495		37.109375
3496		31.250000
3497		39.062500
3498		33.203125
3499		42.968750
3500		37.109375
3501		44.921875
3502		41.015625
3503		46.875000
3504		44.921875
3505		48.828125
3506		46.875000
3507		52.734375
3508		46.875000
3509		56.640625
3510		50.781250
3511		58.593750
3512		52.734375
3513		62.500000
3514		54.687500
3515		64.453125
3516		56.640625
3517		64.453125
3518		58.593750
3519		66.406250
3520		64.453125
3521		66.406250
3522		64.453125
3523		70.312500
3524		64.453125
3525		72.265625
3526		66.406250
3527		74.218750
3528		68.359375
3529		74.218750
3530		68.359375
3531		76.171875
3532		70.312500
3533		78.125000
3534		70.312500
3535		78.125000
3536		74.218750
3537		76.171875
3538		74.218750
3539		78.125000
3540		72.265625
3541		80.078125
3542		72.265625
3543		80.078125
3544		72.265625
3545		80.078125
3546		72.265625
3547		80.078125
3548		72.265625
3549		80.078125
3550		72.265625
3551		78.125000
3552		74.218750
3553		76.171875
3554		72.265625
3555		76.171875
3556		70.312500
3557		76.171875
3558		68.359375
3559		76.171875
3560		68.359375
3561		76.171875
3562		66.406250
3563		74.218750
3564		64.453125
3565		72.265625
3566		62.500000
3567		70.312500
3568		62.500000
3569		70.312500
3570		62.500000
3571		64.453125
3572		58.593750
3573		62.500000
3574		54.687500
3575		62.500000
3576		52.734375
3577		62.500000
3578		50.781250
3579		58.593750
3580		48.828125
3581		56.640625
3582		44.921875
3583		54.687500
3584		44.921875
3585		50.781250
3586		41.015625
3587		46.875000
3588		39.062500
3589		42.968750
3590		33.203125
3591		41.015625
3592		31.250000
3593		39.062500
3594		27.343750
3595		37.109375
3596		25.390625
3597		33.203125
3598		21.484375
3599		29.296875
3600		17.578125
3601		25.390625
3602		15.625000
3603		23.437500
3604		11.718750
3605		17.578125
3606		7.812500
3607		13.671875
3608		3.906250
3609		13.671875
3610		0.000000
3611		9.765625
3612		-3.906250
3613		5.859375
3614		-7.812500
3615		1.953125
3616		-9.765625
3617		0.000000
3618		-13.671875
3619		-5.859375
3620		-15.625000
3621		-9.765625
3622		-19.531250
3623		-13.671875
3624		-23.437500
3625		-15.625000
3626		-27.343750
3627		-17.578125
3628		-31.250000
3629		-21.484375
3630		-33.203125
3631		-25.390625
3632		-37.109375
3633		-27.343750
3634		-41.015625
3635		-31.250000
3636		-39.062500
3637		-35.156250
3638		-42.968750
3639		-39.062500
3640		-46.875000
3641		-41.015625
3642		-48.828125
3643		-41.015625
3644		-52.734375
3645		-44.921875
3646		-54.687500
3647		-46.875000
3648		-56.640625
3649		-48.828125
3650		-58.593750
3651		-50.781250
3652		-58.593750
3653		-52.734375
3654		-58.593750
3655		-56.640625
3656		-60.546875
3657		-56.640625
3658		-64.453125
3659		-56.640625
3660		-66.406250
3661		-58.593750
3662		-66.406250
3663		-58.593750
3664		-66.406250
3665		-60.546875
3666		-68.359375
3667		-58.593750
3668		-68.359375
3669		-60.546875
3670		-64.453125
3671		-62.500000
3672		-64.453125
3673		-62.500000
3674		-68.359375
3675		-60.546875
3676		-66.406250
3677		-60.546875
3678		-66.406250
3679		-58.593750
3680		-66.406250
3681		-58.593750
3682		-64.453125
3683		-56.640625
3684		-62.500000
3685		-56.640625
3686		-62.500000
3687		-56.640625
3688		-58.593750
3689		-54.687500
3690		-58.593750
3691		-52.734375
3692		-56.640625
3693		-48.828125
3694		-54.687500
3695		-46.875000
3696		-52.734375
3697		-44.921875
3698		-50.781250
3699		-42.968750
3700		-48.828125
3701		-41.015625
3702		-44.921875
3703		-39.062500
3704		-41.015625
3705		-37.109375
3706		-39.062500
3707		-35.156250
3708		-37.109375
3709		-29.296875
3710		-35.156250
3711		-27.343750
3712		-31.250000
3713		-23.437500
3714		-27.343750
3715		-19.531250
3716		-25.390625
3717		-17.578125
3718		-21.484375
3719		-13.671875
3720		-17.578125
3721		-11.718750
3722		-13.671875
3723		-7.812500
3724		-9.765625
3725		-3.906250
3726		-7.812500
3727		0.000000
3728		-3.906250
3729		3.906250
3730		-1.953125
3731		7.812500
3732		1.953125
3733		11.718750
3734		7.812500
3735		15.625000
3736		11.718750
3737		17.578125
3738		15.625000
3739		19.531250
3740		17.578125
3741		23.437500
3742		19.531250
3743		27.343750
3744		23.437500
3745		31.250000
3746		27.343750
3747		35.156250
3748		29.296875
3749		37.109375
3750		31.250000
3751		39.062500
3752		35.156250
3753		42.968750
3754		41.015625
3755		44.921875
3756		42.968750
3757		46.875000
3758		46.875000
3759		50.781250
3760		48.828125
3761		54.687500
3762		48.828125
3763		56.640625
3764		54.687500
3765		58.593750
3766		54.687500
3767		60.546875
3768		58.593750
3769		62.500000
3770		60.546875
3771		64.453125
3772		62.500000
3773		66.406250
3774		64.453125
3775		68.359375
3776		66.406250
3777		70.312500
3778		66.406250
3779		72.265625
3780		68.359375
3781		72.265625
3782		68.359375
3783		74.218750
3784		70.312500
3785		76.171875
3786		72.265625
3787		76.171875
3788		74.218750
3789		76.171875
3790		74.218750
3791		76.171875
3792		74.218750
3793		78.125000
3794		74.218750
3795		78.125000
3796		74.218750
3797		78.125000
3798		74.218750
3799		78.125000
3800		76.171875
3801		78.125000
3802		74.218750
3803		78.125000
3804		74.218750
3805		78.125000
3806		74.218750
3807		76.171875
3808		72.265625
3809		76.171875
3810		72.265625
3811		76.171875
3812		70.312500
3813		74.218750
3814		70.312500
3815		74.218750
3816		68.359375
3817		72.265625
3818		66.406250
3819		70.312500
3820		64.453125
3821		68.359375
3822		62.500000
3823		66.406250
3824		60.546875
3825		64.453125
3826		58.593750
3827		64.453125
3828		56.640625
3829		60.546875
3830		54.687500
3831		58.593750
3832		52.734375
3833		56.640625
3834		48.828125
3835		54.687500
3836		44.921875
3837		50.781250
3838		44.921875
3839		48.828125
3840		41.015625
3841		44.921875
3842		37.109375
3843		42.968750
3844		35.156250
3845		41.015625
3846		31.250000
3847		37.109375
3848		29.296875
3849		33.203125
3850		25.390625
3851		31.250000
3852		21.484375
3853		27.343750
3854		19.531250
3855		25.390625
3856		15.625000
3857		19.531250
3858		11.718750
3859		17.578125
3860		7.812500
3861		13.671875
3862		3.906250
3863		9.765625
3864		1.953125
3865		5.859375
3866		-1.953125
3867		3.906250
3868		-5.859375
3869		0.000000
3870		-9.765625
3871		-3.906250
3872		-11.718750
3873		-7.812500
3874		-15.625000
3875		-11.718750
3876		-19.531250
3877		-13.671875
3878		-23.437500
3879		-17.578125
3880		-25.390625
3881		-21.484375
3882		-29.296875
3883		-25.390625
3884		-33.203125
3885		-27.343750
3886		-35.156250
3887		-29.296875
3888		-39.062500
3889		-33.203125
3890		-41.015625
3891		-37.109375
3892		-44.921875
3893		-39.062500
3894		-46.875000
3895		-41.015625
3896		-48.828125
3897		-44.921875
3898		-50.781250
3899		-46.875000
3900		-52.734375
3901		-48.828125
3902		-54.687500
3903		-50.781250
3904		-56.640625
3905		-52.734375
3906		-58.593750
3907		-54.687500
3908		-60.546875
3909		-56.640625
3910		-62.500000
3911		-58.593750
3912		-62.500000
3913		-58.593750
3914		-62.500000
3915		-60.546875
3916		-64.453125
3917		-60.546875
3918		-64.453125
3919		-60.546875
3920		-66.406250
3921		-62.500000
3922		-64.453125
3923		-62.500000
3924		-66.406250
3925		-62.500000
3926		-66.406250
3927		-62.500000
3928		-64.453125
3929		-62.500000
3930		-64.453125
3931		-60.546875
3932		-64.453125
3933		-60.546875
3934		-64.453125
3935		-58.593750
3936		-62.500000
3937		-58.593750
3938		-60.546875
3939		-58.593750
3940		-58.593750
3941		-56.640625
3942		-58.593750
3943		-54.687500
3944		-56.640625
3945		-52.734375
3946		-54.687500
3947		-50.781250
3948		-52.734375
3949		-48.828125
3950		-50.781250
3951		-44.921875
3952		-48.828125
3953		-42.968750
3954		-44.921875
3955		-41.015625
3956		-42.968750
3957		-39.062500
3958		-41.015625
3959		-35.156250
3960		-39.062500
3961		-33.203125
3962		-35.156250
3963		-29.296875
3964		-31.250000
3965		-27.343750
3966		-27.343750
3967		-23.437500
3968		-25.390625
3969		-19.531250
3970		-21.484375
3971		-15.625000
3972		-19.531250
3973		-13.671875
3974		-15.625000
3975		-9.765625
3976		-11.718750
3977		-5.859375
3978		-7.812500
3979		-3.906250
3980		-5.859375
3981		0.000000
3982		-1.953125
3983		3.906250
3984		1.953125
3985		7.812500
3986		5.859375
3987		11.718750
3988		7.812500
3989		13.671875
3990		13.671875
3991		17.578125
3992		15.625000
3993		21.484375
3994		19.531250
3995		23.437500
3996		21.484375
3997		27.343750
3998		25.390625
3999		31.250000
4000		29.296875
4001		35.156250
4002		33.203125
4003		37.109375
4004		35.156250
4005		41.015625
4006		39.062500
4007		42.968750
4008		41.015625
4009		46.875000
4010		44.921875
4011		48.828125
4012		46.875000
4013		52.734375
4014		50.781250
4015		54.687500
4016		52.734375
4017		56.640625
4018		54.687500
4019		60.546875
4020		56.640625
4021		60.546875
4022		60.546875
4023		62.500000
4024		62.500000
4025		64.453125
4026		64.453125
4027		68.359375
4028		64.453125
4029		68.359375
4030		66.406250
4031		70.312500
4032		68.359375
4033		72.265625
4034		70.312500
4035		74.218750
4036		70.312500
4037		74.218750
4038		72.265625
4039		76.171875
4040		74.218750
4041		76.171875
4042		74.218750
4043		76.171875
4044		74.218750
4045		78.125000
4046		74.218750
4047		78.125000
4048		74.218750
4049		78.125000
4050		74.218750
4051		78.125000
4052		74.218750
4053		78.125000
4054		74.218750
4055		78.125000
4056		74.218750
4057		78.125000
4058		74.218750
4059		76.171875
4060		74.218750
4061		76.171875
4062		72.265625
4063		76.171875
4064		72.265625
4065		74.218750
4066		70.312500
4067		74.218750
4068		68.359375
4069		72.265625
4070		68.359375
4071		72.265625
4072		66.406250
4073		70.312500
4074		64.453125
4075		68.359375
4076		62.500000
4077		66.406250
4078		60.546875
4079		64.453125
4080		58.593750
4081		62.500000
4082		56.640625
4083		60.546875
4084		52.734375
4085		58.593750
4086		50.781250
4087		56.640625
4088		48.828125
4089		52.734375
4090		46.875000
4091		50.781250
4092		42.968750
4093		48.828125
4094		41.015625
4095		44.921875
4096		37.109375
4097		42.968750
4098		35.156250
4099		39.062500
4100		31.250000
4101		37.109375
4102		27.343750
4103		33.203125
4104		25.390625
4105		29.296875
4106		21.484375
4107		27.343750
4108		17.578125
4109		23.437500
4110		13.671875
4111		19.531250
4112		9.765625
4113		15.625000
4114		7.812500
4115		11.718750
4116		3.906250
4117		7.812500
4118		0.000000
4119		5.859375
4120		-3.906250
4121		1.953125
4122		-7.812500
4123		-1.953125
4124		-9.765625
4125		-5.859375
4126		-13.671875
4127		-9.765625
4128		-17.578125
4129		-11.718750
4130		-19.531250
4131		-15.625000
4132		-23.437500
4133		-17.578125
4134		-27.343750
4135		-21.484375
4136		-29.296875
4137		-25.390625
4138		-33.203125
4139		-29.296875
4140		-35.156250
4141		-31.250000
4142		-39.062500
4143		-35.156250
4144		-42.968750
4145		-37.109375
4146		-44.921875
4147		-39.062500
4148		-46.875000
4149		-42.968750
4150		-48.828125
4151		-44.921875
4152		-50.781250
4153		-46.875000
4154		-54.687500
4155		-48.828125
4156		-56.640625
4157		-50.781250
4158		-56.640625
4159		-52.734375
4160		-58.593750
4161		-54.687500
4162		-60.546875
4163		-54.687500
4164		-60.546875
4165		-56.640625
4166		-62.500000
4167		-58.593750
4168		-62.500000
4169		-60.546875
4170		-64.453125
4171		-60.546875
4172		-64.453125
4173		-60.546875
4174		-64.453125
4175		-62.500000
4176		-64.453125
4177		-62.500000
4178		-66.406250
4179		-62.500000
4180		-64.453125
4181		-62.500000
4182		-64.453125
4183		-60.546875
4184		-64.453125
4185		-60.546875
4186		-62.500000
4187		-60.546875
4188		-62.500000
4189		-58.593750
4190		-62.500000
4191		-58.593750
4192		-60.546875
4193		-56.640625
4194		-58.593750
4195		-54.687500
4196		-56.640625
4197		-52.734375
4198		-54.687500
4199		-50.781250
4200		-54.687500
4201		-48.828125
4202		-52.734375
4203		-46.875000
4204		-48.828125
4205		-44.921875
4206		-46.875000
4207		-41.015625
4208		-44.921875
4209		-39.062500
4210		-41.015625
4211		-37.109375
4212		-39.062500
4213		-35.156250
4214		-35.156250
4215		-31.250000
4216		-33.203125
4217		-29.296875
4218		-29.296875
4219		-25.390625
4220		-27.343750
4221		-21.484375
4222		-23.437500
4223		-17.578125
4224		-19.531250
4225		-15.625000
4226		-17.578125
4227		-11.718750
4228		-13.671875
4229		-7.812500
4230		-9.765625
4231		-3.906250
4232		-5.859375
4233		-1.953125
4234		-3.906250
4235		1.953125
4236		0.000000
4237		5.859375
4238		3.906250
4239		9.765625
4240		5.859375
4241		11.718750
4242		11.718750
4243		15.625000
4244		13.671875
4245		19.531250
4246		17.578125
4247		23.437500
4248		21.484375
4249		25.390625
4250		23.437500
4251		29.296875
4252		27.343750
4253		33.203125
4254		31.250000
4255		35.156250
4256		33.203125
4257		39.062500
4258		35.156250
4259		41.015625
4260		41.015625
4261		44.921875
4262		42.968750
4263		46.875000
4264		44.921875
4265		50.781250
4266		48.828125
4267		52.734375
4268		50.781250
4269		56.640625
4270		54.687500
4271		58.593750
4272		54.687500
4273		60.546875
4274		56.640625
4275		62.500000
4276		60.546875
4277		64.453125
4278		62.500000
4279		66.406250
4280		64.453125
4281		68.359375
4282		66.406250
4283		68.359375
4284		68.359375
4285		72.265625
4286		70.312500
4287		72.265625
4288		70.312500
4289		74.218750
4290		72.265625
4291		76.171875
4292		72.265625
4293		76.171875
4294		74.218750
4295		76.171875
4296		74.218750
4297		78.125000
4298		74.218750
4299		78.125000
4300		74.218750
4301		78.125000
4302		76.171875
4303		78.125000
4304		74.218750
4305		78.125000
4306		76.171875
4307		78.125000
4308		76.171875
4309		78.125000
4310		76.171875
4311		78.125000
4312		74.218750
4313		76.171875
4314		72.265625
4315		76.171875
4316		72.265625
4317		76.171875
4318		72.265625
4319		74.218750
4320		70.312500
4321		74.218750
4322		68.359375
4323		72.265625
4324		66.406250
4325		70.312500
4326		66.406250
4327		70.312500
4328		64.453125
4329		68.359375
4330		62.500000
4331		66.406250
4332		60.546875
4333		64.453125
4334		58.593750
4335		62.500000
4336		54.687500
4337		58.593750
4338		52.734375
4339		56.640625
4340		50.781250
4341		54.687500
4342		48.828125
4343		52.734375
4344		44.921875
4345		48.828125
4346		42.968750
4347		46.875000
4348		39.062500
4349		44.921875
4350		37.109375
4351		41.015625
4352		33.203125
4353		39.062500
4354		29.296875
4355		35.156250
4356		27.343750
4357		31.250000
4358		23.437500
4359		27.343750
4360		19.531250
4361		25.390625
4362		15.625000
4363		21.484375
4364		11.718750
4365		17.578125
4366		9.765625
4367		13.671875
4368		5.859375
4369		11.718750
4370		1.953125
4371		7.812500
4372		-1.953125
4373		3.906250
4374		-3.906250
4375		0.000000
4376		-7.812500
4377		-3.906250
4378		-11.718750
4379		-5.859375
4380		-15.625000
4381		-9.765625
4382		-17.578125
4383		-13.671875
4384		-21.484375
4385		-15.625000
4386		-25.390625
4387		-19.531250
4388		-29.296875
4389		-21.484375
4390		-31.250000
4391		-27.343750
4392		-33.203125
4393		-29.296875
4394		-37.109375
4395		-33.203125
4396		-41.015625
4397		-35.156250
4398		-42.968750
4399		-39.062500
4400		-44.921875
4401		-41.015625
4402		-46.875000
4403		-42.968750
4404		-50.781250
4405		-44.921875
4406		-52.734375
4407		-48.828125
4408		-54.687500
4409		-50.781250
4410		-56.640625
4411		-52.734375
4412		-56.640625
4413		-54.687500
4414		-58.593750
4415		-54.687500
4416		-60.546875
4417		-56.640625
4418		-62.500000
4419		-58.593750
4420		-62.500000
4421		-58.593750
4422		-64.453125
4423		-60.546875
4424		-64.453125
4425		-60.546875
4426		-64.453125
4427		-60.546875
4428		-64.453125
4429		-62.500000
4430		-66.406250
4431		-60.546875
4432		-66.406250
4433		-62.500000
4434		-64.453125
4435		-62.500000
4436		-64.453125
4437		-60.546875
4438		-64.453125
4439		-60.546875
4440		-62.500000
4441		-58.593750
4442		-62.500000
4443		-58.593750
4444		-60.546875
4445		-58.593750
4446		-58.593750
4447		-54.687500
4448		-58.593750
4449		-54.687500
4450		-56.640625
4451		-52.734375
4452		-54.687500
4453		-50.781250
4454		-52.734375
4455		-48.828125
4456		-50.781250
4457		-46.875000
4458		-48.828125
4459		-42.968750
4460		-44.921875
4461		-41.015625
4462		-42.968750
4463		-39.062500
4464		-41.015625
4465		-35.156250
4466		-37.109375
4467		-33.203125
4468		-35.156250
4469		-29.296875
4470		-31.250000
4471		-27.343750
4472		-29.296875
4473		-23.437500
4474		-25.390625
4475		-21.484375
4476		-23.437500
4477		-17.578125
4478		-19.531250
4479		-13.671875
4480		-15.625000
4481		-9.765625
4482		-11.718750
4483		-7.812500
4484		-9.765625
4485		-3.906250
4486		-5.859375
4487		0.000000
4488		-1.953125
4489		3.906250
4490		1.953125
4491		5.859375
4492		5.859375
4493		9.765625
4494		7.812500
4495		13.671875
4496		11.718750
4497		17.578125
4498		15.625000
4499		19.531250
4500		19.531250
4501		25.390625
4502		21.484375
4503		27.343750
4504		25.390625
4505		31.250000
4506		29.296875
4507		33.203125
4508		31.250000
4509		37.109375
4510		35.156250
4511		39.062500
4512		39.062500
4513		42.968750
4514		41.015625
4515		44.921875
4516		42.968750
4517		48.828125
4518		46.875000
4519		50.781250
4520		48.828125
4521		54.687500
4522		52.734375
4523		56.640625
4524		54.687500
4525		58.593750
4526		56.640625
4527		60.546875
4528		58.593750
4529		62.500000
4530		60.546875
4531		66.406250
4532		62.500000
4533		66.406250
4534		64.453125
4535		68.359375
4536		66.406250
4537		70.312500
4538		68.359375
4539		72.265625
4540		70.312500
4541		74.218750
4542		70.312500
4543		76.171875
4544		72.265625
4545		74.218750
4546		74.218750
4547		76.171875
4548		74.218750
4549		78.125000
4550		74.218750
4551		78.125000
4552		74.218750
4553		78.125000
4554		74.218750
4555		78.125000
4556		74.218750
4557		78.125000
4558		76.171875
4559		78.125000
4560		74.218750
4561		80.078125
4562		76.171875
4563		78.125000
4564		74.218750
4565		78.125000
4566		74.218750
4567		76.171875
4568		72.265625
4569		76.171875
4570		72.265625
4571		76.171875
4572		70.312500
4573		74.218750
4574		70.312500
4575		72.265625
4576		68.359375
4577		72.265625
4578		66.406250
4579		70.312500
4580		66.406250
4581		68.359375
4582		62.500000
4583		68.359375
4584		62.500000
4585		64.453125
4586		58.593750
4587		64.453125
4588		56.640625
4589		60.546875
4590		54.687500
4591		58.593750
4592		50.781250
4593		56.640625
4594		50.781250
4595		54.687500
4596		46.875000
4597		50.781250
4598		42.968750
4599		48.828125
4600		41.015625
4601		44.921875
4602		37.109375
4603		42.968750
4604		35.156250
4605		39.062500
4606		31.250000
4607		37.109375
4608		29.296875
4609		33.203125
4610		25.390625
4611		29.296875
4612		21.484375
4613		27.343750
4614		17.578125
4615		23.437500
4616		15.625000
4617		21.484375
4618		11.718750
4619		17.578125
4620		7.812500
4621		13.671875
4622		3.906250
4623		9.765625
4624		0.000000
4625		5.859375
4626		-1.953125
4627		1.953125
4628		-5.859375
4629		-1.953125
4630		-9.765625
4631		-3.906250
4632		-13.671875
4633		-7.812500
4634		-15.625000
4635		-11.718750
4636		-19.531250
4637		-15.625000
4638		-23.437500
4639		-17.578125
4640		-25.390625
4641		-21.484375
4642		-29.296875
4643		-25.390625
4644		-31.250000
4645		-27.343750
4646		-35.156250
4647		-31.250000
4648		-39.062500
4649		-33.203125
4650		-41.015625
4651		-35.156250
4652		-42.968750
4653		-39.062500
4654		-46.875000
4655		-41.015625
4656		-48.828125
4657		-44.921875
4658		-50.781250
4659		-46.875000
4660		-52.734375
4661		-48.828125
4662		-54.687500
4663		-50.781250
4664		-56.640625
4665		-52.734375
4666		-58.593750
4667		-54.687500
4668		-58.593750
4669		-56.640625
4670		-60.546875
4671		-56.640625
4672		-62.500000
4673		-58.593750
4674		-62.500000
4675		-60.546875
4676		-64.453125
4677		-60.546875
4678		-64.453125
4679		-60.546875
4680		-64.453125
4681		-62.500000
4682		-64.453125
4683		-62.500000
4684		-64.453125
4685		-62.500000
4686		-66.406250
4687		-62.500000
4688		-64.453125
4689		-60.546875
4690		-64.453125
4691		-60.546875
4692		-64.453125
4693		-60.546875
4694		-62.500000
4695		-58.593750
4696		-60.546875
4697		-58.593750
4698		-60.546875
4699		-56.640625
4700		-58.593750
4701		-56.640625
4702		-58.593750
4703		-54.687500
4704		-56.640625
4705		-52.734375
4706		-52.734375
4707		-48.828125
4708		-52.734375
4709		-46.875000
4710		-48.828125
4711		-44.921875
4712		-46.875000
4713		-42.968750
4714		-44.921875
4715		-41.015625
4716		-42.968750
4717		-37.109375
4718		-39.062500
4719		-35.156250
4720		-37.109375
4721		-31.250000
4722		-35.156250
4723		-29.296875
4724		-31.250000
4725		-25.390625
4726		-27.343750
4727		-23.437500
4728		-25.390625
4729		-19.531250
4730		-21.484375
4731		-15.625000
4732		-17.578125
4733		-11.718750
4734		-15.625000
4735		-9.765625
4736		-11.718750
4737		-5.859375
4738		-7.812500
4739		-1.953125
4740		-3.906250
4741		1.953125
4742		-1.953125
4743		3.906250
4744		3.906250
4745		7.812500
4746		5.859375
4747		11.718750
4748		9.765625
4749		15.625000
4750		13.671875
4751		19.531250
4752		15.625000
4753		21.484375
4754		19.531250
4755		25.390625
4756		23.437500
4757		29.296875
4758		27.343750
4759		31.250000
4760		29.296875
4761		35.156250
4762		33.203125
4763		37.109375
4764		37.109375
4765		41.015625
4766		39.062500
4767		42.968750
4768		42.968750
4769		46.875000
4770		44.921875
4771		48.828125
4772		46.875000
4773		52.734375
4774		50.781250
4775		54.687500
4776		52.734375
4777		58.593750
4778		54.687500
4779		58.593750
4780		58.593750
4781		62.500000
4782		60.546875
4783		64.453125
4784		60.546875
4785		66.406250
4786		64.453125
4787		68.359375
4788		66.406250
4789		68.359375
4790		68.359375
4791		72.265625
4792		68.359375
4793		72.265625
4794		70.312500
4795		74.218750
4796		70.312500
4797		74.218750
4798		72.265625
4799		74.218750
4800		72.265625
4801		78.125000
4802		74.218750
4803		78.125000
4804		74.218750
4805		78.125000
4806		74.218750
4807		78.125000
4808		76.171875
4809		78.125000
4810		76.171875
4811		78.125000
4812		74.218750
4813		78.125000
4814		76.171875
4815		78.125000
4816		74.218750
4817		78.125000
4818		74.218750
4819		78.125000
4820		74.218750
4821		76.171875
4822		72.265625
4823		76.171875
4824		72.265625
4825		76.171875
4826		70.312500
4827		74.218750
4828		68.359375
4829		72.265625
4830		68.359375
4831		70.312500
4832		66.406250
4833		70.312500
4834		64.453125
4835		68.359375
4836		62.500000
4837		66.406250
4838		60.546875
4839		64.453125
4840		58.593750
4841		62.500000
4842		56.640625
4843		60.546875
4844		52.734375
4845		58.593750
4846		50.781250
4847		56.640625
4848		48.828125
4849		52.734375
4850		44.921875
4851		50.781250
4852		42.968750
4853		46.875000
4854		39.062500
4855		44.921875
4856		37.109375
4857		41.015625
4858		33.203125
4859		39.062500
4860		31.250000
4861		35.156250
4862		27.343750
4863		33.203125
4864		23.437500
4865		29.296875
4866		21.484375
4867		25.390625
4868		17.578125
4869		23.437500
4870		13.671875
4871		19.531250
4872		9.765625
4873		15.625000
4874		5.859375
4875		11.718750
4876		3.906250
4877		7.812500
4878		0.000000
4879		3.906250
4880		-3.906250
4881		1.953125
4882		-7.812500
4883		-1.953125
4884		-11.718750
4885		-5.859375
4886		-13.671875
4887		-9.765625
4888		-17.578125
4889		-11.718750
4890		-21.484375
4891		-15.625000
4892		-23.437500
4893		-19.531250
4894		-27.343750
4895		-21.484375
4896		-31.250000
4897		-25.390625
4898		-33.203125
4899		-29.296875
4900		-37.109375
4901		-33.203125
4902		-41.015625
4903		-35.156250
4904		-42.968750
4905		-37.109375
4906		-44.921875
4907		-41.015625
4908		-46.875000
4909		-42.968750
4910		-50.781250
4911		-44.921875
4912		-52.734375
4913		-48.828125
4914		-52.734375
4915		-50.781250
4916		-54.687500
4917		-52.734375
4918		-56.640625
4919		-54.687500
4920		-58.593750
4921		-56.640625
4922		-60.546875
4923		-56.640625
4924		-62.500000
4925		-58.593750
4926		-62.500000
4927		-58.593750
4928		-64.453125
4929		-60.546875
4930		-64.453125
4931		-60.546875
4932		-64.453125
4933		-62.500000
4934		-66.406250
4935		-60.546875
4936		-64.453125
4937		-62.500000
4938		-66.406250
4939		-62.500000
4940		-64.453125
4941		-62.500000
4942		-64.453125
4943		-60.546875
4944		-64.453125
4945		-60.546875
4946		-64.453125
4947		-58.593750
4948		-62.500000
4949		-58.593750
4950		-60.546875
4951		-58.593750
4952		-60.546875
4953		-56.640625
4954		-58.593750
4955		-54.687500
4956		-56.640625
4957		-52.734375
4958		-54.687500
4959		-50.781250
4960		-52.734375
4961		-48.828125
4962		-52.734375
4963		-46.875000
4964		-50.781250
4965		-44.921875
4966		-46.875000
4967		-42.968750
4968		-42.968750
4969		-39.062500
4970		-41.015625
4971		-37.109375
4972		-39.062500
4973		-33.203125
4974		-37.109375
4975		-31.250000
4976		-33.203125
4977		-27.343750
4978		-29.296875
4979		-25.390625
4980		-25.390625
4981		-21.484375
4982		-23.437500
4983		-19.531250
4984		-19.531250
4985		-13.671875
4986		-17.578125
4987		-11.718750
4988		-13.671875
4989		-7.812500
4990		-9.765625
4991		-3.906250
4992		-5.859375
4993		-1.953125
4994		-3.906250
4995		1.953125
4996		0.000000
4997		5.859375
4998		3.906250
4999		9.765625
5000		7.812500
5001		11.718750
5002		9.765625
5003		17.578125
5004		13.671875
5005		19.531250
5006		17.578125
5007		23.437500
5008		21.484375
5009		27.343750
5010		23.437500
5011		29.296875
5012		27.343750
5013		33.203125
5014		31.250000
5015		35.156250
5016		35.156250
5017		39.062500
5018		37.109375
5019		42.968750
5020		41.015625
5021		44.921875
5022		42.968750
5023		48.828125
5024		46.875000
5025		50.781250
5026		48.828125
5027		54.687500
5028		50.781250
5029		54.687500
5030		54.687500
5031		58.593750
5032		56.640625
5033		60.546875
5034		58.593750
5035		62.500000
5036		60.546875
5037		64.453125
5038		62.500000
5039		66.406250
5040		64.453125
5041		68.359375
5042		66.406250
5043		70.312500
5044		68.359375
5045		72.265625
5046		68.359375
5047		72.265625
5048		70.312500
5049		74.218750
5050		72.265625
5051		74.218750
5052		72.265625
5053		76.171875
5054		74.218750
5055		76.171875
5056		74.218750
5057		76.171875
5058		74.218750
5059		78.125000
5060		74.218750
5061		78.125000
5062		74.218750
5063		78.125000
5064		76.171875
5065		78.125000
5066		76.171875
5067		78.125000
5068		74.218750
5069		78.125000
5070		74.218750
5071		78.125000
5072		74.218750
5073		76.171875
5074		72.265625
5075		76.171875
5076		72.265625
5077		74.218750
5078		72.265625
5079		74.218750
5080		68.359375
5081		74.218750
5082		68.359375
5083		72.265625
5084		66.406250
5085		70.312500
5086		64.453125
5087		68.359375
5088		64.453125
5089		68.359375
5090		62.500000
5091		64.453125
5092		58.593750
5093		62.500000
5094		56.640625
5095		62.500000
5096		54.687500
5097		58.593750
5098		52.734375
5099		56.640625
5100		50.781250
5101		54.687500
5102		46.875000
5103		50.781250
5104		44.921875
5105		48.828125
5106		41.015625
5107		46.875000
5108		39.062500
5109		42.968750
5110		35.156250
5111		41.015625
5112		33.203125
5113		37.109375
5114		29.296875
5115		33.203125
5116		25.390625
5117		31.250000
5118		23.437500
5119		27.343750
5120		19.531250
5121		23.437500
5122		15.625000
5123		21.484375
5124		11.718750
5125		17.578125
5126		7.812500
5127		13.671875
5128		5.859375
5129		9.765625
5130		1.953125
5131		7.812500
5132		-1.953125
5133		3.906250
5134		-5.859375
5135		0.000000
5136		-9.765625
5137		-3.906250
5138		-13.671875
5139		-7.812500
5140		-15.625000
5141		-9.765625
5142		-19.531250
5143		-13.671875
5144		-23.437500
5145		-17.578125
5146		-25.390625
5147		-21.484375
5148		-29.296875
5149		-23.437500
5150		-31.250000
5151		-27.343750
5152		-35.156250
5153		-31.250000
5154		-37.109375
5155		-33.203125
5156		-41.015625
5157		-37.109375
5158		-42.968750
5159		-39.062500
5160		-44.921875
5161		-42.968750
5162		-48.828125
5163		-44.921875
5164		-52.734375
5165		-46.875000
5166		-52.734375
5167		-48.828125
5168		-54.687500
5169		-50.781250
5170		-56.640625
5171		-52.734375
5172		-58.593750
5173		-54.687500
5174		-60.546875
5175		-56.640625
5176		-60.546875
5177		-58.593750
5178		-62.500000
5179		-58.593750
5180		-62.500000
5181		-60.546875
5182		-64.453125
5183		-60.546875
5184		-64.453125
5185		-62.500000
5186		-66.406250
5187		-62.500000
5188		-64.453125
5189		-62.500000
5190		-66.406250
5191		-62.500000
5192		-66.406250
5193		-62.500000
5194		-66.406250
5195		-62.500000
5196		-64.453125
5197		-62.500000
5198		-64.453125
5199		-60.546875
5200		-64.453125
5201		-60.546875
5202		-62.500000
5203		-58.593750
5204		-62.500000
5205		-56.640625
5206		-60.546875
5207		-56.640625
5208		-58.593750
5209		-54.687500
5210		-56.640625
5211		-52.734375
5212		-54.687500
5213		-50.781250
5214		-52.734375
5215		-48.828125
5216		-52.734375
5217		-46.875000
5218		-48.828125
5219		-44.921875
5220		-44.921875
5221		-41.015625
5222		-42.968750
5223		-39.062500
5224		-41.015625
5225		-35.156250
5226		-37.109375
5227		-33.203125
5228		-35.156250
5229		-31.250000
5230		-33.203125
5231		-27.343750
5232		-29.296875
5233		-23.437500
5234		-25.390625
5235		-21.484375
5236		-21.484375
5237		-17.578125
5238		-19.531250
5239		-13.671875
5240		-15.625000
5241		-9.765625
5242		-11.718750
5243		-7.812500
5244		-7.812500
5245		-3.906250
5246		-5.859375
5247		0.000000
5248		-1.953125
5249		3.906250
5250		1.953125
5251		5.859375
5252		5.859375
5253		11.718750
5254		7.812500
5255		13.671875
5256		11.718750
5257		17.578125
5258		15.625000
5259		19.531250
5260		17.578125
5261		23.437500
5262		23.437500
5263		27.343750
5264		25.390625
5265		31.250000
5266		29.296875
5267		33.203125
5268		33.203125
5269		37.109375
5270		35.156250
5271		41.015625
5272		37.109375
5273		42.968750
5274		41.015625
5275		46.875000
5276		44.921875
5277		48.828125
5278		46.875000
5279		50.781250
5280		50.781250
5281		52.734375
5282		52.734375
5283		56.640625
5284		54.687500
5285		58.593750
5286		56.640625
5287		60.546875
5288		58.593750
5289		62.500000
5290		60.546875
5291		64.453125
5292		62.500000
5293		66.406250
5294		64.453125
5295		68.359375
5296		66.406250
5297		70.312500
5298		68.359375
5299		72.265625
5300		68.359375
5301		72.265625
5302		72.265625
5303		74.218750
5304		72.265625
5305		76.171875
5306		72.265625
5307		76.171875
5308		74.218750
5309		78.125000
5310		74.218750
5311		78.125000
5312		74.218750
5313		78.125000
5314		74.218750
5315		78.125000
5316		74.218750
5317		78.125000
5318		76.171875
5319		78.125000
5320		74.218750
5321		78.125000
5322		74.218750
5323		78.125000
5324		74.218750
5325		78.125000
5326		74.218750
5327		78.125000
5328		72.265625
5329		76.171875
5330		72.265625
5331		74.218750
5332		70.312500
5333		74.218750
5334		70.312500
5335		72.265625
5336		68.359375
5337		70.312500
5338		66.406250
5339		70.312500
5340		64.453125
5341		68.359375
5342		62.500000
5343		66.406250
5344		60.546875
5345		64.453125
5346		58.593750
5347		62.500000
5348		56.640625
5349		60.546875
5350		54.687500
5351		58.593750
5352		50.781250
5353		56.640625
5354		46.875000
5355		52.734375
5356		46.875000
5357		50.781250
5358		42.968750
5359		48.828125
5360		41.015625
5361		44.921875
5362		37.109375
5363		41.015625
5364		35.156250
5365		39.062500
5366		31.250000
5367		35.156250
5368		27.343750
5369		33.203125
5370		25.390625
5371		29.296875
5372		21.484375
5373		27.343750
5374		17.578125
5375		23.437500
5376		13.671875
5377		19.531250
5378		11.718750
5379		15.625000
5380		7.812500
5381		11.718750
5382		3.906250
5383		7.812500
5384		0.000000
5385		5.859375
5386		-3.906250
5387		1.953125
5388		-7.812500
5389		-1.953125
5390		-9.765625
5391		-5.859375
5392		-13.671875
5393		-7.812500
5394		-17.578125
5395		-11.718750
5396		-21.484375
5397		-15.625000
5398		-23.437500
5399		-19.531250
5400		-27.343750
5401		-21.484375
5402		-29.296875
5403		-25.390625
5404		-33.203125
5405		-29.296875
5406		-35.156250
5407		-31.250000
5408		-39.062500
5409		-33.203125
5410		-42.968750
5411		-37.109375
5412		-44.921875
5413		-41.015625
5414		-46.875000
5415		-42.968750
5416		-48.828125
5417		-44.921875
5418		-50.781250
5419		-46.875000
5420		-52.734375
5421		-48.828125
5422		-54.687500
5423		-52.734375
5424		-58.593750
5425		-52.734375
5426		-58.593750
5427		-54.687500
5428		-60.546875
5429		-56.640625
5430		-60.546875
5431		-58.593750
5432		-62.500000
5433		-58.593750
5434		-64.453125
5435		-60.546875
5436		-64.453125
5437		-60.546875
5438		-64.453125
5439		-60.546875
5440		-64.453125
5441		-62.500000
5442		-64.453125
5443		-62.500000
5444		-64.453125
5445		-62.500000
5446		-64.453125
5447		-62.500000
5448		-64.453125
5449		-60.546875
5450		-64.453125
5451		-60.546875
5452		-62.500000
5453		-60.546875
5454		-62.500000
5455		-60.546875
5456		-62.500000
5457		-58.593750
5458		-60.546875
5459		-56.640625
5460		-58.593750
5461		-54.687500
5462		-56.640625
5463		-54.687500
5464		-56.640625
5465		-50.781250
5466		-54.687500
5467		-48.828125
5468		-52.734375
5469		-46.875000
5470		-48.828125
5471		-44.921875
5472		-46.875000
5473		-42.968750
5474		-44.921875
5475		-41.015625
5476		-42.968750
5477		-37.109375
5478		-39.062500
5479		-35.156250
5480		-35.156250
5481		-31.250000
5482		-33.203125
5483		-29.296875
5484		-31.250000
5485		-25.390625
5486		-27.343750
5487		-21.484375
5488		-23.437500
5489		-19.531250
5490		-21.484375
5491		-15.625000
5492		-17.578125
5493		-11.718750
5494		-13.671875
5495		-9.765625
5496		-11.718750
5497		-5.859375
5498		-7.812500
5499		-1.953125
5500		-3.906250
5501		1.953125
5502		-1.953125
5503		3.906250
5504		3.906250
5505		7.812500
5506		7.812500
5507		11.718750
5508		9.765625
5509		15.625000
5510		13.671875
5511		19.531250
5512		17.578125
5513		23.437500
5514		21.484375
5515		25.390625
5516		23.437500
5517		29.296875
5518		27.343750
5519		31.250000
5520		31.250000
5521		35.156250
5522		33.203125
5523		39.062500
5524		37.109375
5525		42.968750
5526		41.015625
5527		44.921875
5528		41.015625
5529		46.875000
5530		44.921875
5531		50.781250
5532		48.828125
5533		52.734375
5534		50.781250
5535		56.640625
5536		52.734375
5537		56.640625
5538		56.640625
5539		60.546875
5540		56.640625
5541		62.500000
5542		60.546875
5543		64.453125
5544		62.500000
5545		66.406250
5546		64.453125
5547		68.359375
5548		64.453125
5549		68.359375
5550		68.359375
5551		70.312500
5552		68.359375
5553		72.265625
5554		70.312500
5555		74.218750
5556		72.265625
5557		76.171875
5558		72.265625
5559		76.171875
5560		74.218750
5561		76.171875
5562		72.265625
5563		76.171875
5564		74.218750
5565		78.125000
5566		74.218750
5567		78.125000
5568		74.218750
5569		78.125000
5570		76.171875
5571		78.125000
5572		76.171875
5573		78.125000
5574		74.218750
5575		78.125000
5576		74.218750
5577		78.125000
5578		74.218750
5579		78.125000
5580		74.218750
5581		76.171875
5582		72.265625
5583		76.171875
5584		70.312500
5585		74.218750
5586		70.312500
5587		74.218750
5588		68.359375
5589		72.265625
5590		68.359375
5591		70.312500
5592		66.406250
5593		70.312500
5594		64.453125
5595		66.406250
5596		60.546875
5597		66.406250
5598		60.546875
5599		64.453125
5600		56.640625
5601		62.500000
5602		56.640625
5603		60.546875
5604		52.734375
5605		56.640625
5606		48.828125
5607		54.687500
5608		46.875000
5609		52.734375
5610		44.921875
5611		48.828125
5612		42.968750
5613		46.875000
5614		39.062500
5615		42.968750
5616		37.109375
5617		41.015625
5618		33.203125
5619		37.109375
5620		29.296875
5621		35.156250
5622		27.343750
5623		31.250000
5624		23.437500
5625		29.296875
5626		19.531250
5627		25.390625
5628		15.625000
5629		21.484375
5630		13.671875
5631		17.578125
5632		9.765625
5633		15.625000
5634		5.859375
5635		11.718750
5636		1.953125
5637		7.812500
5638		-1.953125
5639		3.906250
5640		-5.859375
5641		0.000000
5642		-9.765625
5643		-3.906250
5644		-11.718750
5645		-5.859375
5646		-15.625000
5647		-9.765625
5648		-17.578125
5649		-13.671875
5650		-21.484375
5651		-17.578125
5652		-25.390625
5653		-19.531250
5654		-27.343750
5655		-23.437500
5656		-31.250000
5657		-27.343750
5658		-35.156250
5659		-29.296875
5660		-37.109375
5661		-33.203125
5662		-39.062500
5663		-35.156250
5664		-42.968750
5665		-37.109375
5666		-44.921875
5667		-41.015625
5668		-48.828125
5669		-42.968750
5670		-50.781250
5671		-44.921875
5672		-52.734375
5673		-48.828125
5674		-54.687500
5675		-50.781250
5676		-56.640625
5677		-52.734375
5678		-58.593750
5679		-54.687500
5680		-60.546875
5681		-56.640625
5682		-60.546875
5683		-56.640625
5684		-62.500000
5685		-58.593750
5686		-62.500000
5687		-58.593750
5688		-64.453125
5689		-60.546875
5690		-66.406250
5691		-62.500000
5692		-64.453125
5693		-62.500000
5694		-66.406250
5695		-62.500000
5696		-66.406250
5697		-62.500000
5698		-64.453125
5699		-62.500000
5700		-66.406250
5701		-62.500000
5702		-64.453125
5703		-60.546875
5704		-64.453125
5705		-62.500000
5706		-62.500000
5707		-60.546875
5708		-64.453125
5709		-58.593750
5710		-62.500000
5711		-58.593750
5712		-60.546875
5713		-56.640625
5714		-58.593750
5715		-54.687500
5716		-56.640625
5717		-52.734375
5718		-54.687500
5719		-52.734375
5720		-54.687500
5721		-50.781250
5722		-50.781250
5723		-46.875000
5724		-48.828125
5725		-44.921875
5726		-46.875000
5727		-42.968750
5728		-44.921875
5729		-39.062500
5730		-41.015625
5731		-37.109375
5732		-39.062500
5733		-33.203125
5734		-35.156250
5735		-31.250000
5736		-33.203125
5737		-27.343750
5738		-29.296875
5739		-25.390625
5740		-25.390625
5741		-21.484375
5742		-23.437500
5743		-19.531250
5744		-19.531250
5745		-13.671875
5746		-17.578125
5747		-11.718750
5748		-13.671875
5749		-7.812500
5750		-9.765625
5751		-5.859375
5752		-7.812500
5753		-1.953125
5754		-3.906250
5755		1.953125
5756		0.000000
5757		5.859375
5758		3.906250
5759		9.765625
5760		7.812500
5761		13.671875
5762		9.765625
5763		15.625000
5764		13.671875
5765		19.531250
5766		17.578125
5767		23.437500
5768		21.484375
5769		27.343750
5770		23.437500
5771		29.296875
5772		27.343750
5773		33.203125
5774		31.250000
5775		37.109375
5776		33.203125
5777		39.062500
5778		37.109375
5779		42.968750
5780		41.015625
5781		44.921875
5782		42.968750
5783		46.875000
5784		44.921875
5785		50.781250
5786		48.828125
5787		54.687500
5788		50.781250
5789		54.687500
5790		54.687500
5791		56.640625
5792		56.640625
5793		60.546875
5794		58.593750
5795		62.500000
5796		60.546875
5797		64.453125
5798		62.500000
5799		66.406250
5800		64.453125
5801		68.359375
5802		66.406250
5803		68.359375
5804		66.406250
5805		70.312500
5806		68.359375
5807		72.265625
5808		70.312500
5809		74.218750
5810		72.265625
5811		74.218750
5812		72.265625
5813		76.171875
5814		72.265625
5815		76.171875
5816		74.218750
5817		76.171875
5818		74.218750
5819		78.125000
5820		74.218750
5821		78.125000
5822		74.218750
5823		78.125000
5824		76.171875
5825		78.125000
5826		74.218750
5827		78.125000
5828		74.218750
5829		78.125000
5830		74.218750
5831		78.125000
5832		72.265625
5833		76.171875
5834		72.265625
5835		76.171875
5836		72.265625
5837		76.171875
5838		70.312500
5839		74.218750
5840		68.359375
5841		72.265625
5842		66.406250
5843		72.265625
5844		66.406250
5845		70.312500
5846		64.453125
5847		68.359375
5848		62.500000
5849		66.406250
5850		60.546875
5851		64.453125
5852		58.593750
5853		62.500000
5854		56.640625
5855		60.546875
5856		54.687500
5857		58.593750
5858		52.734375
5859		56.640625
5860		48.828125
5861		54.687500
5862		46.875000
5863		50.781250
5864		42.968750
5865		48.828125
5866		41.015625
5867		44.921875
5868		37.109375
5869		42.968750
5870		33.203125
5871		39.062500
5872		31.250000
5873		37.109375
5874		27.343750
5875		33.203125
5876		25.390625
5877		29.296875
5878		21.484375
5879		27.343750
5880		17.578125
5881		23.437500
5882		13.671875
5883		19.531250
5884		9.765625
5885		17.578125
5886		7.812500
5887		13.671875
5888		3.906250
5889		9.765625
5890		0.000000
5891		5.859375
5892		-3.906250
5893		1.953125
5894		-5.859375
5895		0.000000
5896		-9.765625
5897		-3.906250
5898		-13.671875
5899		-7.812500
5900		-17.578125
5901		-11.718750
5902		-19.531250
5903		-15.625000
5904		-23.437500
5905		-17.578125
5906		-27.343750
5907		-21.484375
5908		-29.296875
5909		-25.390625
5910		-33.203125
5911		-27.343750
5912		-37.109375
5913		-31.250000
5914		-39.062500
5915		-33.203125
5916		-42.968750
5917		-37.109375
5918		-44.921875
5919		-39.062500
5920		-48.828125
5921		-41.015625
5922		-48.828125
5923		-44.921875
5924		-50.781250
5925		-48.828125
5926		-54.687500
5927		-48.828125
5928		-56.640625
5929		-50.781250
5930		-58.593750
5931		-52.734375
5932		-60.546875
5933		-54.687500
5934		-62.500000
5935		-56.640625
5936		-62.500000
5937		-56.640625
5938		-64.453125
5939		-58.593750
5940		-64.453125
5941		-60.546875
5942		-64.453125
5943		-62.500000
5944		-66.406250
5945		-62.500000
5946		-66.406250
5947		-62.500000
5948		-66.406250
5949		-62.500000
5950		-66.406250
5951		-62.500000
5952		-66.406250
5953		-62.500000
5954		-66.406250
5955		-60.546875
5956		-64.453125
5957		-62.500000
5958		-64.453125
5959		-60.546875
5960		-64.453125
5961		-58.593750
5962		-62.500000
5963		-58.593750
5964		-62.500000
5965		-56.640625
5966		-62.500000
5967		-54.687500
5968		-60.546875
5969		-52.734375
5970		-56.640625
5971		-52.734375
5972		-56.640625
5973		-50.781250
5974		-52.734375
5975		-48.828125
5976		-50.781250
5977		-44.921875
5978		-50.781250
5979		-42.968750
5980		-46.875000
5981		-41.015625
5982		-44.921875
5983		-37.109375
5984		-41.015625
5985		-35.156250
5986		-39.062500
5987		-31.250000
5988		-35.156250
5989		-29.296875
5990		-31.250000
5991		-27.343750
5992		-29.296875
5993		-23.437500
5994		-25.390625
5995		-21.484375
5996		-21.484375
5997		-17.578125
5998		-19.531250
5999		-13.671875
6000		-15.625000
6001		-9.765625
6002		-11.718750
6003		-7.812500
6004		-7.812500
6005		-3.906250
6006		-5.859375
6007		0.000000
6008		-1.953125
6009		3.906250
6010		1.953125
6011		5.859375
6012		5.859375
6013		9.765625
6014		7.812500
6015		13.671875
6016		11.718750
6017		17.578125
6018		15.625000
6019		19.531250
6020		19.531250
6021		23.437500
6022		21.484375
6023		27.343750
6024		25.390625
6025		31.250000
6026		29.296875
6027		33.203125
6028		33.203125
6029		37.109375
6030		35.156250
6031		39.062500
6032		39.062500
6033		42.968750
6034		41.015625
6035		44.921875
6036		44.921875
6037		48.828125
6038		46.875000
6039		50.781250
6040		48.828125
6041		52.734375
6042		52.734375
6043		56.640625
6044		54.687500
6045		58.593750
6046		56.640625
6047		60.546875
6048		58.593750
6049		62.500000
6050		60.546875
6051		64.453125
6052		62.500000
6053		66.406250
6054		64.453125
6055		68.359375
6056		66.406250
6057		70.312500
6058		68.359375
6059		72.265625
6060		70.312500
6061		72.265625
6062		70.312500
6063		74.218750
6064		72.265625
6065		74.218750
6066		72.265625
6067		76.171875
6068		74.218750
6069		76.171875
6070		74.218750
6071		76.171875
6072		74.218750
6073		76.171875
6074		74.218750
6075		78.125000
6076		74.218750
6077		78.125000
6078		74.218750
6079		78.125000
6080		74.218750
6081		76.171875
6082		74.218750
6083		76.171875
6084		74.218750
6085		76.171875
6086		72.265625
6087		76.171875
6088		72.265625
6089		74.218750
6090		72.265625
6091		74.218750
6092		70.312500
6093		72.265625
6094		66.406250
6095		74.218750
6096		64.453125
6097		72.265625
6098		62.500000
6099		70.312500
6100		62.500000
6101		70.312500
6102		62.500000
6103		66.406250
6104		60.546875
6105		64.453125
6106		58.593750
6107		62.500000
6108		54.687500
6109		58.593750
6110		52.734375
6111		56.640625
6112		48.828125
6113		56.640625
6114		46.875000
6115		54.687500
6116		42.968750
6117		52.734375
6118		42.968750
6119		46.875000
6120		39.062500
6121		42.968750
6122		37.109375
6123		41.015625
6124		33.203125
6125		37.109375
6126		29.296875
6127		35.156250
6128		25.390625
6129		33.203125
6130		21.484375
6131		29.296875
6132		17.578125
6133		27.343750
6134		17.578125
6135		21.484375
6136		13.671875
6137		17.578125
6138		9.765625
6139		15.625000
6140		5.859375
6141		11.718750
6142		1.953125
6143		7.812500
6144		-3.906250
6145		3.906250
6146		-7.812500
6147		3.906250
6148		-11.718750
6149		1.953125
6150		-11.718750
6151		-1.953125
6152		-15.625000
6153		-9.765625
6154		-17.578125
6155		-13.671875
6156		-21.484375
6157		-17.578125
6158		-25.390625
6159		-19.531250
6160		-27.343750
6161		-23.437500
6162		-33.203125
6163		-23.437500
6164		-37.109375
6165		-27.343750
6166		-41.015625
6167		-29.296875
6168		-39.062500
6169		-35.156250
6170		-42.968750
6171		-39.062500
6172		-44.921875
6173		-41.015625
6174		-48.828125
6175		-42.968750
6176		-50.781250
6177		-46.875000
6178		-54.687500
6179		-46.875000
6180		-58.593750
6181		-46.875000
6182		-58.593750
6183		-48.828125
6184		-58.593750
6185		-50.781250
6186		-58.593750
6187		-56.640625
6188		-60.546875
6189		-58.593750
6190		-62.500000
6191		-58.593750
6192		-62.500000
6193		-60.546875
6194		-64.453125
6195		-60.546875
6196		-68.359375
6197		-56.640625
6198		-68.359375
6199		-58.593750
6200		-68.359375
6201		-58.593750
6202		-66.406250
6203		-64.453125
6204		-66.406250
6205		-64.453125
6206		-64.453125
6207		-62.500000
6208		-64.453125
6209		-62.500000
6210		-64.453125
6211		-62.500000
6212		-68.359375
6213		-56.640625
6214		-66.406250
6215		-56.640625
6216		-64.453125
6217		-54.687500
6218		-60.546875
6219		-58.593750
6220		-58.593750
6221		-56.640625
6222		-58.593750
6223		-54.687500
6224		-56.640625
6225		-52.734375
6226		-54.687500
6227		-50.781250
6228		-54.687500
6229		-44.921875
6230		-52.734375
6231		-42.968750
6232		-52.734375
6233		-41.015625
6234		-48.828125
6235		-39.062500
6236		-42.968750
6237		-37.109375
6238		-39.062500
6239		-35.156250
6240		-37.109375
6241		-33.203125
6242		-33.203125
6243		-29.296875
6244		-31.250000
6245		-25.390625
6246		-29.296875
6247		-19.531250
6248		-25.390625
6249		-15.625000
6250		-23.437500
6251		-13.671875
6252		-17.578125
6253		-13.671875
6254		-13.671875
6255		-9.765625
6256		-9.765625
6257		-5.859375
6258		-7.812500
6259		-1.953125
6260		-3.906250
6261		1.953125
6262		0.000000
6263		7.812500
6264		0.000000
6265		11.718750
6266		3.906250
6267		15.625000
6268		5.859375
6269		15.625000
6270		13.671875
6271		17.578125
6272		17.578125
6273		21.484375
6274		21.484375
6275		25.390625
6276		23.437500
6277		27.343750
6278		27.343750
6279		31.250000
6280		29.296875
6281		35.156250
6282		31.250000
6283		41.015625
6284		35.156250
6285		41.015625
6286		39.062500
6287		42.968750
6288		42.968750
6289		46.875000
6290		44.921875
6291		48.828125
6292		48.828125
6293		52.734375
6294		50.781250
6295		54.687500
6296		52.734375
6297		56.640625
6298		54.687500
6299		60.546875
6300		56.640625
6301		64.453125
6302		60.546875
6303		62.500000
6304		62.500000
6305		64.453125
6306		64.453125
6307		66.406250
6308		66.406250
6309		68.359375
6310		66.406250
6311		70.312500
6312		68.359375
6313		72.265625
6314		70.312500
6315		74.218750
6316		70.312500
6317		76.171875
6318		72.265625
6319		76.171875
6320		72.265625
6321		76.171875
6322		74.218750
6323		76.171875
6324		74.218750
6325		76.171875
6326		74.218750
6327		78.125000
6328		74.218750
6329		78.125000
6330		74.218750
6331		78.125000
6332		74.218750
6333		76.171875
6334		74.218750
6335		76.171875
6336		74.218750
6337		76.171875
6338		74.218750
6339		76.171875
6340		72.265625
6341		76.171875
6342		72.265625
6343		74.218750
6344		70.312500
6345		74.218750
6346		68.359375
6347		72.265625
6348		68.359375
6349		70.312500
6350		66.406250
6351		70.312500
6352		64.453125
6353		68.359375
6354		62.500000
6355		66.406250
6356		60.546875
6357		64.453125
6358		58.593750
6359		62.500000
6360		56.640625
6361		60.546875
6362		54.687500
6363		58.593750
6364		50.781250
6365		56.640625
6366		48.828125
6367		52.734375
6368		46.875000
6369		50.781250
6370		42.968750
6371		48.828125
6372		41.015625
6373		44.921875
6374		37.109375
6375		42.968750
6376		35.156250
6377		39.062500
6378		31.250000
6379		37.109375
6380		27.343750
6381		33.203125
6382		25.390625
6383		29.296875
6384		21.484375
6385		27.343750
6386		17.578125
6387		23.437500
6388		15.625000
6389		19.531250
6390		11.718750
6391		15.625000
6392		7.812500
6393		13.671875
6394		3.906250
6395		9.765625
6396		0.000000
6397		5.859375
6398		-3.906250
6399		1.953125
6400		-5.859375
6401		0.000000
6402		-9.765625
6403		-3.906250
6404		-13.671875
6405		-7.812500
6406		-15.625000
6407		-11.718750
6408		-19.531250
6409		-15.625000
6410		-23.437500
6411		-17.578125
6412		-25.390625
6413		-21.484375
6414		-29.296875
6415		-25.390625
6416		-33.203125
6417		-27.343750
6418		-35.156250
6419		-31.250000
6420		-39.062500
6421		-35.156250
6422		-41.015625
6423		-37.109375
6424		-42.968750
6425		-39.062500
6426		-46.875000
6427		-42.968750
6428		-48.828125
6429		-44.921875
6430		-52.734375
6431		-46.875000
6432		-54.687500
6433		-48.828125
6434		-54.687500
6435		-52.734375
6436		-58.593750
6437		-52.734375
6438		-60.546875
6439		-54.687500
6440		-60.546875
6441		-56.640625
6442		-62.500000
6443		-58.593750
6444		-62.500000
6445		-60.546875
6446		-64.453125
6447		-60.546875
6448		-66.406250
6449		-60.546875
6450		-66.406250
6451		-62.500000
6452		-66.406250
6453		-62.500000
6454		-66.406250
6455		-62.500000
6456		-66.406250
6457		-62.500000
6458		-66.406250
6459		-64.453125
6460		-66.406250
6461		-62.500000
6462		-64.453125
6463		-62.500000
6464		-66.406250
6465		-60.546875
6466		-64.453125
6467		-60.546875
6468		-62.500000
6469		-60.546875
6470		-62.500000
6471		-58.593750
6472		-60.546875
6473		-56.640625
6474		-58.593750
6475		-56.640625
6476		-56.640625
6477		-54.687500
6478		-54.687500
6479		-52.734375
6480		-54.687500
6481		-48.828125
6482		-52.734375
6483		-46.875000
6484		-48.828125
6485		-44.921875
6486		-46.875000
6487		-42.968750
6488		-44.921875
6489		-39.062500
6490		-42.968750
6491		-37.109375
6492		-39.062500
6493		-35.156250
6494		-35.156250
6495		-31.250000
6496		-33.203125
6497		-29.296875
6498		-31.250000
6499		-25.390625
6500		-27.343750
6501		-21.484375
6502		-23.437500
6503		-19.531250
6504		-19.531250
6505		-15.625000
6506		-17.578125
6507		-11.718750
6508		-13.671875
6509		-7.812500
6510		-9.765625
6511		-5.859375
6512		-5.859375
6513		-1.953125
6514		-1.953125
6515		3.906250
6516		0.000000
6517		5.859375
6518		3.906250
6519		9.765625
6520		7.812500
6521		13.671875
6522		9.765625
6523		17.578125
6524		13.671875
6525		19.531250
6526		17.578125
6527		23.437500
6528		21.484375
6529		25.390625
6530		25.390625
6531		29.296875
6532		25.390625
6533		33.203125
6534		31.250000
6535		35.156250
6536		35.156250
6537		39.062500
6538		37.109375
6539		42.968750
6540		39.062500
6541		44.921875
6542		42.968750
6543		46.875000
6544		46.875000
6545		50.781250
6546		48.828125
6547		52.734375
6548		50.781250
6549		56.640625
6550		52.734375
6551		58.593750
6552		56.640625
6553		60.546875
6554		58.593750
6555		62.500000
6556		58.593750
6557		64.453125
6558		62.500000
6559		66.406250
6560		64.453125
6561		68.359375
6562		66.406250
6563		68.359375
6564		66.406250
6565		70.312500
6566		68.359375
6567		72.265625
6568		70.312500
6569		72.265625
6570		72.265625
6571		74.218750
6572		72.265625
6573		74.218750
6574		72.265625
6575		76.171875
6576		74.218750
6577		76.171875
6578		74.218750
6579		76.171875
6580		74.218750
6581		76.171875
6582		74.218750
6583		76.171875
6584		74.218750
6585		76.171875
6586		74.218750
6587		76.171875
6588		74.218750
6589		76.171875
6590		74.218750
6591		76.171875
6592		72.265625
6593		76.171875
6594		72.265625
6595		74.218750
6596		70.312500
6597		74.218750
6598		70.312500
6599		72.265625
6600		68.359375
6601		72.265625
6602		66.406250
6603		70.312500
6604		66.406250
6605		68.359375
6606		64.453125
6607		66.406250
6608		62.500000
6609		64.453125
6610		58.593750
6611		64.453125
6612		58.593750
6613		62.500000
6614		54.687500
6615		58.593750
6616		52.734375
6617		56.640625
6618		50.781250
6619		54.687500
6620		48.828125
6621		52.734375
6622		44.921875
6623		48.828125
6624		42.968750
6625		46.875000
6626		39.062500
6627		44.921875
6628		37.109375
6629		41.015625
6630		33.203125
6631		39.062500
6632		31.250000
6633		35.156250
6634		27.343750
6635		31.250000
6636		23.437500
6637		27.343750
6638		19.531250
6639		25.390625
6640		17.578125
6641		21.484375
6642		13.671875
6643		17.578125
6644		9.765625
6645		15.625000
6646		5.859375
6647		11.718750
6648		1.953125
6649		7.812500
6650		0.000000
6651		3.906250
6652		-3.906250
6653		0.000000
6654		-7.812500
6655		-3.906250
6656		-11.718750
6657		-5.859375
6658		-15.625000
6659		-9.765625
6660		-17.578125
6661		-13.671875
6662		-21.484375
6663		-17.578125
6664		-25.390625
6665		-19.531250
6666		-27.343750
6667		-23.437500
6668		-31.250000
6669		-27.343750
6670		-35.156250
6671		-29.296875
6672		-37.109375
6673		-33.203125
6674		-41.015625
6675		-35.156250
6676		-42.968750
6677		-39.062500
6678		-44.921875
6679		-41.015625
6680		-46.875000
6681		-44.921875
6682		-52.734375
6683		-46.875000
6684		-52.734375
6685		-48.828125
6686		-54.687500
6687		-50.781250
6688		-56.640625
6689		-52.734375
6690		-58.593750
6691		-54.687500
6692		-60.546875
6693		-56.640625
6694		-60.546875
6695		-58.593750
6696		-62.500000
6697		-60.546875
6698		-64.453125
6699		-60.546875
6700		-64.453125
6701		-60.546875
6702		-66.406250
6703		-62.500000
6704		-66.406250
6705		-62.500000
6706		-66.406250
6707		-64.453125
6708		-66.406250
6709		-64.453125
6710		-66.406250
6711		-64.453125
6712		-66.406250
6713		-64.453125
6714		-66.406250
6715		-64.453125
6716		-66.406250
6717		-62.500000
6718		-66.406250
6719		-60.546875
6720		-64.453125
6721		-60.546875
6722		-62.500000
6723		-60.546875
6724		-62.500000
6725		-58.593750
6726		-60.546875
6727		-58.593750
6728		-58.593750
6729		-56.640625
6730		-56.640625
6731		-54.687500
6732		-54.687500
6733		-50.781250
6734		-54.687500
6735		-48.828125
6736		-52.734375
6737		-46.875000
6738		-48.828125
6739		-44.921875
6740		-46.875000
6741		-42.968750
6742		-42.968750
6743		-39.062500
6744		-41.015625
6745		-37.109375
6746		-39.062500
6747		-33.203125
6748		-35.156250
6749		-31.250000
6750		-33.203125
6751		-27.343750
6752		-29.296875
6753		-25.390625
6754		-25.390625
6755		-21.484375
6756		-23.437500
6757		-17.578125
6758		-19.531250
6759		-13.671875
6760		-15.625000
6761		-11.718750
6762		-11.718750
6763		-7.812500
6764		-9.765625
6765		-3.906250
6766		-5.859375
6767		1.953125
6768		-3.906250
6769		3.906250
6770		0.000000
6771		5.859375
6772		5.859375
6773		9.765625
6774		7.812500
6775		13.671875
6776		11.718750
6777		17.578125
6778		15.625000
6779		19.531250
6780		19.531250
6781		23.437500
6782		21.484375
6783		27.343750
6784		23.437500
6785		31.250000
6786		27.343750
6787		33.203125
6788		31.250000
6789		37.109375
6790		35.156250
6791		39.062500
6792		37.109375
6793		42.968750
6794		41.015625
6795		44.921875
6796		44.921875
6797		48.828125
6798		46.875000
6799		50.781250
6800		48.828125
6801		54.687500
6802		50.781250
6803		56.640625
6804		54.687500
6805		58.593750
6806		56.640625
6807		60.546875
6808		58.593750
6809		62.500000
6810		60.546875
6811		64.453125
6812		62.500000
6813		66.406250
6814		64.453125
6815		68.359375
6816		66.406250
6817		70.312500
6818		64.453125
6819		72.265625
6820		66.406250
6821		72.265625
6822		70.312500
6823		72.265625
6824		70.312500
6825		74.218750
6826		72.265625
6827		74.218750
6828		72.265625
6829		74.218750
6830		74.218750
6831		76.171875
6832		74.218750
6833		76.171875
6834		72.265625
6835		78.125000
6836		72.265625
6837		78.125000
6838		74.218750
6839		76.171875
6840		74.218750
6841		76.171875
6842		74.218750
6843		76.171875
6844		72.265625
6845		74.218750
6846		72.265625
6847		74.218750
6848		70.312500
6849		74.218750
6850		68.359375
6851		74.218750
6852		66.406250
6853		74.218750
6854		68.359375
6855		72.265625
6856		66.406250
6857		68.359375
6858		64.453125
6859		68.359375
6860		62.500000
6861		66.406250
6862		60.546875
6863		64.453125
6864		58.593750
6865		62.500000
6866		56.640625
6867		60.546875
6868		52.734375
6869		60.546875
6870		50.781250
6871		56.640625
6872		48.828125
6873		52.734375
6874		46.875000
6875		50.781250
6876		42.968750
6877		48.828125
6878		41.015625
6879		44.921875
6880		39.062500
6881		42.968750
6882		35.156250
6883		39.062500
6884		31.250000
6885		37.109375
6886		27.343750
6887		35.156250
6888		25.390625
6889		29.296875
6890		21.484375
6891		27.343750
6892		19.531250
6893		23.437500
6894		15.625000
6895		19.531250
6896		11.718750
6897		15.625000
6898		7.812500
6899		13.671875
6900		3.906250
6901		9.765625
6902		1.953125
6903		5.859375
6904		-1.953125
6905		1.953125
6906		-5.859375
6907		-1.953125
6908		-9.765625
6909		-3.906250
6910		-13.671875
6911		-7.812500
6912		-15.625000
6913		-11.718750
6914		-19.531250
6915		-15.625000
6916		-23.437500
6917		-17.578125
6918		-25.390625
6919		-21.484375
6920		-29.296875
6921		-25.390625
6922		-33.203125
6923		-29.296875
6924		-35.156250
6925		-31.250000
6926		-39.062500
6927		-35.156250
6928		-41.015625
6929		-37.109375
6930		-44.921875
6931		-39.062500
6932		-46.875000
6933		-42.968750
6934		-50.781250
6935		-44.921875
6936		-50.781250
6937		-46.875000
6938		-54.687500
6939		-50.781250
6940		-56.640625
6941		-52.734375
6942		-58.593750
6943		-54.687500
6944		-58.593750
6945		-56.640625
6946		-60.546875
6947		-58.593750
6948		-62.500000
6949		-58.593750
6950		-62.500000
6951		-60.546875
6952		-64.453125
6953		-60.546875
6954		-64.453125
6955		-62.500000
6956		-66.406250
6957		-64.453125
6958		-66.406250
6959		-64.453125
6960		-66.406250
6961		-64.453125
6962		-66.406250
6963		-64.453125
6964		-66.406250
6965		-64.453125
6966		-66.406250
6967		-64.453125
6968		-66.406250
6969		-64.453125
6970		-66.406250
6971		-62.500000
6972		-64.453125
6973		-62.500000
6974		-64.453125
6975		-60.546875
6976		-62.500000
6977		-60.546875
6978		-62.500000
6979		-58.593750
6980		-60.546875
6981		-56.640625
6982		-58.593750
6983		-54.687500
6984		-56.640625
6985		-52.734375
6986		-54.687500
6987		-50.781250
6988		-52.734375
6989		-48.828125
6990		-50.781250
6991		-46.875000
6992		-48.828125
6993		-42.968750
6994		-44.921875
6995		-41.015625
6996		-42.968750
6997		-39.062500
6998		-39.062500
6999		-35.156250
7000		-37.109375
7001		-33.203125
7002		-35.156250
7003		-29.296875
7004		-31.250000
7005		-27.343750
7006		-27.343750
7007		-23.437500
7008		-25.390625
7009		-19.531250
7010		-21.484375
7011		-17.578125
7012		-17.578125
7013		-13.671875
7014		-13.671875
7015		-9.765625
7016		-11.718750
7017		-5.859375
7018		-7.812500
7019		-1.953125
7020		-3.906250
7021		0.000000
7022		0.000000
7023		3.906250
7024		1.953125
7025		7.812500
7026		5.859375
7027		11.718750
7028		9.765625
7029		13.671875
7030		13.671875
7031		17.578125
7032		17.578125
7033		21.484375
7034		19.531250
7035		25.390625
7036		23.437500
7037		27.343750
7038		27.343750
7039		31.250000
7040		29.296875
7041		35.156250
7042		33.203125
7043		37.109375
7044		37.109375
7045		41.015625
7046		39.062500
7047		42.968750
7048		42.968750
7049		46.875000
7050		44.921875
7051		48.828125
7052		46.875000
7053		50.781250
7054		50.781250
7055		54.687500
7056		52.734375
7057		56.640625
7058		54.687500
7059		58.593750
7060		56.640625
7061		60.546875
7062		58.593750
7063		62.500000
7064		62.500000
7065		64.453125
7066		62.500000
7067		66.406250
7068		64.453125
7069		68.359375
7070		66.406250
7071		70.312500
7072		68.359375
7073		70.312500
7074		70.312500
7075		72.265625
7076		70.312500
7077		72.265625
7078		72.265625
7079		74.218750
7080		72.265625
7081		74.218750
7082		72.265625
7083		76.171875
7084		74.218750
7085		76.171875
7086		74.218750
7087		76.171875
7088		74.218750
7089		76.171875
7090		74.218750
7091		76.171875
7092		74.218750
7093		76.171875
7094		74.218750
7095		76.171875
7096		72.265625
7097		76.171875
7098		72.265625
7099		74.218750
7100		72.265625
7101		74.218750
7102		70.312500
7103		72.265625
7104		70.312500
7105		72.265625
7106		68.359375
7107		70.312500
7108		66.406250
7109		70.312500
7110		66.406250
7111		68.359375
7112		64.453125
7113		66.406250
7114		60.546875
7115		64.453125
7116		60.546875
7117		64.453125
7118		58.593750
7119		60.546875
7120		54.687500
7121		58.593750
7122		52.734375
7123		56.640625
7124		50.781250
7125		54.687500
7126		48.828125
7127		52.734375
7128		44.921875
7129		50.781250
7130		42.968750
7131		46.875000
7132		39.062500
7133		44.921875
7134		37.109375
7135		41.015625
7136		33.203125
7137		39.062500
7138		31.250000
7139		35.156250
7140		27.343750
7141		31.250000
7142		23.437500
7143		29.296875
7144		19.531250
7145		25.390625
7146		17.578125
7147		21.484375
7148		13.671875
7149		17.578125
7150		9.765625
7151		15.625000
7152		5.859375
7153		11.718750
7154		3.906250
7155		7.812500
7156		0.000000
7157		3.906250
7158		-3.906250
7159		1.953125
7160		-7.812500
7161		-1.953125
7162		-11.718750
7163		-5.859375
7164		-13.671875
7165		-9.765625
7166		-17.578125
7167		-13.671875
7168		-21.484375
7169		-15.625000
7170		-25.390625
7171		-19.531250
7172		-27.343750
7173		-23.437500
7174		-31.250000
7175		-27.343750
7176		-33.203125
7177		-29.296875
7178		-37.109375
7179		-33.203125
7180		-39.062500
7181		-35.156250
7182		-42.968750
7183		-39.062500
7184		-44.921875
7185		-41.015625
7186		-46.875000
7187		-44.921875
7188		-50.781250
7189		-46.875000
7190		-52.734375
7191		-48.828125
7192		-54.687500
7193		-50.781250
7194		-56.640625
7195		-52.734375
7196		-58.593750
7197		-54.687500
7198		-60.546875
7199		-56.640625
7200		-62.500000
7201		-58.593750
7202		-62.500000
7203		-60.546875
7204		-64.453125
7205		-60.546875
7206		-64.453125
7207		-62.500000
7208		-64.453125
7209		-62.500000
7210		-66.406250
7211		-64.453125
7212		-66.406250
7213		-64.453125
7214		-66.406250
7215		-64.453125
7216		-66.406250
7217		-64.453125
7218		-66.406250
7219		-64.453125
7220		-66.406250
7221		-64.453125
7222		-66.406250
7223		-62.500000
7224		-64.453125
7225		-62.500000
7226		-64.453125
7227		-60.546875
7228		-62.500000
7229		-60.546875
7230		-62.500000
7231		-58.593750
7232		-60.546875
7233		-56.640625
7234		-58.593750
7235		-56.640625
7236		-56.640625
7237		-54.687500
7238		-56.640625
7239		-52.734375
7240		-54.687500
7241		-50.781250
7242		-50.781250
7243		-46.875000
7244		-48.828125
7245		-44.921875
7246		-46.875000
7247		-42.968750
7248		-44.921875
7249		-41.015625
7250		-41.015625
7251		-37.109375
7252		-39.062500
7253		-35.156250
7254		-35.156250
7255		-31.250000
7256		-33.203125
7257		-29.296875
7258		-29.296875
7259		-25.390625
7260		-25.390625
7261		-21.484375
7262		-23.437500
7263		-17.578125
7264		-19.531250
7265		-15.625000
7266		-17.578125
7267		-11.718750
7268		-13.671875
7269		-7.812500
7270		-9.765625
7271		-3.906250
7272		-5.859375
7273		-1.953125
7274		-1.953125
7275		1.953125
7276		0.000000
7277		5.859375
7278		3.906250
7279		9.765625
7280		7.812500
7281		11.718750
7282		11.718750
7283		15.625000
7284		13.671875
7285		19.531250
7286		17.578125
7287		23.437500
7288		21.484375
7289		25.390625
7290		25.390625
7291		29.296875
7292		27.343750
7293		33.203125
7294		31.250000
7295		35.156250
7296		35.156250
7297		39.062500
7298		37.109375
7299		41.015625
7300		41.015625
7301		44.921875
7302		42.968750
7303		46.875000
7304		46.875000
7305		50.781250
7306		48.828125
7307		52.734375
7308		50.781250
7309		54.687500
7310		52.734375
7311		56.640625
7312		56.640625
7313		60.546875
7314		58.593750
7315		62.500000
7316		60.546875
7317		64.453125
7318		62.500000
7319		66.406250
7320		64.453125
7321		66.406250
7322		66.406250
7323		68.359375
7324		66.406250
7325		70.312500
7326		68.359375
7327		72.265625
7328		70.312500
7329		72.265625
7330		70.312500
7331		74.218750
7332		72.265625
7333		74.218750
7334		72.265625
7335		76.171875
7336		74.218750
7337		76.171875
7338		74.218750
7339		76.171875
7340		74.218750
7341		76.171875
7342		74.218750
7343		76.171875
7344		74.218750
7345		76.171875
7346		74.218750
7347		76.171875
7348		74.218750
7349		76.171875
7350		72.265625
7351		76.171875
7352		72.265625
7353		74.218750
7354		72.265625
7355		74.218750
7356		70.312500
7357		74.218750
7358		70.312500
7359		72.265625
7360		68.359375
7361		70.312500
7362		66.406250
7363		70.312500
7364		64.453125
7365		68.359375
7366		64.453125
7367		66.406250
7368		62.500000
7369		64.453125
7370		58.593750
7371		62.500000
7372		56.640625
7373		60.546875
7374		54.687500
7375		58.593750
7376		52.734375
7377		56.640625
7378		50.781250
7379		54.687500
7380		46.875000
7381		52.734375
7382		44.921875
7383		48.828125
7384		41.015625
7385		46.875000
7386		39.062500
7387		42.968750
7388		37.109375
7389		41.015625
7390		33.203125
7391		37.109375
7392		29.296875
7393		35.156250
7394		27.343750
7395		31.250000
7396		23.437500
7397		27.343750
7398		19.531250
7399		25.390625
7400		15.625000
7401		21.484375
7402		13.671875
7403		17.578125
7404		9.765625
7405		13.671875
7406		5.859375
7407		9.765625
7408		1.953125
7409		7.812500
7410		-1.953125
7411		3.906250
7412		-5.859375
7413		0.000000
7414		-7.812500
7415		-3.906250
7416		-11.718750
7417		-7.812500
7418		-15.625000
7419		-9.765625
7420		-19.531250
7421		-13.671875
7422		-21.484375
7423		-17.578125
7424		-25.390625
7425		-21.484375
7426		-29.296875
7427		-23.437500
7428		-31.250000
7429		-27.343750
7430		-35.156250
7431		-31.250000
7432		-37.109375
7433		-33.203125
7434		-41.015625
7435		-37.109375
7436		-42.968750
7437		-39.062500
7438		-46.875000
7439		-41.015625
7440		-48.828125
7441		-44.921875
7442		-50.781250
7443		-46.875000
7444		-52.734375
7445		-48.828125
7446		-54.687500
7447		-50.781250
7448		-56.640625
7449		-52.734375
7450		-58.593750
7451		-54.687500
7452		-60.546875
7453		-56.640625
7454		-62.500000
7455		-58.593750
7456		-62.500000
7457		-60.546875
7458		-64.453125
7459		-60.546875
7460		-64.453125
7461		-62.500000
7462		-64.453125
7463		-62.500000
7464		-66.406250
7465		-64.453125
7466		-66.406250
7467		-64.453125
7468		-66.406250
7469		-62.500000
7470		-66.406250
7471		-64.453125
7472		-66.406250
7473		-64.453125
7474		-66.406250
7475		-64.453125
7476		-64.453125
7477		-62.500000
7478		-64.453125
7479		-62.500000
7480		-64.453125
7481		-60.546875
7482		-62.500000
7483		-60.546875
7484		-60.546875
7485		-58.593750
7486		-60.546875
7487		-56.640625
7488		-58.593750
7489		-54.687500
7490		-56.640625
7491		-52.734375
7492		-54.687500
7493		-50.781250
7494		-52.734375
7495		-48.828125
7496		-50.781250
7497		-46.875000
7498		-48.828125
7499		-42.968750
7500		-44.921875
7501		-41.015625
7502		-42.968750
7503		-39.062500
7504		-41.015625
7505		-35.156250
7506		-37.109375
7507		-33.203125
7508		-35.156250
7509		-29.296875
7510		-31.250000
7511		-27.343750
7512		-29.296875
7513		-23.437500
7514		-25.390625
7515		-21.484375
7516		-21.484375
7517		-17.578125
7518		-17.578125
7519		-13.671875
7520		-15.625000
7521		-9.765625
7522		-11.718750
7523		-5.859375
7524		-7.812500
7525		-3.906250
7526		-3.906250
7527		0.000000
7528		-1.953125
7529		3.906250
7530		1.953125
7531		7.812500
7532		5.859375
7533		11.718750
7534		9.765625
7535		13.671875
7536		13.671875
7537		17.578125
7538		15.625000
7539		21.484375
7540		19.531250
7541		25.390625
7542		23.437500
7543		27.343750
7544		25.390625
7545		31.250000
7546		29.296875
7547		33.203125
7548		33.203125
7549		37.109375
7550		35.156250
7551		41.015625
7552		39.062500
7553		44.921875
7554		41.015625
7555		46.875000
7556		44.921875
7557		48.828125
7558		46.875000
7559		50.781250
7560		50.781250
7561		54.687500
7562		52.734375
7563		56.640625
7564		54.687500
7565		58.593750
7566		56.640625
7567		60.546875
7568		58.593750
7569		62.500000
7570		60.546875
7571		64.453125
7572		62.500000
7573		66.406250
7574		64.453125
7575		68.359375
7576		66.406250
7577		70.312500
7578		68.359375
7579		70.312500
7580		70.312500
7581		72.265625
7582		70.312500
7583		74.218750
7584		72.265625
7585		74.218750
7586		72.265625
7587		76.171875
7588		74.218750
7589		76.171875
7590		74.218750
7591		76.171875
7592		74.218750
7593		76.171875
7594		74.218750
7595		76.171875
7596		74.218750
7597		78.125000
7598		74.218750
7599		76.171875
7600		74.218750
7601		76.171875
7602		74.218750
7603		76.171875
7604		74.218750
7605		76.171875
7606		72.265625
7607		76.171875
7608		72.265625
7609		74.218750
7610		70.312500
7611		72.265625
7612		68.359375
7613		72.265625
7614		68.359375
7615		70.312500
7616		66.406250
7617		70.312500
7618		64.453125
7619		68.359375
7620		62.500000
7621		66.406250
7622		60.546875
7623		64.453125
7624		58.593750
7625		62.500000
7626		56.640625
7627		60.546875
7628		54.687500
7629		58.593750
7630		52.734375
7631		56.640625
7632		48.828125
7633		52.734375
7634		46.875000
7635		50.781250
7636		42.968750
7637		48.828125
7638		41.015625
7639		44.921875
7640		37.109375
7641		42.968750
7642		35.156250
7643		39.062500
7644		31.250000
7645		37.109375
7646		29.296875
7647		33.203125
7648		25.390625
7649		29.296875
7650		21.484375
7651		27.343750
7652		17.578125
7653		23.437500
7654		15.625000
7655		19.531250
7656		11.718750
7657		15.625000
7658		7.812500
7659		13.671875
7660		3.906250
7661		9.765625
7662		0.000000
7663		5.859375
7664		-1.953125
7665		1.953125
7666		-5.859375
7667		-1.953125
7668		-9.765625
7669		-3.906250
7670		-13.671875
7671		-7.812500
7672		-15.625000
7673		-11.718750
7674		-19.531250
7675		-15.625000
7676		-23.437500
7677		-17.578125
7678		-27.343750
7679		-21.484375
7680		-29.296875
7681		-25.390625
7682		-33.203125
7683		-27.343750
7684		-35.156250
7685		-31.250000
7686		-39.062500
7687		-35.156250
7688		-41.015625
7689		-37.109375
7690		-44.921875
7691		-41.015625
7692		-46.875000
7693		-42.968750
7694		-48.828125
7695		-44.921875
7696		-50.781250
7697		-46.875000
7698		-52.734375
7699		-48.828125
7700		-54.687500
7701		-52.734375
7702		-56.640625
7703		-54.687500
7704		-58.593750
7705		-54.687500
7706		-60.546875
7707		-56.640625
7708		-62.500000
7709		-58.593750
7710		-62.500000
7711		-60.546875
7712		-64.453125
7713		-60.546875
7714		-64.453125
7715		-62.500000
7716		-64.453125
7717		-62.500000
7718		-66.406250
7719		-64.453125
7720		-66.406250
7721		-64.453125
7722		-66.406250
7723		-64.453125
7724		-66.406250
7725		-64.453125
7726		-66.406250
7727		-62.500000
7728		-66.406250
7729		-62.500000
7730		-64.453125
7731		-62.500000
7732		-64.453125
7733		-60.546875
7734		-62.500000
7735		-60.546875
7736		-62.500000
7737		-58.593750
7738		-60.546875
7739		-58.593750
7740		-58.593750
7741		-56.640625
7742		-56.640625
7743		-54.687500
7744		-56.640625
7745		-52.734375
7746		-54.687500
7747		-48.828125
7748		-50.781250
7749		-48.828125
7750		-50.781250
7751		-44.921875
7752		-46.875000
7753		-42.968750
7754		-44.921875
7755		-41.015625
7756		-41.015625
7757		-37.109375
7758		-39.062500
7759		-35.156250
7760		-37.109375
7761		-31.250000
7762		-33.203125
7763		-27.343750
7764		-29.296875
7765		-25.390625
7766		-27.343750
7767		-19.531250
7768		-23.437500
7769		-19.531250
7770		-21.484375
7771		-13.671875
7772		-17.578125
7773		-11.718750
7774		-13.671875
7775		-7.812500
7776		-9.765625
7777		-5.859375
7778		-5.859375
7779		-1.953125
7780		-5.859375
7781		1.953125
7782		0.000000
7783		5.859375
7784		1.953125
7785		9.765625
7786		7.812500
7787		11.718750
7788		7.812500
7789		15.625000
7790		13.671875
7791		19.531250
7792		17.578125
7793		23.437500
7794		19.531250
7795		25.390625
7796		23.437500
7797		29.296875
7798		27.343750
7799		33.203125
7800		31.250000
7801		37.109375
7802		33.203125
7803		39.062500
7804		35.156250
7805		42.968750
7806		41.015625
7807		44.921875
7808		42.968750
7809		46.875000
7810		44.921875
7811		50.781250
7812		44.921875
7813		54.687500
7814		50.781250
7815		54.687500
7816		52.734375
7817		58.593750
7818		56.640625
7819		60.546875
7820		56.640625
7821		64.453125
7822		60.546875
7823		64.453125
7824		62.500000
7825		66.406250
7826		64.453125
7827		68.359375
7828		64.453125
7829		72.265625
7830		66.406250
7831		72.265625
7832		68.359375
7833		72.265625
7834		68.359375
7835		76.171875
7836		68.359375
7837		76.171875
7838		68.359375
7839		76.171875
7840		72.265625
7841		76.171875
7842		74.218750
7843		76.171875
7844		72.265625
7845		80.078125
7846		72.265625
7847		78.125000
7848		74.218750
7849		78.125000
7850		74.218750
7851		78.125000
7852		72.265625
7853		80.078125
7854		70.312500
7855		80.078125
7856		74.218750
7857		76.171875
7858		72.265625
7859		76.171875
7860		72.265625
7861		76.171875
7862		66.406250
7863		76.171875
7864		68.359375
7865		74.218750
7866		68.359375
7867		72.265625
7868		64.453125
7869		74.218750
7870		66.406250
7871		68.359375
7872		62.500000
7873		72.265625
7874		62.500000
7875		66.406250
7876		58.593750
7877		64.453125
7878		56.640625
7879		64.453125
7880		54.687500
7881		62.500000
7882		52.734375
7883		58.593750
7884		48.828125
7885		56.640625
7886		46.875000
7887		56.640625
7888		42.968750
7889		52.734375
7890		42.968750
7891		46.875000
7892		41.015625
7893		44.921875
7894		37.109375
7895		42.968750
7896		33.203125
7897		41.015625
7898		31.250000
7899		35.156250
7900		27.343750
7901		33.203125
7902		21.484375
7903		31.250000
7904		19.531250
7905		25.390625
7906		17.578125
7907		21.484375
7908		13.671875
7909		19.531250
7910		9.765625
7911		15.625000
7912		5.859375
7913		13.671875
7914		1.953125
7915		9.765625
7916		0.000000
7917		3.906250
7918		-7.812500
7919		1.953125
7920		-7.812500
7921		1.953125
7922		-13.671875
7923		-3.906250
7924		-13.671875
7925		-9.765625
7926		-17.578125
7927		-11.718750
7928		-23.437500
7929		-15.625000
7930		-25.390625
7931		-15.625000
7932		-27.343750
7933		-21.484375
7934		-31.250000
7935		-25.390625
7936		-37.109375
7937		-25.390625
7938		-39.062500
7939		-31.250000
7940		-39.062500
7941		-35.156250
7942		-42.968750
7943		-39.062500
7944		-46.875000
7945		-39.062500
7946		-50.781250
7947		-41.015625
7948		-50.781250
7949		-42.968750
7950		-52.734375
7951		-48.828125
7952		-58.593750
7953		-48.828125
7954		-58.593750
7955		-48.828125
7956		-60.546875
7957		-50.781250
7958		-58.593750
7959		-56.640625
7960		-62.500000
7961		-58.593750
7962		-66.406250
7963		-56.640625
7964		-64.453125
7965		-60.546875
7966		-64.453125
7967		-62.500000
7968		-66.406250
7969		-60.546875
7970		-70.312500
7971		-58.593750
7972		-68.359375
7973		-60.546875
7974		-66.406250
7975		-64.453125
7976		-66.406250
7977		-64.453125
7978		-66.406250
7979		-62.500000
7980		-68.359375
7981		-60.546875
7982		-64.453125
7983		-62.500000
7984		-64.453125
7985		-60.546875
7986		-68.359375
7987		-56.640625
7988		-64.453125
7989		-56.640625
7990		-60.546875
7991		-58.593750
7992		-60.546875
7993		-56.640625
7994		-58.593750
7995		-54.687500
7996		-58.593750
7997		-50.781250
7998		-56.640625
7999		-50.781250
8000		-52.734375
8001		-48.828125
8002		-52.734375
8003		-42.968750
8004		-50.781250
8005		-42.968750
8006		-48.828125
8007		-41.015625
8008		-42.968750
8009		-39.062500
8010		-41.015625
8011		-37.109375
8012		-39.062500
8013		-33.203125
8014		-37.109375
8015		-29.296875
8016		-33.203125
8017		-27.343750
8018		-29.296875
8019		-23.437500
8020		-27.343750
8021		-21.484375
8022		-23.437500
8023		-15.625000
8024		-19.531250
8025		-13.671875
8026		-15.625000
8027		-11.718750
8028		-11.718750
8029		-7.812500
8030		-9.765625
8031		-1.953125
8032		-5.859375
8033		0.000000
8034		-1.953125
8035		3.906250
8036		0.000000
8037		5.859375
8038		5.859375
8039		9.765625
8040		7.812500
8041		13.671875
8042		11.718750
8043		17.578125
8044		15.625000
8045		19.531250
8046		19.531250
8047		23.437500
8048		21.484375
8049		27.343750
8050		25.390625
8051		29.296875
8052		29.296875
8053		35.156250
8054		31.250000
8055		37.109375
8056		35.156250
8057		39.062500
8058		39.062500
8059		42.968750
8060		41.015625
8061		44.921875
8062		42.968750
8063		48.828125
8064		46.875000
8065		50.781250
8066		48.828125
8067		52.734375
8068		50.781250
8069		56.640625
8070		54.687500
8071		58.593750
8072		56.640625
8073		60.546875
8074		58.593750
8075		62.500000
8076		60.546875
8077		64.453125
8078		62.500000
8079		66.406250
8080		64.453125
8081		68.359375
8082		66.406250
8083		70.312500
8084		68.359375
8085		72.265625
8086		68.359375
8087		72.265625
8088		70.312500
8089		72.265625
8090		70.312500
8091		74.218750
8092		72.265625
8093		74.218750
8094		72.265625
8095		76.171875
8096		72.265625
8097		78.125000
8098		72.265625
8099		78.125000
8100		72.265625
8101		78.125000
8102		74.218750
8103		78.125000
8104		72.265625
8105		78.125000
8106		74.218750
8107		78.125000
8108		74.218750
8109		76.171875
8110		74.218750
8111		76.171875
8112		72.265625
8113		76.171875
8114		70.312500
8115		76.171875
8116		70.312500
8117		74.218750
8118		68.359375
8119		74.218750
8120		66.406250
8121		72.265625
8122		66.406250
8123		72.265625
8124		64.453125
8125		68.359375
8126		62.500000
8127		66.406250
8128		60.546875
8129		64.453125
8130		58.593750
8131		64.453125
8132		56.640625
8133		62.500000
8134		52.734375
8135		60.546875
8136		50.781250
8137		56.640625
8138		48.828125
8139		54.687500
8140		46.875000
8141		52.734375
8142		44.921875
8143		48.828125
8144		41.015625
8145		46.875000
8146		37.109375
8147		44.921875
8148		35.156250
8149		41.015625
8150		31.250000
8151		39.062500
8152		29.296875
8153		35.156250
8154		25.390625
8155		31.250000
8156		21.484375
8157		29.296875
8158		19.531250
8159		25.390625
8160		15.625000
8161		21.484375
8162		11.718750
8163		17.578125
8164		7.812500
8165		13.671875
8166		5.859375
8167		9.765625
8168		0.000000
8169		7.812500
8170		-1.953125
8171		3.906250
8172		-5.859375
8173		0.000000
8174		-9.765625
8175		-3.906250
8176		-11.718750
8177		-7.812500
8178		-17.578125
8179		-11.718750
8180		-19.531250
8181		-13.671875
8182		-21.484375
8183		-15.625000
8184		-27.343750
8185		-19.531250
8186		-29.296875
8187		-23.437500
8188		-33.203125
8189		-27.343750
8190		-35.156250
8191		-29.296875
8192		-39.062500
8193		-33.203125
8194		-41.015625
8195		-37.109375
8196		-42.968750
8197		-39.062500
8198		-46.875000
8199		-41.015625
8200		-48.828125
8201		-44.921875
8202		-52.734375
8203		-44.921875
8204		-54.687500
8205		-48.828125
8206		-56.640625
8207		-50.781250
8208		-56.640625
8209		-52.734375
8210		-58.593750
8211		-54.687500
8212		-60.546875
8213		-56.640625
8214		-62.500000
8215		-58.593750
8216		-64.453125
8217		-60.546875
8218		-66.406250
8219		-58.593750
8220		-64.453125
8221		-60.546875
8222		-66.406250
8223		-62.500000
8224		-66.406250
8225		-62.500000
8226		-66.406250
8227		-64.453125
8228		-66.406250
8229		-64.453125
8230		-66.406250
8231		-62.500000
8232		-66.406250
8233		-62.500000
8234		-66.406250
8235		-62.500000
8236		-66.406250
8237		-60.546875
8238		-64.453125
8239		-60.546875
8240		-64.453125
8241		-60.546875
8242		-64.453125
8243		-60.546875
8244		-60.546875
8245		-58.593750
8246		-60.546875
8247		-56.640625
8248		-58.593750
8249		-54.687500
8250		-56.640625
8251		-52.734375
8252		-56.640625
8253		-48.828125
8254		-52.734375
8255		-48.828125
8256		-50.781250
8257		-46.875000
8258		-48.828125
8259		-42.968750
8260		-44.921875
8261		-41.015625
8262		-42.968750
8263		-37.109375
8264		-41.015625
8265		-35.156250
8266		-37.109375
8267		-33.203125
8268		-35.156250
8269		-29.296875
8270		-33.203125
8271		-27.343750
8272		-29.296875
8273		-23.437500
8274		-25.390625
8275		-19.531250
8276		-21.484375
8277		-17.578125
8278		-17.578125
8279		-13.671875
8280		-15.625000
8281		-9.765625
8282		-11.718750
8283		-5.859375
8284		-7.812500
8285		-1.953125
8286		-5.859375
8287		1.953125
8288		-1.953125
8289		3.906250
8290		1.953125
8291		7.812500
8292		5.859375
8293		11.718750
8294		9.765625
8295		13.671875
8296		13.671875
8297		17.578125
8298		15.625000
8299		21.484375
8300		19.531250
8301		25.390625
8302		21.484375
8303		29.296875
8304		27.343750
8305		31.250000
8306		29.296875
8307		35.156250
8308		33.203125
8309		39.062500
8310		35.156250
8311		41.015625
8312		39.062500
8313		42.968750
8314		41.015625
8315		46.875000
8316		44.921875
8317		48.828125
8318		46.875000
8319		52.734375
8320		50.781250
8321		54.687500
8322		52.734375
8323		56.640625
8324		54.687500
8325		58.593750
8326		56.640625
8327		60.546875
8328		60.546875
8329		62.500000
8330		60.546875
8331		66.406250
8332		62.500000
8333		66.406250
8334		64.453125
8335		68.359375
8336		66.406250
8337		70.312500
8338		68.359375
8339		72.265625
8340		68.359375
8341		72.265625
8342		70.312500
8343		74.218750
8344		70.312500
8345		74.218750
8346		72.265625
8347		74.218750
8348		72.265625
8349		76.171875
8350		74.218750
8351		76.171875
8352		74.218750
8353		76.171875
8354		74.218750
8355		76.171875
8356		74.218750
8357		78.125000
8358		72.265625
8359		78.125000
8360		74.218750
8361		76.171875
8362		74.218750
8363		76.171875
8364		72.265625
8365		76.171875
8366		72.265625
8367		74.218750
8368		70.312500
8369		74.218750
8370		70.312500
8371		72.265625
8372		68.359375
8373		72.265625
8374		66.406250
8375		70.312500
8376		64.453125
8377		70.312500
8378		64.453125
8379		68.359375
8380		62.500000
8381		66.406250
8382		60.546875
8383		64.453125
8384		58.593750
8385		62.500000
8386		56.640625
8387		60.546875
8388		52.734375
8389		58.593750
8390		50.781250
8391		54.687500
8392		48.828125
8393		52.734375
8394		46.875000
8395		50.781250
8396		42.968750
8397		46.875000
8398		41.015625
8399		44.921875
8400		37.109375
8401		42.968750
8402		33.203125
8403		39.062500
8404		31.250000
8405		35.156250
8406		27.343750
8407		33.203125
8408		23.437500
8409		29.296875
8410		19.531250
8411		25.390625
8412		17.578125
8413		23.437500
8414		13.671875
8415		19.531250
8416		11.718750
8417		15.625000
8418		7.812500
8419		11.718750
8420		3.906250
8421		7.812500
8422		0.000000
8423		5.859375
8424		-3.906250
8425		1.953125
8426		-7.812500
8427		-1.953125
8428		-9.765625
8429		-5.859375
8430		-13.671875
8431		-9.765625
8432		-17.578125
8433		-11.718750
8434		-21.484375
8435		-15.625000
8436		-23.437500
8437		-19.531250
8438		-27.343750
8439		-21.484375
8440		-31.250000
8441		-25.390625
8442		-35.156250
8443		-29.296875
8444		-37.109375
8445		-31.250000
8446		-39.062500
8447		-35.156250
8448		-42.968750
8449		-39.062500
8450		-44.921875
8451		-41.015625
8452		-48.828125
8453		-42.968750
8454		-50.781250
8455		-44.921875
8456		-52.734375
8457		-48.828125
8458		-54.687500
8459		-50.781250
8460		-56.640625
8461		-52.734375
8462		-58.593750
8463		-54.687500
8464		-60.546875
8465		-56.640625
8466		-62.500000
8467		-58.593750
8468		-62.500000
8469		-58.593750
8470		-64.453125
8471		-60.546875
8472		-64.453125
8473		-62.500000
8474		-66.406250
8475		-62.500000
8476		-66.406250
8477		-62.500000
8478		-66.406250
8479		-64.453125
8480		-66.406250
8481		-64.453125
8482		-68.359375
8483		-62.500000
8484		-66.406250
8485		-64.453125
8486		-66.406250
8487		-62.500000
8488		-66.406250
8489		-62.500000
8490		-66.406250
8491		-62.500000
8492		-64.453125
8493		-60.546875
8494		-64.453125
8495		-60.546875
8496		-62.500000
8497		-58.593750
8498		-60.546875
8499		-58.593750
8500		-60.546875
8501		-56.640625
8502		-58.593750
8503		-54.687500
8504		-56.640625
8505		-52.734375
8506		-54.687500
8507		-50.781250
8508		-52.734375
8509		-48.828125
8510		-50.781250
8511		-44.921875
8512		-46.875000
8513		-42.968750
8514		-44.921875
8515		-41.015625
8516		-42.968750
8517		-37.109375
8518		-39.062500
8519		-33.203125
8520		-37.109375
8521		-31.250000
8522		-33.203125
8523		-29.296875
8524		-29.296875
8525		-25.390625
8526		-29.296875
8527		-21.484375
8528		-25.390625
8529		-19.531250
8530		-19.531250
8531		-15.625000
8532		-17.578125
8533		-11.718750
8534		-13.671875
8535		-7.812500
8536		-9.765625
8537		-5.859375
8538		-7.812500
8539		-1.953125
8540		-3.906250
8541		1.953125
8542		0.000000
8543		5.859375
8544		3.906250
8545		9.765625
8546		7.812500
8547		11.718750
8548		11.718750
8549		17.578125
8550		13.671875
8551		19.531250
8552		17.578125
8553		23.437500
8554		21.484375
8555		25.390625
8556		23.437500
8557		29.296875
8558		27.343750
8559		33.203125
8560		31.250000
8561		37.109375
8562		33.203125
8563		39.062500
8564		37.109375
8565		41.015625
8566		41.015625
8567		44.921875
8568		42.968750
8569		46.875000
8570		44.921875
8571		50.781250
8572		46.875000
8573		52.734375
8574		50.781250
8575		54.687500
8576		52.734375
8577		56.640625
8578		54.687500
8579		58.593750
8580		58.593750
8581		62.500000
8582		60.546875
8583		64.453125
8584		62.500000
8585		66.406250
8586		64.453125
8587		66.406250
8588		64.453125
8589		68.359375
8590		66.406250
8591		70.312500
8592		68.359375
8593		72.265625
8594		68.359375
8595		72.265625
8596		70.312500
8597		74.218750
8598		72.265625
8599		74.218750
8600		72.265625
8601		76.171875
8602		72.265625
8603		76.171875
8604		74.218750
8605		76.171875
8606		72.265625
8607		76.171875
8608		74.218750
8609		76.171875
8610		74.218750
8611		78.125000
8612		74.218750
8613		76.171875
8614		74.218750
8615		76.171875
8616		72.265625
8617		76.171875
8618		72.265625
8619		76.171875
8620		72.265625
8621		74.218750
8622		70.312500
8623		74.218750
8624		68.359375
8625		72.265625
8626		66.406250
8627		72.265625
8628		66.406250
8629		70.312500
8630		64.453125
8631		68.359375
8632		62.500000
8633		66.406250
8634		60.546875
8635		64.453125
8636		58.593750
8637		62.500000
8638		56.640625
8639		62.500000
8640		54.687500
8641		58.593750
8642		52.734375
8643		56.640625
8644		48.828125
8645		54.687500
8646		46.875000
8647		50.781250
8648		44.921875
8649		48.828125
8650		41.015625
8651		46.875000
8652		39.062500
8653		42.968750
8654		35.156250
8655		41.015625
8656		33.203125
8657		37.109375
8658		29.296875
8659		35.156250
8660		25.390625
8661		31.250000
8662		23.437500
8663		29.296875
8664		19.531250
8665		23.437500
8666		15.625000
8667		21.484375
8668		11.718750
8669		17.578125
8670		7.812500
8671		13.671875
8672		5.859375
8673		9.765625
8674		1.953125
8675		7.812500
8676		-1.953125
8677		3.906250
8678		-5.859375
8679		0.000000
8680		-7.812500
8681		-3.906250
8682		-11.718750
8683		-7.812500
8684		-15.625000
8685		-9.765625
8686		-19.531250
8687		-13.671875
8688		-21.484375
8689		-17.578125
8690		-25.390625
8691		-21.484375
8692		-29.296875
8693		-23.437500
8694		-31.250000
8695		-27.343750
8696		-35.156250
8697		-29.296875
8698		-39.062500
8699		-33.203125
8700		-41.015625
8701		-37.109375
8702		-44.921875
8703		-39.062500
8704		-46.875000
8705		-41.015625
8706		-48.828125
8707		-44.921875
8708		-50.781250
8709		-46.875000
8710		-54.687500
8711		-48.828125
8712		-56.640625
8713		-50.781250
8714		-56.640625
8715		-54.687500
8716		-60.546875
8717		-56.640625
8718		-60.546875
8719		-56.640625
8720		-62.500000
8721		-58.593750
8722		-64.453125
8723		-60.546875
8724		-64.453125
8725		-60.546875
8726		-66.406250
8727		-60.546875
8728		-66.406250
8729		-62.500000
8730		-66.406250
8731		-64.453125
8732		-66.406250
8733		-64.453125
8734		-68.359375
8735		-64.453125
8736		-68.359375
8737		-64.453125
8738		-66.406250
8739		-64.453125
8740		-66.406250
8741		-64.453125
8742		-66.406250
8743		-64.453125
8744		-66.406250
8745		-62.500000
8746		-64.453125
8747		-60.546875
8748		-64.453125
8749		-60.546875
8750		-62.500000
8751		-58.593750
8752		-62.500000
8753		-58.593750
8754		-60.546875
8755		-54.687500
8756		-58.593750
8757		-54.687500
8758		-56.640625
8759		-50.781250
8760		-54.687500
8761		-50.781250
8762		-50.781250
8763		-46.875000
8764		-48.828125
8765		-44.921875
8766		-46.875000
8767		-42.968750
8768		-44.921875
8769		-39.062500
8770		-42.968750
8771		-37.109375
8772		-39.062500
8773		-35.156250
8774		-37.109375
8775		-31.250000
8776		-33.203125
8777		-27.343750
8778		-29.296875
8779		-23.437500
8780		-27.343750
8781		-21.484375
8782		-23.437500
8783		-17.578125
8784		-19.531250
8785		-15.625000
8786		-15.625000
8787		-9.765625
8788		-13.671875
8789		-7.812500
8790		-9.765625
8791		-3.906250
8792		-5.859375
8793		0.000000
8794		-1.953125
8795		3.906250
8796		1.953125
8797		5.859375
8798		3.906250
8799		9.765625
8800		7.812500
8801		13.671875
8802		11.718750
8803		17.578125
8804		13.671875
8805		21.484375
8806		17.578125
8807		23.437500
8808		21.484375
8809		27.343750
8810		25.390625
8811		31.250000
8812		29.296875
8813		35.156250
8814		31.250000
8815		37.109375
8816		35.156250
8817		39.062500
8818		37.109375
8819		42.968750
8820		41.015625
8821		44.921875
8822		42.968750
8823		48.828125
8824		46.875000
8825		50.781250
8826		48.828125
8827		52.734375
8828		50.781250
8829		54.687500
8830		52.734375
8831		58.593750
8832		56.640625
8833		60.546875
8834		58.593750
8835		62.500000
8836		60.546875
8837		64.453125
8838		62.500000
8839		66.406250
8840		64.453125
8841		66.406250
8842		64.453125
8843		70.312500
8844		66.406250
8845		70.312500
8846		68.359375
8847		72.265625
8848		70.312500
8849		72.265625
8850		70.312500
8851		74.218750
8852		70.312500
8853		74.218750
8854		72.265625
8855		74.218750
8856		72.265625
8857		76.171875
8858		72.265625
8859		76.171875
8860		74.218750
8861		76.171875
8862		74.218750
8863		76.171875
8864		72.265625
8865		76.171875
8866		74.218750
8867		76.171875
8868		72.265625
8869		76.171875
8870		72.265625
8871		76.171875
8872		70.312500
8873		74.218750
8874		70.312500
8875		74.218750
8876		68.359375
8877		74.218750
8878		66.406250
8879		72.265625
8880		66.406250
8881		70.312500
8882		66.406250
8883		68.359375
8884		64.453125
8885		66.406250
8886		62.500000
8887		66.406250
8888		60.546875
8889		64.453125
8890		58.593750
8891		62.500000
8892		56.640625
8893		60.546875
8894		52.734375
8895		58.593750
8896		50.781250
8897		54.687500
8898		48.828125
8899		52.734375
8900		46.875000
8901		50.781250
8902		42.968750
8903		48.828125
8904		39.062500
8905		44.921875
8906		37.109375
8907		41.015625
8908		33.203125
8909		39.062500
8910		29.296875
8911		35.156250
8912		27.343750
8913		33.203125
8914		25.390625
8915		29.296875
8916		21.484375
8917		25.390625
8918		17.578125
8919		23.437500
8920		13.671875
8921		19.531250
8922		11.718750
8923		15.625000
8924		7.812500
8925		13.671875
8926		3.906250
8927		9.765625
8928		0.000000
8929		5.859375
8930		-3.906250
8931		1.953125
8932		-5.859375
8933		-1.953125
8934		-9.765625
8935		-5.859375
8936		-13.671875
8937		-7.812500
8938		-17.578125
8939		-11.718750
8940		-19.531250
8941		-15.625000
8942		-23.437500
8943		-19.531250
8944		-27.343750
8945		-23.437500
8946		-31.250000
8947		-25.390625
8948		-33.203125
8949		-27.343750
8950		-37.109375
8951		-31.250000
8952		-41.015625
8953		-35.156250
8954		-42.968750
8955		-37.109375
8956		-44.921875
8957		-41.015625
8958		-48.828125
8959		-42.968750
8960		-50.781250
8961		-44.921875
8962		-52.734375
8963		-48.828125
8964		-54.687500
8965		-50.781250
8966		-56.640625
8967		-52.734375
8968		-58.593750
8969		-54.687500
8970		-60.546875
8971		-54.687500
8972		-62.500000
8973		-56.640625
8974		-62.500000
8975		-60.546875
8976		-64.453125
8977		-60.546875
8978		-64.453125
8979		-62.500000
8980		-66.406250
8981		-62.500000
8982		-66.406250
8983		-64.453125
8984		-66.406250
8985		-64.453125
8986		-68.359375
8987		-64.453125
8988		-68.359375
8989		-64.453125
8990		-68.359375
8991		-64.453125
8992		-66.406250
8993		-64.453125
8994		-66.406250
8995		-64.453125
8996		-66.406250
8997		-64.453125
8998		-66.406250
8999		-62.500000
9000		-64.453125
9001		-62.500000
9002		-62.500000
9003		-60.546875
9004		-62.500000
9005		-58.593750
9006		-60.546875
9007		-56.640625
9008		-60.546875
9009		-56.640625
9010		-56.640625
9011		-52.734375
9012		-54.687500
9013		-50.781250
9014		-52.734375
9015		-48.828125
9016		-50.781250
9017		-46.875000
9018		-48.828125
9019		-44.921875
9020		-46.875000
9021		-41.015625
9022		-42.968750
9023		-39.062500
9024		-41.015625
9025		-35.156250
9026		-37.109375
9027		-33.203125
9028		-35.156250
9029		-29.296875
9030		-31.250000
9031		-25.390625
9032		-29.296875
9033		-23.437500
9034		-25.390625
9035		-19.531250
9036		-21.484375
9037		-17.578125
9038		-17.578125
9039		-13.671875
9040		-15.625000
9041		-9.765625
9042		-11.718750
9043		-5.859375
9044		-9.765625
9045		-1.953125
9046		-3.906250
9047		1.953125
9048		-1.953125
9049		3.906250
9050		1.953125
9051		7.812500
9052		5.859375
9053		11.718750
9054		7.812500
9055		13.671875
9056		11.718750
9057		17.578125
9058		15.625000
9059		21.484375
9060		19.531250
9061		25.390625
9062		23.437500
9063		27.343750
9064		25.390625
9065		31.250000
9066		27.343750
9067		35.156250
9068		33.203125
9069		37.109375
9070		35.156250
9071		41.015625
9072		39.062500
9073		42.968750
9074		41.015625
9075		46.875000
9076		42.968750
9077		48.828125
9078		46.875000
9079		50.781250
9080		48.828125
9081		54.687500
9082		52.734375
9083		56.640625
9084		54.687500
9085		58.593750
9086		56.640625
9087		60.546875
9088		58.593750
9089		62.500000
9090		60.546875
9091		64.453125
9092		62.500000
9093		66.406250
9094		64.453125
9095		68.359375
9096		66.406250
9097		70.312500
9098		66.406250
9099		72.265625
9100		68.359375
9101		72.265625
9102		70.312500
9103		72.265625
9104		70.312500
9105		74.218750
9106		72.265625
9107		74.218750
9108		72.265625
9109		76.171875
9110		72.265625
9111		76.171875
9112		72.265625
9113		76.171875
9114		72.265625
9115		76.171875
9116		72.265625
9117		76.171875
9118		74.218750
9119		76.171875
9120		72.265625
9121		76.171875
9122		72.265625
9123		76.171875
9124		72.265625
9125		74.218750
9126		70.312500
9127		74.218750
9128		70.312500
9129		72.265625
9130		68.359375
9131		72.265625
9132		66.406250
9133		72.265625
9134		66.406250
9135		70.312500
9136		64.453125
9137		68.359375
9138		62.500000
9139		66.406250
9140		60.546875
9141		64.453125
9142		58.593750
9143		62.500000
9144		56.640625
9145		60.546875
9146		54.687500
9147		58.593750
9148		52.734375
9149		56.640625
9150		50.781250
9151		54.687500
9152		46.875000
9153		50.781250
9154		44.921875
9155		48.828125
9156		41.015625
9157		46.875000
9158		39.062500
9159		42.968750
9160		35.156250
9161		41.015625
9162		33.203125
9163		37.109375
9164		29.296875
9165		35.156250
9166		27.343750
9167		31.250000
9168		23.437500
9169		27.343750
9170		19.531250
9171		25.390625
9172		15.625000
9173		21.484375
9174		13.671875
9175		17.578125
9176		9.765625
9177		15.625000
9178		5.859375
9179		9.765625
9180		1.953125
9181		7.812500
9182		-1.953125
9183		3.906250
9184		-5.859375
9185		0.000000
9186		-7.812500
9187		-3.906250
9188		-11.718750
9189		-5.859375
9190		-15.625000
9191		-9.765625
9192		-19.531250
9193		-13.671875
9194		-21.484375
9195		-17.578125
9196		-25.390625
9197		-19.531250
9198		-29.296875
9199		-23.437500
9200		-31.250000
9201		-27.343750
9202		-35.156250
9203		-31.250000
9204		-39.062500
9205		-33.203125
9206		-41.015625
9207		-37.109375
9208		-44.921875
9209		-39.062500
9210		-46.875000
9211		-42.968750
9212		-48.828125
9213		-42.968750
9214		-50.781250
9215		-46.875000
9216		-52.734375
9217		-48.828125
9218		-56.640625
9219		-52.734375
9220		-56.640625
9221		-54.687500
9222		-58.593750
9223		-54.687500
9224		-60.546875
9225		-56.640625
9226		-62.500000
9227		-58.593750
9228		-64.453125
9229		-60.546875
9230		-64.453125
9231		-62.500000
9232		-66.406250
9233		-62.500000
9234		-66.406250
9235		-62.500000
9236		-66.406250
9237		-64.453125
9238		-68.359375
9239		-64.453125
9240		-68.359375
9241		-64.453125
9242		-68.359375
9243		-64.453125
9244		-68.359375
9245		-64.453125
9246		-68.359375
9247		-64.453125
9248		-68.359375
9249		-64.453125
9250		-68.359375
9251		-62.500000
9252		-66.406250
9253		-62.500000
9254		-64.453125
9255		-60.546875
9256		-64.453125
9257		-60.546875
9258		-62.500000
9259		-58.593750
9260		-60.546875
9261		-56.640625
9262		-58.593750
9263		-54.687500
9264		-58.593750
9265		-52.734375
9266		-54.687500
9267		-50.781250
9268		-52.734375
9269		-48.828125
9270		-50.781250
9271		-46.875000
9272		-48.828125
9273		-42.968750
9274		-44.921875
9275		-41.015625
9276		-42.968750
9277		-39.062500
9278		-41.015625
9279		-35.156250
9280		-37.109375
9281		-33.203125
9282		-35.156250
9283		-29.296875
9284		-31.250000
9285		-27.343750
9286		-27.343750
9287		-23.437500
9288		-25.390625
9289		-19.531250
9290		-21.484375
9291		-17.578125
9292		-17.578125
9293		-11.718750
9294		-13.671875
9295		-9.765625
9296		-11.718750
9297		-5.859375
9298		-7.812500
9299		-1.953125
9300		-3.906250
9301		0.000000
9302		0.000000
9303		3.906250
9304		1.953125
9305		7.812500
9306		5.859375
9307		11.718750
9308		9.765625
9309		15.625000
9310		13.671875
9311		17.578125
9312		17.578125
9313		21.484375
9314		19.531250
9315		25.390625
9316		23.437500
9317		29.296875
9318		25.390625
9319		31.250000
9320		29.296875
9321		35.156250
9322		33.203125
9323		37.109375
9324		37.109375
9325		41.015625
9326		39.062500
9327		44.921875
9328		42.968750
9329		46.875000
9330		44.921875
9331		48.828125
9332		46.875000
9333		52.734375
9334		50.781250
9335		54.687500
9336		52.734375
9337		56.640625
9338		54.687500
9339		60.546875
9340		56.640625
9341		62.500000
9342		58.593750
9343		62.500000
9344		60.546875
9345		64.453125
9346		62.500000
9347		66.406250
9348		64.453125
9349		68.359375
9350		66.406250
9351		70.312500
9352		66.406250
9353		70.312500
9354		68.359375
9355		72.265625
9356		68.359375
9357		74.218750
9358		70.312500
9359		74.218750
9360		70.312500
9361		74.218750
9362		72.265625
9363		76.171875
9364		72.265625
9365		76.171875
9366		72.265625
9367		76.171875
9368		72.265625
9369		76.171875
9370		72.265625
9371		74.218750
9372		72.265625
9373		76.171875
9374		72.265625
9375		76.171875
9376		70.312500
9377		74.218750
9378		70.312500
9379		74.218750
9380		70.312500
9381		72.265625
9382		68.359375
9383		72.265625
9384		66.406250
9385		72.265625
9386		66.406250
9387		70.312500
9388		64.453125
9389		68.359375
9390		62.500000
9391		68.359375
9392		60.546875
9393		66.406250
9394		60.546875
9395		64.453125
9396		56.640625
9397		60.546875
9398		54.687500
9399		60.546875
9400		52.734375
9401		56.640625
9402		50.781250
9403		56.640625
9404		48.828125
9405		52.734375
9406		44.921875
9407		50.781250
9408		42.968750
9409		46.875000
9410		41.015625
9411		44.921875
9412		37.109375
9413		42.968750
9414		33.203125
9415		39.062500
9416		31.250000
9417		37.109375
9418		27.343750
9419		33.203125
9420		25.390625
9421		29.296875
9422		19.531250
9423		25.390625
9424		17.578125
9425		23.437500
9426		13.671875
9427		19.531250
9428		11.718750
9429		15.625000
9430		7.812500
9431		11.718750
9432		1.953125
9433		9.765625
9434		0.000000
9435		5.859375
9436		-3.906250
9437		1.953125
9438		-5.859375
9439		-1.953125
9440		-9.765625
9441		-5.859375
9442		-13.671875
9443		-7.812500
9444		-17.578125
9445		-11.718750
9446		-21.484375
9447		-15.625000
9448		-25.390625
9449		-19.531250
9450		-27.343750
9451		-23.437500
9452		-31.250000
9453		-25.390625
9454		-33.203125
9455		-29.296875
9456		-37.109375
9457		-31.250000
9458		-39.062500
9459		-35.156250
9460		-42.968750
9461		-39.062500
9462		-44.921875
9463		-41.015625
9464		-48.828125
9465		-42.968750
9466		-50.781250
9467		-46.875000
9468		-54.687500
9469		-48.828125
9470		-54.687500
9471		-50.781250
9472		-56.640625
9473		-52.734375
9474		-58.593750
9475		-54.687500
9476		-60.546875
9477		-56.640625
9478		-62.500000
9479		-58.593750
9480		-64.453125
9481		-60.546875
9482		-64.453125
9483		-60.546875
9484		-66.406250
9485		-62.500000
9486		-66.406250
9487		-62.500000
9488		-66.406250
9489		-64.453125
9490		-68.359375
9491		-64.453125
9492		-68.359375
9493		-64.453125
9494		-68.359375
9495		-64.453125
9496		-68.359375
9497		-64.453125
9498		-68.359375
9499		-64.453125
9500		-68.359375
9501		-64.453125
9502		-66.406250
9503		-62.500000
9504		-66.406250
9505		-64.453125
9506		-66.406250
9507		-62.500000
9508		-66.406250
9509		-60.546875
9510		-62.500000
9511		-58.593750
9512		-62.500000
9513		-58.593750
9514		-60.546875
9515		-56.640625
9516		-58.593750
9517		-54.687500
9518		-56.640625
9519		-50.781250
9520		-54.687500
9521		-50.781250
9522		-50.781250
9523		-48.828125
9524		-50.781250
9525		-44.921875
9526		-46.875000
9527		-42.968750
9528		-44.921875
9529		-39.062500
9530		-42.968750
9531		-37.109375
9532		-39.062500
9533		-33.203125
9534		-35.156250
9535		-31.250000
9536		-33.203125
9537		-27.343750
9538		-29.296875
9539		-25.390625
9540		-27.343750
9541		-21.484375
9542		-23.437500
9543		-17.578125
9544		-19.531250
9545		-15.625000
9546		-17.578125
9547		-11.718750
9548		-13.671875
9549		-5.859375
9550		-9.765625
9551		-3.906250
9552		-5.859375
9553		0.000000
9554		-1.953125
9555		1.953125
9556		1.953125
9557		5.859375
9558		3.906250
9559		9.765625
9560		7.812500
9561		13.671875
9562		11.718750
9563		17.578125
9564		15.625000
9565		21.484375
9566		17.578125
9567		23.437500
9568		21.484375
9569		27.343750
9570		25.390625
9571		29.296875
9572		29.296875
9573		33.203125
9574		31.250000
9575		37.109375
9576		35.156250
9577		39.062500
9578		37.109375
9579		42.968750
9580		41.015625
9581		44.921875
9582		42.968750
9583		48.828125
9584		46.875000
9585		50.781250
9586		48.828125
9587		52.734375
9588		50.781250
9589		56.640625
9590		54.687500
9591		58.593750
9592		54.687500
9593		60.546875
9594		58.593750
9595		62.500000
9596		60.546875
9597		64.453125
9598		62.500000
9599		66.406250
9600		64.453125
9601		68.359375
9602		64.453125
9603		68.359375
9604		66.406250
9605		70.312500
9606		68.359375
9607		70.312500
9608		68.359375
9609		72.265625
9610		70.312500
9611		74.218750
9612		72.265625
9613		74.218750
9614		72.265625
9615		76.171875
9616		72.265625
9617		76.171875
9618		74.218750
9619		76.171875
9620		72.265625
9621		76.171875
9622		74.218750
9623		76.171875
9624		74.218750
9625		76.171875
9626		72.265625
9627		76.171875
9628		72.265625
9629		76.171875
9630		72.265625
9631		76.171875
9632		70.312500
9633		74.218750
9634		70.312500
9635		74.218750
9636		68.359375
9637		72.265625
9638		68.359375
9639		70.312500
9640		66.406250
9641		70.312500
9642		64.453125
9643		68.359375
9644		64.453125
9645		68.359375
9646		60.546875
9647		66.406250
9648		60.546875
9649		64.453125
9650		56.640625
9651		62.500000
9652		54.687500
9653		58.593750
9654		52.734375
9655		56.640625
9656		50.781250
9657		54.687500
9658		48.828125
9659		52.734375
9660		44.921875
9661		50.781250
9662		42.968750
9663		46.875000
9664		39.062500
9665		44.921875
9666		37.109375
9667		41.015625
9668		33.203125
9669		39.062500
9670		29.296875
9671		35.156250
9672		27.343750
9673		31.250000
9674		23.437500
9675		29.296875
9676		19.531250
9677		27.343750
9678		17.578125
9679		23.437500
9680		13.671875
9681		17.578125
9682		9.765625
9683		15.625000
9684		5.859375
9685		11.718750
9686		3.906250
9687		7.812500
9688		0.000000
9689		5.859375
9690		-3.906250
9691		1.953125
9692		-7.812500
9693		-1.953125
9694		-11.718750
9695		-5.859375
9696		-15.625000
9697		-9.765625
9698		-17.578125
9699		-13.671875
9700		-21.484375
9701		-15.625000
9702		-25.390625
9703		-19.531250
9704		-27.343750
9705		-23.437500
9706		-31.250000
9707		-25.390625
9708		-35.156250
9709		-29.296875
9710		-37.109375
9711		-31.250000
9712		-39.062500
9713		-35.156250
9714		-42.968750
9715		-39.062500
9716		-44.921875
9717		-41.015625
9718		-48.828125
9719		-42.968750
9720		-50.781250
9721		-46.875000
9722		-52.734375
9723		-48.828125
9724		-54.687500
9725		-50.781250
9726		-56.640625
9727		-52.734375
9728		-58.593750
9729		-54.687500
9730		-60.546875
9731		-56.640625
9732		-60.546875
9733		-58.593750
9734		-64.453125
9735		-60.546875
9736		-64.453125
9737		-60.546875
9738		-66.406250
9739		-60.546875
9740		-66.406250
9741		-62.500000
9742		-66.406250
9743		-62.500000
9744		-66.406250
9745		-64.453125
9746		-66.406250
9747		-64.453125
9748		-66.406250
9749		-64.453125
9750		-68.359375
9751		-64.453125
9752		-68.359375
9753		-64.453125
9754		-68.359375
9755		-62.500000
9756		-66.406250
9757		-62.500000
9758		-64.453125
9759		-62.500000
9760		-64.453125
9761		-60.546875
9762		-62.500000
9763		-58.593750
9764		-62.500000
9765		-58.593750
9766		-60.546875
9767		-56.640625
9768		-58.593750
9769		-54.687500
9770		-56.640625
9771		-52.734375
9772		-54.687500
9773		-50.781250
9774		-52.734375
9775		-48.828125
9776		-50.781250
9777		-46.875000
9778		-48.828125
9779		-42.968750
9780		-44.921875
9781		-41.015625
9782		-42.968750
9783		-39.062500
9784		-39.062500
9785		-35.156250
9786		-37.109375
9787		-33.203125
9788		-33.203125
9789		-29.296875
9790		-31.250000
9791		-25.390625
9792		-27.343750
9793		-21.484375
9794		-25.390625
9795		-19.531250
9796		-21.484375
9797		-15.625000
9798		-17.578125
9799		-13.671875
9800		-13.671875
9801		-9.765625
9802		-11.718750
9803		-5.859375
9804		-7.812500
9805		-1.953125
9806		-3.906250
9807		1.953125
9808		0.000000
9809		5.859375
9810		1.953125
9811		9.765625
9812		7.812500
9813		11.718750
9814		9.765625
9815		15.625000
9816		13.671875
9817		19.531250
9818		17.578125
9819		23.437500
9820		21.484375
9821		25.390625
9822		23.437500
9823		29.296875
9824		27.343750
9825		31.250000
9826		31.250000
9827		35.156250
9828		33.203125
9829		39.062500
9830		37.109375
9831		41.015625
9832		39.062500
9833		44.921875
9834		42.968750
9835		46.875000
9836		44.921875
9837		48.828125
9838		46.875000
9839		52.734375
9840		50.781250
9841		54.687500
9842		52.734375
9843		56.640625
9844		54.687500
9845		58.593750
9846		56.640625
9847		62.500000
9848		60.546875
9849		62.500000
9850		62.500000
9851		66.406250
9852		62.500000
9853		66.406250
9854		64.453125
9855		68.359375
9856		66.406250
9857		70.312500
9858		68.359375
9859		70.312500
9860		68.359375
9861		74.218750
9862		70.312500
9863		74.218750
9864		72.265625
9865		74.218750
9866		72.265625
9867		76.171875
9868		72.265625
9869		76.171875
9870		72.265625
9871		76.171875
9872		72.265625
9873		76.171875
9874		74.218750
9875		76.171875
9876		74.218750
9877		78.125000
9878		74.218750
9879		76.171875
9880		74.218750
9881		76.171875
9882		72.265625
9883		76.171875
9884		72.265625
9885		74.218750
9886		70.312500
9887		74.218750
9888		70.312500
9889		74.218750
9890		70.312500
9891		72.265625
9892		68.359375
9893		70.312500
9894		66.406250
9895		70.312500
9896		64.453125
9897		68.359375
9898		62.500000
9899		68.359375
9900		60.546875
9901		64.453125
9902		58.593750
9903		62.500000
9904		56.640625
9905		62.500000
9906		54.687500
9907		60.546875
9908		52.734375
9909		56.640625
9910		48.828125
9911		54.687500
9912		46.875000
9913		50.781250
9914		44.921875
9915		48.828125
9916		41.015625
9917		46.875000
9918		39.062500
9919		44.921875
9920		35.156250
9921		41.015625
9922		33.203125
9923		39.062500
9924		29.296875
9925		35.156250
9926		27.343750
9927		31.250000
9928		23.437500
9929		29.296875
9930		19.531250
9931		25.390625
9932		15.625000
9933		21.484375
9934		11.718750
9935		17.578125
9936		9.765625
9937		13.671875
9938		5.859375
9939		11.718750
9940		1.953125
9941		7.812500
9942		-1.953125
9943		3.906250
9944		-5.859375
9945		0.000000
9946		-9.765625
9947		-3.906250
9948		-11.718750
9949		-7.812500
9950		-15.625000
9951		-9.765625
9952		-17.578125
9953		-13.671875
9954		-21.484375
9955		-15.625000
9956		-25.390625
9957		-19.531250
9958		-27.343750
9959		-23.437500
9960		-31.250000
9961		-27.343750
9962		-35.156250
9963		-29.296875
9964		-37.109375
9965		-33.203125
9966		-41.015625
9967		-35.156250
9968		-42.968750
9969		-39.062500
9970		-46.875000
9971		-41.015625
9972		-48.828125
9973		-44.921875
9974		-50.781250
9975		-46.875000
9976		-52.734375
9977		-48.828125
9978		-54.687500
9979		-50.781250
9980		-56.640625
9981		-52.734375
9982		-58.593750
9983		-54.687500
9984		-60.546875
9985		-56.640625
9986		-62.500000
9987		-58.593750
9988		-62.500000
9989		-60.546875
9990		-64.453125
9991		-60.546875
9992		-64.453125
9993		-62.500000
9994		-66.406250
9995		-62.500000
9996		-66.406250
9997		-62.500000
9998		-66.406250
9999		-62.500000
10000		-66.406250
