Channel              :		CH1
Frequency            :		1.987kHz
Period               :		0.503ms
PK-PK                :		175.8mV
Probe attenuation    :		1X
Voltage per ADC value:		0.122070mV
Time interval        :		2.00000us

index		CH1_Voltage(mV)
1		64.453125
2		64.453125
3		68.359375
4		64.453125
5		74.218750
6		66.406250
7		76.171875
8		70.312500
9		78.125000
10		72.265625
11		80.078125
12		74.218750
13		82.031250
14		76.171875
15		83.984375
16		80.078125
17		83.984375
18		82.031250
19		85.937500
20		82.031250
21		89.843750
22		82.031250
23		89.843750
24		83.984375
25		91.796875
26		85.937500
27		91.796875
28		85.937500
29		93.750000
30		85.937500
31		93.750000
32		87.890625
33		93.750000
34		89.843750
35		91.796875
36		87.890625
37		93.750000
38		87.890625
39		93.750000
40		87.890625
41		93.750000
42		85.937500
43		93.750000
44		85.937500
45		91.796875
46		83.984375
47		91.796875
48		83.984375
49		91.796875
50		83.984375
51		87.890625
52		83.984375
53		85.937500
54		80.078125
55		87.890625
56		78.125000
57		85.937500
58		76.171875
59		83.984375
60		74.218750
61		82.031250
62		72.265625
63		80.078125
64		68.359375
65		78.125000
66		68.359375
67		74.218750
68		66.406250
69		70.312500
70		60.546875
71		68.359375
72		58.593750
73		68.359375
74		54.687500
75		64.453125
76		52.734375
77		60.546875
78		48.828125
79		58.593750
80		44.921875
81		54.687500
82		42.968750
83		50.781250
84		41.015625
85		44.921875
86		35.156250
87		41.015625
88		31.250000
89		39.062500
90		25.390625
91		37.109375
92		23.437500
93		31.250000
94		17.578125
95		27.343750
96		13.671875
97		23.437500
98		9.765625
99		19.531250
100		7.812500
101		13.671875
102		3.906250
103		9.765625
104		-1.953125
105		5.859375
106		-5.859375
107		3.906250
108		-9.765625
109		0.000000
110		-15.625000
111		-5.859375
112		-19.531250
113		-7.812500
114		-21.484375
115		-13.671875
116		-25.390625
117		-17.578125
118		-27.343750
119		-23.437500
120		-33.203125
121		-27.343750
122		-37.109375
123		-29.296875
124		-41.015625
125		-33.203125
126		-44.921875
127		-35.156250
128		-48.828125
129		-39.062500
130		-50.781250
131		-42.968750
132		-52.734375
133		-44.921875
134		-54.687500
135		-50.781250
136		-56.640625
137		-52.734375
138		-62.500000
139		-54.687500
140		-64.453125
141		-56.640625
142		-66.406250
143		-58.593750
144		-68.359375
145		-60.546875
146		-70.312500
147		-62.500000
148		-72.265625
149		-64.453125
150		-72.265625
151		-66.406250
152		-72.265625
153		-68.359375
154		-76.171875
155		-68.359375
156		-76.171875
157		-68.359375
158		-76.171875
159		-68.359375
160		-76.171875
161		-70.312500
162		-76.171875
163		-70.312500
164		-76.171875
165		-68.359375
166		-76.171875
167		-68.359375
168		-72.265625
169		-70.312500
170		-72.265625
171		-68.359375
172		-74.218750
173		-66.406250
174		-72.265625
175		-64.453125
176		-70.312500
177		-62.500000
178		-68.359375
179		-62.500000
180		-68.359375
181		-60.546875
182		-66.406250
183		-58.593750
184		-60.546875
185		-56.640625
186		-58.593750
187		-54.687500
188		-56.640625
189		-50.781250
190		-54.687500
191		-46.875000
192		-52.734375
193		-44.921875
194		-50.781250
195		-41.015625
196		-46.875000
197		-37.109375
198		-42.968750
199		-33.203125
200		-39.062500
201		-31.250000
202		-33.203125
203		-29.296875
204		-29.296875
205		-23.437500
206		-27.343750
207		-19.531250
208		-25.390625
209		-15.625000
210		-19.531250
211		-11.718750
212		-15.625000
213		-7.812500
214		-11.718750
215		-1.953125
216		-7.812500
217		0.000000
218		-1.953125
219		3.906250
220		1.953125
221		7.812500
222		3.906250
223		13.671875
224		7.812500
225		17.578125
226		11.718750
227		21.484375
228		15.625000
229		25.390625
230		19.531250
231		29.296875
232		23.437500
233		33.203125
234		29.296875
235		35.156250
236		35.156250
237		39.062500
238		37.109375
239		44.921875
240		39.062500
241		48.828125
242		42.968750
243		52.734375
244		46.875000
245		56.640625
246		50.781250
247		58.593750
248		52.734375
249		62.500000
250		56.640625
251		64.453125
252		62.500000
253		66.406250
254		64.453125
255		68.359375
256		64.453125
257		72.265625
258		68.359375
259		76.171875
260		70.312500
261		78.125000
262		72.265625
263		80.078125
264		74.218750
265		82.031250
266		76.171875
267		83.984375
268		80.078125
269		83.984375
270		82.031250
271		85.937500
272		82.031250
273		89.843750
274		83.984375
275		89.843750
276		83.984375
277		91.796875
278		85.937500
279		91.796875
280		85.937500
281		91.796875
282		85.937500
283		93.750000
284		85.937500
285		93.750000
286		89.843750
287		91.796875
288		87.890625
289		93.750000
290		85.937500
291		93.750000
292		85.937500
293		93.750000
294		85.937500
295		93.750000
296		85.937500
297		91.796875
298		83.984375
299		91.796875
300		83.984375
301		91.796875
302		83.984375
303		87.890625
304		82.031250
305		85.937500
306		78.125000
307		85.937500
308		78.125000
309		85.937500
310		76.171875
311		83.984375
312		74.218750
313		82.031250
314		72.265625
315		80.078125
316		68.359375
317		76.171875
318		68.359375
319		74.218750
320		66.406250
321		70.312500
322		60.546875
323		66.406250
324		58.593750
325		66.406250
326		54.687500
327		62.500000
328		50.781250
329		60.546875
330		46.875000
331		56.640625
332		44.921875
333		54.687500
334		41.015625
335		50.781250
336		39.062500
337		42.968750
338		35.156250
339		41.015625
340		29.296875
341		37.109375
342		25.390625
343		35.156250
344		21.484375
345		31.250000
346		17.578125
347		27.343750
348		13.671875
349		23.437500
350		9.765625
351		19.531250
352		7.812500
353		13.671875
354		1.953125
355		7.812500
356		-3.906250
357		3.906250
358		-7.812500
359		1.953125
360		-11.718750
361		-1.953125
362		-15.625000
363		-5.859375
364		-19.531250
365		-9.765625
366		-23.437500
367		-15.625000
368		-25.390625
369		-17.578125
370		-29.296875
371		-25.390625
372		-35.156250
373		-27.343750
374		-39.062500
375		-29.296875
376		-42.968750
377		-33.203125
378		-44.921875
379		-37.109375
380		-48.828125
381		-41.015625
382		-52.734375
383		-42.968750
384		-54.687500
385		-46.875000
386		-54.687500
387		-52.734375
388		-58.593750
389		-54.687500
390		-64.453125
391		-56.640625
392		-64.453125
393		-58.593750
394		-68.359375
395		-60.546875
396		-70.312500
397		-62.500000
398		-70.312500
399		-62.500000
400		-72.265625
401		-64.453125
402		-72.265625
403		-66.406250
404		-72.265625
405		-70.312500
406		-76.171875
407		-68.359375
408		-76.171875
409		-68.359375
410		-76.171875
411		-70.312500
412		-76.171875
413		-70.312500
414		-76.171875
415		-70.312500
416		-76.171875
417		-70.312500
418		-76.171875
419		-70.312500
420		-74.218750
421		-70.312500
422		-72.265625
423		-68.359375
424		-74.218750
425		-66.406250
426		-72.265625
427		-64.453125
428		-70.312500
429		-64.453125
430		-68.359375
431		-60.546875
432		-68.359375
433		-58.593750
434		-64.453125
435		-56.640625
436		-62.500000
437		-56.640625
438		-58.593750
439		-54.687500
440		-56.640625
441		-50.781250
442		-54.687500
443		-46.875000
444		-52.734375
445		-42.968750
446		-48.828125
447		-41.015625
448		-44.921875
449		-37.109375
450		-42.968750
451		-33.203125
452		-39.062500
453		-31.250000
454		-33.203125
455		-27.343750
456		-29.296875
457		-23.437500
458		-27.343750
459		-19.531250
460		-23.437500
461		-13.671875
462		-19.531250
463		-9.765625
464		-15.625000
465		-5.859375
466		-11.718750
467		-3.906250
468		-7.812500
469		1.953125
470		-1.953125
471		3.906250
472		1.953125
473		7.812500
474		3.906250
475		13.671875
476		7.812500
477		17.578125
478		13.671875
479		23.437500
480		15.625000
481		25.390625
482		21.484375
483		31.250000
484		25.390625
485		35.156250
486		27.343750
487		37.109375
488		35.156250
489		39.062500
490		39.062500
491		44.921875
492		39.062500
493		48.828125
494		42.968750
495		52.734375
496		46.875000
497		56.640625
498		50.781250
499		58.593750
500		52.734375
501		62.500000
502		56.640625
503		64.453125
504		62.500000
505		66.406250
506		64.453125
507		68.359375
508		64.453125
509		74.218750
510		68.359375
511		76.171875
512		70.312500
513		78.125000
514		72.265625
515		80.078125
516		74.218750
517		82.031250
518		76.171875
519		83.984375
520		78.125000
521		83.984375
522		82.031250
523		85.937500
524		82.031250
525		89.843750
526		83.984375
527		89.843750
528		83.984375
529		91.796875
530		85.937500
531		91.796875
532		85.937500
533		91.796875
534		85.937500
535		93.750000
536		85.937500
537		93.750000
538		89.843750
539		91.796875
540		87.890625
541		93.750000
542		85.937500
543		93.750000
544		85.937500
545		93.750000
546		85.937500
547		91.796875
548		83.984375
549		91.796875
550		83.984375
551		91.796875
552		82.031250
553		89.843750
554		83.984375
555		85.937500
556		82.031250
557		85.937500
558		78.125000
559		85.937500
560		76.171875
561		83.984375
562		74.218750
563		82.031250
564		72.265625
565		80.078125
566		70.312500
567		78.125000
568		68.359375
569		76.171875
570		66.406250
571		74.218750
572		64.453125
573		68.359375
574		58.593750
575		66.406250
576		56.640625
577		64.453125
578		52.734375
579		62.500000
580		50.781250
581		58.593750
582		46.875000
583		56.640625
584		42.968750
585		52.734375
586		41.015625
587		48.828125
588		37.109375
589		42.968750
590		33.203125
591		39.062500
592		27.343750
593		37.109375
594		23.437500
595		33.203125
596		19.531250
597		29.296875
598		15.625000
599		25.390625
600		11.718750
601		21.484375
602		7.812500
603		17.578125
604		5.859375
605		11.718750
606		1.953125
607		5.859375
608		-5.859375
609		1.953125
610		-9.765625
611		0.000000
612		-13.671875
613		-3.906250
614		-17.578125
615		-7.812500
616		-21.484375
617		-11.718750
618		-25.390625
619		-15.625000
620		-27.343750
621		-19.531250
622		-31.250000
623		-25.390625
624		-35.156250
625		-29.296875
626		-39.062500
627		-31.250000
628		-42.968750
629		-35.156250
630		-48.828125
631		-37.109375
632		-50.781250
633		-41.015625
634		-52.734375
635		-44.921875
636		-56.640625
637		-46.875000
638		-56.640625
639		-52.734375
640		-58.593750
641		-54.687500
642		-64.453125
643		-56.640625
644		-66.406250
645		-58.593750
646		-68.359375
647		-60.546875
648		-70.312500
649		-62.500000
650		-72.265625
651		-64.453125
652		-74.218750
653		-66.406250
654		-74.218750
655		-66.406250
656		-72.265625
657		-70.312500
658		-76.171875
659		-70.312500
660		-76.171875
661		-70.312500
662		-78.125000
663		-70.312500
664		-76.171875
665		-70.312500
666		-78.125000
667		-70.312500
668		-78.125000
669		-70.312500
670		-76.171875
671		-70.312500
672		-74.218750
673		-70.312500
674		-72.265625
675		-70.312500
676		-74.218750
677		-66.406250
678		-72.265625
679		-64.453125
680		-70.312500
681		-62.500000
682		-70.312500
683		-60.546875
684		-68.359375
685		-58.593750
686		-64.453125
687		-56.640625
688		-62.500000
689		-56.640625
690		-58.593750
691		-54.687500
692		-56.640625
693		-48.828125
694		-54.687500
695		-46.875000
696		-50.781250
697		-42.968750
698		-48.828125
699		-39.062500
700		-44.921875
701		-37.109375
702		-42.968750
703		-33.203125
704		-39.062500
705		-31.250000
706		-33.203125
707		-27.343750
708		-29.296875
709		-23.437500
710		-27.343750
711		-19.531250
712		-23.437500
713		-13.671875
714		-19.531250
715		-9.765625
716		-15.625000
717		-5.859375
718		-11.718750
719		-1.953125
720		-5.859375
721		1.953125
722		0.000000
723		3.906250
724		3.906250
725		7.812500
726		7.812500
727		15.625000
728		9.765625
729		19.531250
730		13.671875
731		23.437500
732		17.578125
733		27.343750
734		21.484375
735		31.250000
736		25.390625
737		35.156250
738		29.296875
739		37.109375
740		35.156250
741		41.015625
742		39.062500
743		46.875000
744		41.015625
745		48.828125
746		44.921875
747		52.734375
748		48.828125
749		56.640625
750		50.781250
751		60.546875
752		54.687500
753		62.500000
754		56.640625
755		66.406250
756		62.500000
757		66.406250
758		64.453125
759		68.359375
760		66.406250
761		74.218750
762		68.359375
763		76.171875
764		70.312500
765		78.125000
766		72.265625
767		80.078125
768		74.218750
769		83.984375
770		78.125000
771		83.984375
772		78.125000
773		83.984375
774		82.031250
775		85.937500
776		82.031250
777		89.843750
778		82.031250
779		89.843750
780		83.984375
781		91.796875
782		85.937500
783		91.796875
784		85.937500
785		93.750000
786		85.937500
787		93.750000
788		85.937500
789		93.750000
790		89.843750
791		91.796875
792		87.890625
793		91.796875
794		85.937500
795		93.750000
796		85.937500
797		91.796875
798		85.937500
799		91.796875
800		83.984375
801		91.796875
802		83.984375
803		89.843750
804		82.031250
805		89.843750
806		83.984375
807		85.937500
808		82.031250
809		83.984375
810		78.125000
811		83.984375
812		74.218750
813		83.984375
814		74.218750
815		82.031250
816		72.265625
817		80.078125
818		70.312500
819		78.125000
820		66.406250
821		74.218750
822		66.406250
823		74.218750
824		64.453125
825		68.359375
826		58.593750
827		64.453125
828		56.640625
829		64.453125
830		52.734375
831		60.546875
832		48.828125
833		56.640625
834		44.921875
835		54.687500
836		41.015625
837		50.781250
838		39.062500
839		46.875000
840		37.109375
841		41.015625
842		33.203125
843		37.109375
844		27.343750
845		35.156250
846		23.437500
847		31.250000
848		17.578125
849		27.343750
850		15.625000
851		23.437500
852		11.718750
853		21.484375
854		5.859375
855		15.625000
856		3.906250
857		11.718750
858		0.000000
859		5.859375
860		-5.859375
861		1.953125
862		-9.765625
863		0.000000
864		-15.625000
865		-3.906250
866		-19.531250
867		-7.812500
868		-21.484375
869		-13.671875
870		-27.343750
871		-17.578125
872		-29.296875
873		-19.531250
874		-33.203125
875		-27.343750
876		-35.156250
877		-31.250000
878		-41.015625
879		-31.250000
880		-44.921875
881		-35.156250
882		-46.875000
883		-39.062500
884		-50.781250
885		-42.968750
886		-54.687500
887		-44.921875
888		-56.640625
889		-48.828125
890		-56.640625
891		-52.734375
892		-60.546875
893		-56.640625
894		-64.453125
895		-56.640625
896		-66.406250
897		-58.593750
898		-68.359375
899		-60.546875
900		-70.312500
901		-62.500000
902		-72.265625
903		-64.453125
904		-74.218750
905		-66.406250
906		-74.218750
907		-68.359375
908		-72.265625
909		-70.312500
910		-76.171875
911		-70.312500
912		-78.125000
913		-70.312500
914		-78.125000
915		-70.312500
916		-78.125000
917		-70.312500
918		-76.171875
919		-70.312500
920		-76.171875
921		-70.312500
922		-76.171875
923		-70.312500
924		-72.265625
925		-70.312500
926		-72.265625
927		-68.359375
928		-74.218750
929		-66.406250
930		-72.265625
931		-64.453125
932		-70.312500
933		-62.500000
934		-68.359375
935		-60.546875
936		-66.406250
937		-58.593750
938		-64.453125
939		-56.640625
940		-62.500000
941		-56.640625
942		-56.640625
943		-52.734375
944		-54.687500
945		-48.828125
946		-54.687500
947		-44.921875
948		-52.734375
949		-42.968750
950		-46.875000
951		-39.062500
952		-42.968750
953		-35.156250
954		-41.015625
955		-31.250000
956		-37.109375
957		-29.296875
958		-31.250000
959		-27.343750
960		-27.343750
961		-23.437500
962		-25.390625
963		-15.625000
964		-23.437500
965		-11.718750
966		-17.578125
967		-7.812500
968		-15.625000
969		-3.906250
970		-9.765625
971		0.000000
972		-5.859375
973		3.906250
974		-1.953125
975		5.859375
976		3.906250
977		9.765625
978		7.812500
979		15.625000
980		9.765625
981		19.531250
982		15.625000
983		23.437500
984		19.531250
985		27.343750
986		21.484375
987		31.250000
988		27.343750
989		35.156250
990		29.296875
991		37.109375
992		37.109375
993		41.015625
994		41.015625
995		46.875000
996		42.968750
997		50.781250
998		44.921875
999		54.687500
1000		48.828125
1001		56.640625
1002		50.781250
1003		60.546875
1004		54.687500
1005		64.453125
1006		58.593750
1007		66.406250
1008		62.500000
1009		66.406250
1010		66.406250
1011		70.312500
1012		66.406250
1013		74.218750
1014		68.359375
1015		78.125000
1016		72.265625
1017		80.078125
1018		74.218750
1019		82.031250
1020		76.171875
1021		83.984375
1022		78.125000
1023		85.937500
1024		80.078125
1025		85.937500
1026		83.984375
1027		85.937500
1028		82.031250
1029		89.843750
1030		82.031250
1031		89.843750
1032		83.984375
1033		91.796875
1034		85.937500
1035		91.796875
1036		85.937500
1037		93.750000
1038		85.937500
1039		93.750000
1040		85.937500
1041		93.750000
1042		87.890625
1043		91.796875
1044		89.843750
1045		91.796875
1046		85.937500
1047		93.750000
1048		85.937500
1049		93.750000
1050		85.937500
1051		91.796875
1052		83.984375
1053		91.796875
1054		83.984375
1055		91.796875
1056		82.031250
1057		89.843750
1058		82.031250
1059		87.890625
1060		82.031250
1061		83.984375
1062		78.125000
1063		83.984375
1064		76.171875
1065		83.984375
1066		74.218750
1067		82.031250
1068		72.265625
1069		80.078125
1070		68.359375
1071		76.171875
1072		66.406250
1073		74.218750
1074		64.453125
1075		72.265625
1076		62.500000
1077		66.406250
1078		58.593750
1079		64.453125
1080		54.687500
1081		64.453125
1082		50.781250
1083		60.546875
1084		48.828125
1085		58.593750
1086		44.921875
1087		52.734375
1088		41.015625
1089		50.781250
1090		37.109375
1091		46.875000
1092		35.156250
1093		41.015625
1094		31.250000
1095		37.109375
1096		25.390625
1097		33.203125
1098		23.437500
1099		31.250000
1100		17.578125
1101		27.343750
1102		13.671875
1103		23.437500
1104		9.765625
1105		19.531250
1106		5.859375
1107		15.625000
1108		3.906250
1109		11.718750
1110		0.000000
1111		5.859375
1112		-7.812500
1113		0.000000
1114		-9.765625
1115		-1.953125
1116		-13.671875
1117		-5.859375
1118		-17.578125
1119		-9.765625
1120		-23.437500
1121		-13.671875
1122		-27.343750
1123		-17.578125
1124		-29.296875
1125		-21.484375
1126		-33.203125
1127		-27.343750
1128		-35.156250
1129		-31.250000
1130		-41.015625
1131		-33.203125
1132		-44.921875
1133		-37.109375
1134		-48.828125
1135		-39.062500
1136		-50.781250
1137		-42.968750
1138		-54.687500
1139		-44.921875
1140		-56.640625
1141		-48.828125
1142		-58.593750
1143		-52.734375
1144		-60.546875
1145		-56.640625
1146		-64.453125
1147		-58.593750
1148		-66.406250
1149		-60.546875
1150		-68.359375
1151		-60.546875
1152		-70.312500
1153		-62.500000
1154		-72.265625
1155		-64.453125
1156		-74.218750
1157		-66.406250
1158		-74.218750
1159		-68.359375
1160		-74.218750
1161		-70.312500
1162		-76.171875
1163		-70.312500
1164		-76.171875
1165		-70.312500
1166		-76.171875
1167		-70.312500
1168		-78.125000
1169		-70.312500
1170		-78.125000
1171		-70.312500
1172		-76.171875
1173		-70.312500
1174		-76.171875
1175		-68.359375
1176		-72.265625
1177		-70.312500
1178		-72.265625
1179		-68.359375
1180		-72.265625
1181		-66.406250
1182		-72.265625
1183		-64.453125
1184		-70.312500
1185		-62.500000
1186		-68.359375
1187		-60.546875
1188		-66.406250
1189		-58.593750
1190		-64.453125
1191		-56.640625
1192		-60.546875
1193		-54.687500
1194		-56.640625
1195		-52.734375
1196		-54.687500
1197		-46.875000
1198		-52.734375
1199		-44.921875
1200		-50.781250
1201		-41.015625
1202		-46.875000
1203		-39.062500
1204		-42.968750
1205		-35.156250
1206		-41.015625
1207		-31.250000
1208		-37.109375
1209		-27.343750
1210		-31.250000
1211		-25.390625
1212		-27.343750
1213		-21.484375
1214		-25.390625
1215		-15.625000
1216		-21.484375
1217		-11.718750
1218		-17.578125
1219		-7.812500
1220		-11.718750
1221		-3.906250
1222		-9.765625
1223		0.000000
1224		-5.859375
1225		3.906250
1226		0.000000
1227		5.859375
1228		5.859375
1229		11.718750
1230		9.765625
1231		17.578125
1232		11.718750
1233		21.484375
1234		15.625000
1235		25.390625
1236		19.531250
1237		29.296875
1238		23.437500
1239		33.203125
1240		27.343750
1241		37.109375
1242		31.250000
1243		39.062500
1244		37.109375
1245		42.968750
1246		41.015625
1247		46.875000
1248		42.968750
1249		52.734375
1250		46.875000
1251		54.687500
1252		48.828125
1253		58.593750
1254		52.734375
1255		60.546875
1256		56.640625
1257		64.453125
1258		58.593750
1259		66.406250
1260		64.453125
1261		68.359375
1262		66.406250
1263		70.312500
1264		68.359375
1265		76.171875
1266		70.312500
1267		78.125000
1268		72.265625
1269		80.078125
1270		74.218750
1271		82.031250
1272		76.171875
1273		83.984375
1274		78.125000
1275		85.937500
1276		80.078125
1277		85.937500
1278		83.984375
1279		85.937500
1280		83.984375
1281		89.843750
1282		83.984375
1283		91.796875
1284		85.937500
1285		91.796875
1286		85.937500
1287		93.750000
1288		85.937500
1289		93.750000
1290		85.937500
1291		93.750000
1292		87.890625
1293		93.750000
1294		89.843750
1295		91.796875
1296		89.843750
1297		91.796875
1298		85.937500
1299		93.750000
1300		85.937500
1301		93.750000
1302		85.937500
1303		91.796875
1304		83.984375
1305		91.796875
1306		83.984375
1307		91.796875
1308		82.031250
1309		89.843750
1310		82.031250
1311		87.890625
1312		82.031250
1313		83.984375
1314		78.125000
1315		83.984375
1316		74.218750
1317		83.984375
1318		72.265625
1319		82.031250
1320		70.312500
1321		80.078125
1322		68.359375
1323		76.171875
1324		66.406250
1325		74.218750
1326		64.453125
1327		72.265625
1328		62.500000
1329		66.406250
1330		58.593750
1331		64.453125
1332		54.687500
1333		64.453125
1334		50.781250
1335		60.546875
1336		46.875000
1337		56.640625
1338		42.968750
1339		52.734375
1340		41.015625
1341		48.828125
1342		37.109375
1343		46.875000
1344		35.156250
1345		41.015625
1346		31.250000
1347		37.109375
1348		25.390625
1349		33.203125
1350		19.531250
1351		31.250000
1352		17.578125
1353		27.343750
1354		13.671875
1355		23.437500
1356		9.765625
1357		19.531250
1358		3.906250
1359		15.625000
1360		1.953125
1361		9.765625
1362		-1.953125
1363		3.906250
1364		-7.812500
1365		0.000000
1366		-11.718750
1367		-1.953125
1368		-15.625000
1369		-5.859375
1370		-19.531250
1371		-9.765625
1372		-23.437500
1373		-13.671875
1374		-27.343750
1375		-17.578125
1376		-31.250000
1377		-21.484375
1378		-33.203125
1379		-27.343750
1380		-37.109375
1381		-31.250000
1382		-42.968750
1383		-33.203125
1384		-44.921875
1385		-37.109375
1386		-48.828125
1387		-39.062500
1388		-50.781250
1389		-42.968750
1390		-54.687500
1391		-46.875000
1392		-58.593750
1393		-48.828125
1394		-58.593750
1395		-52.734375
1396		-60.546875
1397		-56.640625
1398		-64.453125
1399		-58.593750
1400		-66.406250
1401		-58.593750
1402		-70.312500
1403		-62.500000
1404		-70.312500
1405		-62.500000
1406		-72.265625
1407		-64.453125
1408		-74.218750
1409		-66.406250
1410		-74.218750
1411		-66.406250
1412		-72.265625
1413		-70.312500
1414		-76.171875
1415		-70.312500
1416		-76.171875
1417		-70.312500
1418		-76.171875
1419		-70.312500
1420		-76.171875
1421		-70.312500
1422		-76.171875
1423		-70.312500
1424		-76.171875
1425		-68.359375
1426		-76.171875
1427		-68.359375
1428		-72.265625
1429		-70.312500
1430		-70.312500
1431		-68.359375
1432		-72.265625
1433		-64.453125
1434		-72.265625
1435		-62.500000
1436		-68.359375
1437		-60.546875
1438		-66.406250
1439		-60.546875
1440		-64.453125
1441		-58.593750
1442		-62.500000
1443		-54.687500
1444		-60.546875
1445		-54.687500
1446		-56.640625
1447		-50.781250
1448		-52.734375
1449		-46.875000
1450		-52.734375
1451		-42.968750
1452		-48.828125
1453		-41.015625
1454		-46.875000
1455		-37.109375
1456		-42.968750
1457		-33.203125
1458		-39.062500
1459		-29.296875
1460		-35.156250
1461		-27.343750
1462		-29.296875
1463		-25.390625
1464		-25.390625
1465		-19.531250
1466		-23.437500
1467		-13.671875
1468		-19.531250
1469		-11.718750
1470		-17.578125
1471		-7.812500
1472		-11.718750
1473		-1.953125
1474		-7.812500
1475		1.953125
1476		-3.906250
1477		5.859375
1478		0.000000
1479		7.812500
1480		5.859375
1481		11.718750
1482		11.718750
1483		19.531250
1484		13.671875
1485		21.484375
1486		17.578125
1487		25.390625
1488		19.531250
1489		29.296875
1490		25.390625
1491		35.156250
1492		29.296875
1493		37.109375
1494		33.203125
1495		41.015625
1496		39.062500
1497		42.968750
1498		41.015625
1499		46.875000
1500		42.968750
1501		52.734375
1502		46.875000
1503		56.640625
1504		50.781250
1505		58.593750
1506		54.687500
1507		62.500000
1508		56.640625
1509		64.453125
1510		60.546875
1511		68.359375
1512		64.453125
1513		68.359375
1514		68.359375
1515		72.265625
1516		68.359375
1517		76.171875
1518		70.312500
1519		78.125000
1520		72.265625
1521		80.078125
1522		74.218750
1523		82.031250
1524		76.171875
1525		83.984375
1526		78.125000
1527		85.937500
1528		80.078125
1529		85.937500
1530		83.984375
1531		85.937500
1532		85.937500
1533		89.843750
1534		83.984375
1535		91.796875
1536		85.937500
1537		91.796875
1538		85.937500
1539		91.796875
1540		85.937500
1541		93.750000
1542		85.937500
1543		93.750000
1544		87.890625
1545		93.750000
1546		89.843750
1547		91.796875
1548		89.843750
1549		91.796875
1550		87.890625
1551		93.750000
1552		85.937500
1553		93.750000
1554		85.937500
1555		91.796875
1556		83.984375
1557		91.796875
1558		83.984375
1559		89.843750
1560		82.031250
1561		89.843750
1562		82.031250
1563		87.890625
1564		82.031250
1565		83.984375
1566		78.125000
1567		83.984375
1568		76.171875
1569		83.984375
1570		74.218750
1571		80.078125
1572		72.265625
1573		78.125000
1574		68.359375
1575		76.171875
1576		66.406250
1577		74.218750
1578		62.500000
1579		70.312500
1580		62.500000
1581		66.406250
1582		58.593750
1583		64.453125
1584		54.687500
1585		62.500000
1586		50.781250
1587		60.546875
1588		46.875000
1589		56.640625
1590		42.968750
1591		52.734375
1592		39.062500
1593		48.828125
1594		35.156250
1595		44.921875
1596		35.156250
1597		41.015625
1598		31.250000
1599		35.156250
1600		23.437500
1601		31.250000
1602		21.484375
1603		31.250000
1604		17.578125
1605		27.343750
1606		13.671875
1607		23.437500
1608		9.765625
1609		17.578125
1610		3.906250
1611		13.671875
1612		1.953125
1613		9.765625
1614		-1.953125
1615		3.906250
1616		-5.859375
1617		0.000000
1618		-9.765625
1619		-3.906250
1620		-15.625000
1621		-7.812500
1622		-19.531250
1623		-11.718750
1624		-23.437500
1625		-15.625000
1626		-27.343750
1627		-19.531250
1628		-31.250000
1629		-23.437500
1630		-33.203125
1631		-27.343750
1632		-37.109375
1633		-31.250000
1634		-42.968750
1635		-35.156250
1636		-46.875000
1637		-37.109375
1638		-48.828125
1639		-41.015625
1640		-52.734375
1641		-42.968750
1642		-56.640625
1643		-46.875000
1644		-58.593750
1645		-48.828125
1646		-58.593750
1647		-52.734375
1648		-60.546875
1649		-56.640625
1650		-64.453125
1651		-58.593750
1652		-66.406250
1653		-58.593750
1654		-68.359375
1655		-60.546875
1656		-70.312500
1657		-62.500000
1658		-72.265625
1659		-64.453125
1660		-72.265625
1661		-64.453125
1662		-74.218750
1663		-66.406250
1664		-72.265625
1665		-70.312500
1666		-72.265625
1667		-70.312500
1668		-76.171875
1669		-68.359375
1670		-76.171875
1671		-70.312500
1672		-76.171875
1673		-70.312500
1674		-76.171875
1675		-68.359375
1676		-76.171875
1677		-68.359375
1678		-74.218750
1679		-68.359375
1680		-74.218750
1681		-68.359375
1682		-70.312500
1683		-68.359375
1684		-70.312500
1685		-64.453125
1686		-70.312500
1687		-62.500000
1688		-68.359375
1689		-60.546875
1690		-66.406250
1691		-58.593750
1692		-64.453125
1693		-56.640625
1694		-62.500000
1695		-54.687500
1696		-58.593750
1697		-52.734375
1698		-54.687500
1699		-50.781250
1700		-52.734375
1701		-46.875000
1702		-50.781250
1703		-41.015625
1704		-48.828125
1705		-39.062500
1706		-44.921875
1707		-35.156250
1708		-41.015625
1709		-33.203125
1710		-37.109375
1711		-29.296875
1712		-35.156250
1713		-25.390625
1714		-29.296875
1715		-23.437500
1716		-25.390625
1717		-19.531250
1718		-21.484375
1719		-13.671875
1720		-19.531250
1721		-9.765625
1722		-15.625000
1723		-5.859375
1724		-11.718750
1725		0.000000
1726		-7.812500
1727		3.906250
1728		-3.906250
1729		7.812500
1730		1.953125
1731		9.765625
1732		7.812500
1733		13.671875
1734		11.718750
1735		19.531250
1736		13.671875
1737		23.437500
1738		17.578125
1739		27.343750
1740		21.484375
1741		31.250000
1742		25.390625
1743		35.156250
1744		29.296875
1745		39.062500
1746		33.203125
1747		42.968750
1748		39.062500
1749		44.921875
1750		42.968750
1751		48.828125
1752		44.921875
1753		54.687500
1754		46.875000
1755		56.640625
1756		50.781250
1757		60.546875
1758		54.687500
1759		62.500000
1760		56.640625
1761		66.406250
1762		60.546875
1763		68.359375
1764		64.453125
1765		70.312500
1766		68.359375
1767		72.265625
1768		70.312500
1769		76.171875
1770		72.265625
1771		78.125000
1772		74.218750
1773		80.078125
1774		76.171875
1775		83.984375
1776		78.125000
1777		85.937500
1778		78.125000
1779		85.937500
1780		80.078125
1781		87.890625
1782		83.984375
1783		87.890625
1784		85.937500
1785		89.843750
1786		83.984375
1787		91.796875
1788		85.937500
1789		91.796875
1790		85.937500
1791		93.750000
1792		85.937500
1793		93.750000
1794		87.890625
1795		93.750000
1796		85.937500
1797		93.750000
1798		87.890625
1799		91.796875
1800		89.843750
1801		91.796875
1802		85.937500
1803		93.750000
1804		85.937500
1805		93.750000
1806		83.984375
1807		91.796875
1808		83.984375
1809		91.796875
1810		82.031250
1811		89.843750
1812		82.031250
1813		89.843750
1814		82.031250
1815		87.890625
1816		80.078125
1817		83.984375
1818		76.171875
1819		82.031250
1820		74.218750
1821		82.031250
1822		72.265625
1823		80.078125
1824		70.312500
1825		78.125000
1826		66.406250
1827		76.171875
1828		66.406250
1829		72.265625
1830		62.500000
1831		70.312500
1832		60.546875
1833		66.406250
1834		58.593750
1835		62.500000
1836		52.734375
1837		60.546875
1838		50.781250
1839		58.593750
1840		46.875000
1841		54.687500
1842		42.968750
1843		52.734375
1844		39.062500
1845		48.828125
1846		35.156250
1847		44.921875
1848		33.203125
1849		41.015625
1850		29.296875
1851		35.156250
1852		23.437500
1853		31.250000
1854		19.531250
1855		29.296875
1856		15.625000
1857		25.390625
1858		11.718750
1859		21.484375
1860		7.812500
1861		17.578125
1862		3.906250
1863		11.718750
1864		0.000000
1865		7.812500
1866		-3.906250
1867		1.953125
1868		-7.812500
1869		-1.953125
1870		-13.671875
1871		-3.906250
1872		-17.578125
1873		-7.812500
1874		-21.484375
1875		-11.718750
1876		-25.390625
1877		-15.625000
1878		-29.296875
1879		-19.531250
1880		-33.203125
1881		-23.437500
1882		-35.156250
1883		-29.296875
1884		-37.109375
1885		-33.203125
1886		-44.921875
1887		-37.109375
1888		-46.875000
1889		-39.062500
1890		-50.781250
1891		-41.015625
1892		-52.734375
1893		-44.921875
1894		-56.640625
1895		-46.875000
1896		-58.593750
1897		-48.828125
1898		-60.546875
1899		-52.734375
1900		-62.500000
1901		-56.640625
1902		-66.406250
1903		-60.546875
1904		-68.359375
1905		-60.546875
1906		-68.359375
1907		-62.500000
1908		-72.265625
1909		-62.500000
1910		-72.265625
1911		-64.453125
1912		-74.218750
1913		-66.406250
1914		-74.218750
1915		-68.359375
1916		-72.265625
1917		-70.312500
1918		-74.218750
1919		-70.312500
1920		-76.171875
1921		-70.312500
1922		-76.171875
1923		-70.312500
1924		-76.171875
1925		-70.312500
1926		-76.171875
1927		-68.359375
1928		-76.171875
1929		-68.359375
1930		-74.218750
1931		-68.359375
1932		-74.218750
1933		-68.359375
1934		-70.312500
1935		-68.359375
1936		-70.312500
1937		-64.453125
1938		-70.312500
1939		-62.500000
1940		-68.359375
1941		-60.546875
1942		-66.406250
1943		-58.593750
1944		-64.453125
1945		-54.687500
1946		-62.500000
1947		-52.734375
1948		-58.593750
1949		-50.781250
1950		-54.687500
1951		-50.781250
1952		-50.781250
1953		-46.875000
1954		-48.828125
1955		-42.968750
1956		-46.875000
1957		-39.062500
1958		-42.968750
1959		-35.156250
1960		-41.015625
1961		-31.250000
1962		-37.109375
1963		-27.343750
1964		-33.203125
1965		-23.437500
1966		-27.343750
1967		-21.484375
1968		-23.437500
1969		-17.578125
1970		-19.531250
1971		-11.718750
1972		-17.578125
1973		-7.812500
1974		-13.671875
1975		-3.906250
1976		-9.765625
1977		0.000000
1978		-5.859375
1979		3.906250
1980		-1.953125
1981		7.812500
1982		1.953125
1983		9.765625
1984		7.812500
1985		13.671875
1986		13.671875
1987		19.531250
1988		13.671875
1989		25.390625
1990		19.531250
1991		29.296875
1992		23.437500
1993		33.203125
1994		25.390625
1995		37.109375
1996		31.250000
1997		39.062500
1998		35.156250
1999		42.968750
2000		41.015625
2001		44.921875
2002		42.968750
2003		48.828125
2004		46.875000
2005		54.687500
2006		48.828125
2007		58.593750
2008		52.734375
2009		60.546875
2010		56.640625
2011		64.453125
2012		58.593750
2013		66.406250
2014		60.546875
2015		70.312500
2016		64.453125
2017		70.312500
2018		68.359375
2019		72.265625
2020		72.265625
2021		76.171875
2022		72.265625
2023		80.078125
2024		74.218750
2025		82.031250
2026		76.171875
2027		83.984375
2028		78.125000
2029		85.937500
2030		80.078125
2031		87.890625
2032		82.031250
2033		87.890625
2034		83.984375
2035		87.890625
2036		85.937500
2037		87.890625
2038		83.984375
2039		91.796875
2040		85.937500
2041		91.796875
2042		85.937500
2043		93.750000
2044		85.937500
2045		93.750000
2046		87.890625
2047		93.750000
2048		85.937500
2049		93.750000
2050		89.843750
2051		91.796875
2052		87.890625
2053		91.796875
2054		85.937500
2055		93.750000
2056		85.937500
2057		91.796875
2058		85.937500
2059		91.796875
2060		83.984375
2061		91.796875
2062		83.984375
2063		89.843750
2064		82.031250
2065		87.890625
2066		80.078125
2067		87.890625
2068		80.078125
2069		83.984375
2070		78.125000
2071		82.031250
2072		76.171875
2073		80.078125
2074		74.218750
2075		78.125000
2076		72.265625
2077		76.171875
2078		68.359375
2079		74.218750
2080		66.406250
2081		72.265625
2082		62.500000
2083		70.312500
2084		60.546875
2085		64.453125
2086		58.593750
2087		62.500000
2088		54.687500
2089		60.546875
2090		50.781250
2091		56.640625
2092		46.875000
2093		52.734375
2094		41.015625
2095		48.828125
2096		39.062500
2097		46.875000
2098		35.156250
2099		42.968750
2100		33.203125
2101		39.062500
2102		29.296875
2103		35.156250
2104		25.390625
2105		31.250000
2106		21.484375
2107		25.390625
2108		15.625000
2109		21.484375
2110		13.671875
2111		17.578125
2112		7.812500
2113		15.625000
2114		3.906250
2115		9.765625
2116		0.000000
2117		5.859375
2118		-3.906250
2119		1.953125
2120		-7.812500
2121		-1.953125
2122		-11.718750
2123		-5.859375
2124		-15.625000
2125		-9.765625
2126		-19.531250
2127		-13.671875
2128		-23.437500
2129		-17.578125
2130		-27.343750
2131		-21.484375
2132		-33.203125
2133		-25.390625
2134		-35.156250
2135		-29.296875
2136		-39.062500
2137		-33.203125
2138		-42.968750
2139		-37.109375
2140		-44.921875
2141		-39.062500
2142		-48.828125
2143		-44.921875
2144		-52.734375
2145		-46.875000
2146		-54.687500
2147		-50.781250
2148		-56.640625
2149		-52.734375
2150		-60.546875
2151		-54.687500
2152		-62.500000
2153		-58.593750
2154		-64.453125
2155		-60.546875
2156		-66.406250
2157		-62.500000
2158		-68.359375
2159		-64.453125
2160		-68.359375
2161		-66.406250
2162		-70.312500
2163		-66.406250
2164		-72.265625
2165		-68.359375
2166		-74.218750
2167		-68.359375
2168		-72.265625
2169		-70.312500
2170		-74.218750
2171		-70.312500
2172		-74.218750
2173		-70.312500
2174		-74.218750
2175		-70.312500
2176		-74.218750
2177		-70.312500
2178		-74.218750
2179		-70.312500
2180		-74.218750
2181		-70.312500
2182		-72.265625
2183		-68.359375
2184		-72.265625
2185		-68.359375
2186		-70.312500
2187		-66.406250
2188		-70.312500
2189		-64.453125
2190		-66.406250
2191		-62.500000
2192		-66.406250
2193		-62.500000
2194		-64.453125
2195		-60.546875
2196		-60.546875
2197		-56.640625
2198		-58.593750
2199		-54.687500
2200		-56.640625
2201		-52.734375
2202		-52.734375
2203		-48.828125
2204		-50.781250
2205		-46.875000
2206		-48.828125
2207		-42.968750
2208		-44.921875
2209		-39.062500
2210		-41.015625
2211		-37.109375
2212		-37.109375
2213		-33.203125
2214		-33.203125
2215		-29.296875
2216		-31.250000
2217		-25.390625
2218		-29.296875
2219		-21.484375
2220		-23.437500
2221		-17.578125
2222		-19.531250
2223		-13.671875
2224		-15.625000
2225		-9.765625
2226		-9.765625
2227		-5.859375
2228		-5.859375
2229		0.000000
2230		-3.906250
2231		1.953125
2232		0.000000
2233		7.812500
2234		5.859375
2235		11.718750
2236		9.765625
2237		15.625000
2238		13.671875
2239		19.531250
2240		17.578125
2241		23.437500
2242		21.484375
2243		27.343750
2244		25.390625
2245		31.250000
2246		29.296875
2247		35.156250
2248		33.203125
2249		39.062500
2250		37.109375
2251		42.968750
2252		41.015625
2253		46.875000
2254		44.921875
2255		48.828125
2256		46.875000
2257		54.687500
2258		52.734375
2259		56.640625
2260		54.687500
2261		60.546875
2262		58.593750
2263		62.500000
2264		60.546875
2265		66.406250
2266		64.453125
2267		68.359375
2268		66.406250
2269		70.312500
2270		70.312500
2271		74.218750
2272		72.265625
2273		76.171875
2274		74.218750
2275		78.125000
2276		76.171875
2277		80.078125
2278		78.125000
2279		82.031250
2280		80.078125
2281		83.984375
2282		82.031250
2283		85.937500
2284		82.031250
2285		87.890625
2286		83.984375
2287		87.890625
2288		85.937500
2289		89.843750
2290		85.937500
2291		89.843750
2292		87.890625
2293		91.796875
2294		87.890625
2295		91.796875
2296		87.890625
2297		91.796875
2298		89.843750
2299		91.796875
2300		87.890625
2301		91.796875
2302		89.843750
2303		91.796875
2304		89.843750
2305		91.796875
2306		87.890625
2307		91.796875
2308		87.890625
2309		91.796875
2310		85.937500
2311		89.843750
2312		85.937500
2313		89.843750
2314		83.984375
2315		87.890625
2316		83.984375
2317		85.937500
2318		82.031250
2319		85.937500
2320		80.078125
2321		83.984375
2322		76.171875
2323		82.031250
2324		76.171875
2325		80.078125
2326		74.218750
2327		78.125000
2328		72.265625
2329		76.171875
2330		68.359375
2331		72.265625
2332		66.406250
2333		70.312500
2334		62.500000
2335		68.359375
2336		60.546875
2337		64.453125
2338		56.640625
2339		62.500000
2340		52.734375
2341		58.593750
2342		50.781250
2343		54.687500
2344		46.875000
2345		52.734375
2346		42.968750
2347		48.828125
2348		39.062500
2349		44.921875
2350		37.109375
2351		41.015625
2352		33.203125
2353		39.062500
2354		29.296875
2355		33.203125
2356		23.437500
2357		29.296875
2358		19.531250
2359		25.390625
2360		15.625000
2361		21.484375
2362		11.718750
2363		17.578125
2364		7.812500
2365		13.671875
2366		3.906250
2367		9.765625
2368		0.000000
2369		5.859375
2370		-3.906250
2371		0.000000
2372		-7.812500
2373		-3.906250
2374		-11.718750
2375		-5.859375
2376		-17.578125
2377		-11.718750
2378		-19.531250
2379		-15.625000
2380		-25.390625
2381		-19.531250
2382		-27.343750
2383		-23.437500
2384		-31.250000
2385		-25.390625
2386		-35.156250
2387		-29.296875
2388		-39.062500
2389		-35.156250
2390		-42.968750
2391		-37.109375
2392		-46.875000
2393		-41.015625
2394		-48.828125
2395		-44.921875
2396		-52.734375
2397		-46.875000
2398		-54.687500
2399		-50.781250
2400		-58.593750
2401		-52.734375
2402		-60.546875
2403		-54.687500
2404		-62.500000
2405		-58.593750
2406		-66.406250
2407		-60.546875
2408		-66.406250
2409		-60.546875
2410		-68.359375
2411		-64.453125
2412		-68.359375
2413		-64.453125
2414		-70.312500
2415		-68.359375
2416		-72.265625
2417		-68.359375
2418		-72.265625
2419		-68.359375
2420		-72.265625
2421		-70.312500
2422		-72.265625
2423		-70.312500
2424		-74.218750
2425		-70.312500
2426		-74.218750
2427		-70.312500
2428		-74.218750
2429		-70.312500
2430		-72.265625
2431		-70.312500
2432		-72.265625
2433		-70.312500
2434		-72.265625
2435		-68.359375
2436		-72.265625
2437		-68.359375
2438		-70.312500
2439		-66.406250
2440		-68.359375
2441		-64.453125
2442		-66.406250
2443		-62.500000
2444		-64.453125
2445		-60.546875
2446		-62.500000
2447		-58.593750
2448		-60.546875
2449		-56.640625
2450		-58.593750
2451		-54.687500
2452		-54.687500
2453		-50.781250
2454		-52.734375
2455		-48.828125
2456		-48.828125
2457		-44.921875
2458		-46.875000
2459		-41.015625
2460		-42.968750
2461		-39.062500
2462		-41.015625
2463		-35.156250
2464		-37.109375
2465		-31.250000
2466		-33.203125
2467		-27.343750
2468		-29.296875
2469		-23.437500
2470		-25.390625
2471		-19.531250
2472		-21.484375
2473		-15.625000
2474		-17.578125
2475		-11.718750
2476		-13.671875
2477		-7.812500
2478		-9.765625
2479		-3.906250
2480		-5.859375
2481		0.000000
2482		-1.953125
2483		3.906250
2484		1.953125
2485		9.765625
2486		7.812500
2487		11.718750
2488		11.718750
2489		17.578125
2490		15.625000
2491		21.484375
2492		19.531250
2493		25.390625
2494		23.437500
2495		29.296875
2496		27.343750
2497		33.203125
2498		31.250000
2499		37.109375
2500		35.156250
2501		39.062500
2502		39.062500
2503		44.921875
2504		42.968750
2505		46.875000
2506		46.875000
2507		50.781250
2508		48.828125
2509		54.687500
2510		52.734375
2511		56.640625
2512		56.640625
2513		60.546875
2514		58.593750
2515		64.453125
2516		62.500000
2517		66.406250
2518		64.453125
2519		68.359375
2520		66.406250
2521		72.265625
2522		70.312500
2523		74.218750
2524		72.265625
2525		76.171875
2526		74.218750
2527		80.078125
2528		78.125000
2529		82.031250
2530		78.125000
2531		82.031250
2532		80.078125
2533		83.984375
2534		82.031250
2535		85.937500
2536		83.984375
2537		87.890625
2538		85.937500
2539		87.890625
2540		85.937500
2541		89.843750
2542		85.937500
2543		91.796875
2544		87.890625
2545		91.796875
2546		87.890625
2547		91.796875
2548		89.843750
2549		93.750000
2550		89.843750
2551		91.796875
2552		89.843750
2553		91.796875
2554		89.843750
2555		91.796875
2556		89.843750
2557		91.796875
2558		87.890625
2559		91.796875
2560		85.937500
2561		91.796875
2562		85.937500
2563		89.843750
2564		85.937500
2565		87.890625
2566		83.984375
2567		87.890625
2568		82.031250
2569		85.937500
2570		80.078125
2571		85.937500
2572		80.078125
2573		83.984375
2574		78.125000
2575		82.031250
2576		76.171875
2577		80.078125
2578		72.265625
2579		78.125000
2580		70.312500
2581		76.171875
2582		68.359375
2583		74.218750
2584		64.453125
2585		70.312500
2586		60.546875
2587		66.406250
2588		60.546875
2589		64.453125
2590		56.640625
2591		60.546875
2592		52.734375
2593		58.593750
2594		48.828125
2595		54.687500
2596		44.921875
2597		50.781250
2598		42.968750
2599		48.828125
2600		39.062500
2601		44.921875
2602		35.156250
2603		41.015625
2604		31.250000
2605		37.109375
2606		27.343750
2607		33.203125
2608		21.484375
2609		29.296875
2610		19.531250
2611		25.390625
2612		15.625000
2613		19.531250
2614		9.765625
2615		17.578125
2616		5.859375
2617		11.718750
2618		3.906250
2619		7.812500
2620		-1.953125
2621		3.906250
2622		-5.859375
2623		0.000000
2624		-9.765625
2625		-3.906250
2626		-13.671875
2627		-7.812500
2628		-17.578125
2629		-11.718750
2630		-21.484375
2631		-15.625000
2632		-25.390625
2633		-19.531250
2634		-29.296875
2635		-23.437500
2636		-33.203125
2637		-27.343750
2638		-37.109375
2639		-31.250000
2640		-39.062500
2641		-35.156250
2642		-42.968750
2643		-39.062500
2644		-46.875000
2645		-41.015625
2646		-48.828125
2647		-44.921875
2648		-52.734375
2649		-48.828125
2650		-54.687500
2651		-50.781250
2652		-58.593750
2653		-52.734375
2654		-60.546875
2655		-56.640625
2656		-62.500000
2657		-58.593750
2658		-64.453125
2659		-60.546875
2660		-66.406250
2661		-62.500000
2662		-68.359375
2663		-64.453125
2664		-70.312500
2665		-66.406250
2666		-70.312500
2667		-66.406250
2668		-72.265625
2669		-68.359375
2670		-72.265625
2671		-70.312500
2672		-72.265625
2673		-70.312500
2674		-74.218750
2675		-70.312500
2676		-74.218750
2677		-70.312500
2678		-74.218750
2679		-70.312500
2680		-74.218750
2681		-70.312500
2682		-74.218750
2683		-70.312500
2684		-72.265625
2685		-70.312500
2686		-72.265625
2687		-68.359375
2688		-70.312500
2689		-68.359375
2690		-68.359375
2691		-66.406250
2692		-68.359375
2693		-62.500000
2694		-66.406250
2695		-62.500000
2696		-64.453125
2697		-60.546875
2698		-62.500000
2699		-58.593750
2700		-60.546875
2701		-54.687500
2702		-58.593750
2703		-52.734375
2704		-54.687500
2705		-50.781250
2706		-52.734375
2707		-46.875000
2708		-48.828125
2709		-44.921875
2710		-44.921875
2711		-41.015625
2712		-42.968750
2713		-37.109375
2714		-39.062500
2715		-33.203125
2716		-35.156250
2717		-31.250000
2718		-33.203125
2719		-27.343750
2720		-29.296875
2721		-21.484375
2722		-25.390625
2723		-19.531250
2724		-21.484375
2725		-15.625000
2726		-17.578125
2727		-11.718750
2728		-11.718750
2729		-7.812500
2730		-7.812500
2731		-1.953125
2732		-3.906250
2733		0.000000
2734		-1.953125
2735		3.906250
2736		3.906250
2737		9.765625
2738		7.812500
2739		13.671875
2740		11.718750
2741		17.578125
2742		15.625000
2743		21.484375
2744		17.578125
2745		25.390625
2746		23.437500
2747		29.296875
2748		27.343750
2749		33.203125
2750		31.250000
2751		37.109375
2752		35.156250
2753		41.015625
2754		39.062500
2755		44.921875
2756		42.968750
2757		46.875000
2758		46.875000
2759		50.781250
2760		50.781250
2761		54.687500
2762		52.734375
2763		58.593750
2764		56.640625
2765		60.546875
2766		58.593750
2767		64.453125
2768		62.500000
2769		66.406250
2770		64.453125
2771		70.312500
2772		68.359375
2773		72.265625
2774		70.312500
2775		74.218750
2776		72.265625
2777		78.125000
2778		74.218750
2779		80.078125
2780		78.125000
2781		82.031250
2782		78.125000
2783		82.031250
2784		80.078125
2785		83.984375
2786		82.031250
2787		85.937500
2788		83.984375
2789		87.890625
2790		85.937500
2791		87.890625
2792		85.937500
2793		89.843750
2794		85.937500
2795		91.796875
2796		87.890625
2797		91.796875
2798		87.890625
2799		91.796875
2800		89.843750
2801		91.796875
2802		89.843750
2803		91.796875
2804		87.890625
2805		91.796875
2806		87.890625
2807		91.796875
2808		87.890625
2809		91.796875
2810		85.937500
2811		91.796875
2812		87.890625
2813		89.843750
2814		85.937500
2815		89.843750
2816		85.937500
2817		87.890625
2818		83.984375
2819		87.890625
2820		82.031250
2821		85.937500
2822		80.078125
2823		85.937500
2824		80.078125
2825		82.031250
2826		76.171875
2827		80.078125
2828		74.218750
2829		80.078125
2830		72.265625
2831		76.171875
2832		70.312500
2833		74.218750
2834		66.406250
2835		72.265625
2836		64.453125
2837		68.359375
2838		62.500000
2839		66.406250
2840		58.593750
2841		64.453125
2842		54.687500
2843		60.546875
2844		52.734375
2845		56.640625
2846		48.828125
2847		54.687500
2848		44.921875
2849		50.781250
2850		41.015625
2851		46.875000
2852		37.109375
2853		42.968750
2854		33.203125
2855		41.015625
2856		31.250000
2857		35.156250
2858		25.390625
2859		31.250000
2860		21.484375
2861		27.343750
2862		17.578125
2863		23.437500
2864		13.671875
2865		19.531250
2866		9.765625
2867		15.625000
2868		5.859375
2869		11.718750
2870		1.953125
2871		7.812500
2872		-3.906250
2873		3.906250
2874		-5.859375
2875		-1.953125
2876		-11.718750
2877		-5.859375
2878		-15.625000
2879		-9.765625
2880		-19.531250
2881		-13.671875
2882		-23.437500
2883		-17.578125
2884		-27.343750
2885		-21.484375
2886		-31.250000
2887		-25.390625
2888		-33.203125
2889		-29.296875
2890		-37.109375
2891		-31.250000
2892		-41.015625
2893		-35.156250
2894		-44.921875
2895		-39.062500
2896		-46.875000
2897		-42.968750
2898		-50.781250
2899		-44.921875
2900		-52.734375
2901		-48.828125
2902		-56.640625
2903		-50.781250
2904		-58.593750
2905		-54.687500
2906		-62.500000
2907		-56.640625
2908		-62.500000
2909		-58.593750
2910		-64.453125
2911		-60.546875
2912		-68.359375
2913		-62.500000
2914		-68.359375
2915		-64.453125
2916		-70.312500
2917		-66.406250
2918		-70.312500
2919		-68.359375
2920		-72.265625
2921		-68.359375
2922		-72.265625
2923		-70.312500
2924		-74.218750
2925		-70.312500
2926		-74.218750
2927		-72.265625
2928		-74.218750
2929		-70.312500
2930		-74.218750
2931		-70.312500
2932		-74.218750
2933		-70.312500
2934		-72.265625
2935		-70.312500
2936		-72.265625
2937		-70.312500
2938		-72.265625
2939		-68.359375
2940		-70.312500
2941		-66.406250
2942		-68.359375
2943		-66.406250
2944		-68.359375
2945		-62.500000
2946		-66.406250
2947		-62.500000
2948		-64.453125
2949		-60.546875
2950		-62.500000
2951		-58.593750
2952		-58.593750
2953		-54.687500
2954		-56.640625
2955		-52.734375
2956		-54.687500
2957		-48.828125
2958		-50.781250
2959		-46.875000
2960		-48.828125
2961		-44.921875
2962		-44.921875
2963		-41.015625
2964		-41.015625
2965		-37.109375
2966		-39.062500
2967		-33.203125
2968		-35.156250
2969		-29.296875
2970		-31.250000
2971		-25.390625
2972		-27.343750
2973		-23.437500
2974		-23.437500
2975		-19.531250
2976		-19.531250
2977		-15.625000
2978		-15.625000
2979		-9.765625
2980		-11.718750
2981		-5.859375
2982		-7.812500
2983		-1.953125
2984		-3.906250
2985		1.953125
2986		0.000000
2987		5.859375
2988		3.906250
2989		9.765625
2990		7.812500
2991		13.671875
2992		11.718750
2993		17.578125
2994		17.578125
2995		21.484375
2996		21.484375
2997		25.390625
2998		25.390625
2999		31.250000
3000		29.296875
3001		33.203125
3002		33.203125
3003		37.109375
3004		37.109375
3005		41.015625
3006		39.062500
3007		44.921875
3008		42.968750
3009		48.828125
3010		46.875000
3011		52.734375
3012		50.781250
3013		54.687500
3014		52.734375
3015		58.593750
3016		56.640625
3017		62.500000
3018		60.546875
3019		64.453125
3020		62.500000
3021		68.359375
3022		66.406250
3023		70.312500
3024		68.359375
3025		72.265625
3026		72.265625
3027		76.171875
3028		74.218750
3029		78.125000
3030		76.171875
3031		80.078125
3032		78.125000
3033		82.031250
3034		80.078125
3035		83.984375
3036		82.031250
3037		83.984375
3038		82.031250
3039		85.937500
3040		83.984375
3041		87.890625
3042		85.937500
3043		87.890625
3044		87.890625
3045		89.843750
3046		87.890625
3047		89.843750
3048		87.890625
3049		91.796875
3050		87.890625
3051		91.796875
3052		89.843750
3053		91.796875
3054		87.890625
3055		91.796875
3056		89.843750
3057		91.796875
3058		87.890625
3059		91.796875
3060		87.890625
3061		91.796875
3062		87.890625
3063		91.796875
3064		85.937500
3065		89.843750
3066		85.937500
3067		89.843750
3068		85.937500
3069		87.890625
3070		83.984375
3071		87.890625
3072		82.031250
3073		85.937500
3074		78.125000
3075		83.984375
3076		78.125000
3077		82.031250
3078		76.171875
3079		80.078125
3080		74.218750
3081		78.125000
3082		72.265625
3083		76.171875
3084		68.359375
3085		74.218750
3086		66.406250
3087		70.312500
3088		64.453125
3089		68.359375
3090		60.546875
3091		66.406250
3092		58.593750
3093		62.500000
3094		54.687500
3095		58.593750
3096		50.781250
3097		56.640625
3098		46.875000
3099		52.734375
3100		44.921875
3101		50.781250
3102		39.062500
3103		44.921875
3104		37.109375
3105		41.015625
3106		33.203125
3107		39.062500
3108		27.343750
3109		35.156250
3110		25.390625
3111		29.296875
3112		19.531250
3113		27.343750
3114		17.578125
3115		23.437500
3116		13.671875
3117		19.531250
3118		9.765625
3119		13.671875
3120		3.906250
3121		9.765625
3122		0.000000
3123		5.859375
3124		-3.906250
3125		1.953125
3126		-7.812500
3127		-1.953125
3128		-11.718750
3129		-5.859375
3130		-15.625000
3131		-9.765625
3132		-19.531250
3133		-13.671875
3134		-23.437500
3135		-17.578125
3136		-27.343750
3137		-21.484375
3138		-31.250000
3139		-25.390625
3140		-35.156250
3141		-29.296875
3142		-39.062500
3143		-33.203125
3144		-41.015625
3145		-37.109375
3146		-44.921875
3147		-41.015625
3148		-48.828125
3149		-42.968750
3150		-52.734375
3151		-46.875000
3152		-54.687500
3153		-48.828125
3154		-56.640625
3155		-52.734375
3156		-58.593750
3157		-54.687500
3158		-62.500000
3159		-56.640625
3160		-64.453125
3161		-60.546875
3162		-66.406250
3163		-62.500000
3164		-68.359375
3165		-64.453125
3166		-68.359375
3167		-64.453125
3168		-70.312500
3169		-66.406250
3170		-72.265625
3171		-68.359375
3172		-72.265625
3173		-68.359375
3174		-72.265625
3175		-70.312500
3176		-74.218750
3177		-70.312500
3178		-74.218750
3179		-72.265625
3180		-74.218750
3181		-70.312500
3182		-74.218750
3183		-70.312500
3184		-74.218750
3185		-70.312500
3186		-72.265625
3187		-70.312500
3188		-72.265625
3189		-68.359375
3190		-72.265625
3191		-68.359375
3192		-70.312500
3193		-66.406250
3194		-68.359375
3195		-64.453125
3196		-66.406250
3197		-64.453125
3198		-66.406250
3199		-60.546875
3200		-64.453125
3201		-58.593750
3202		-62.500000
3203		-56.640625
3204		-58.593750
3205		-54.687500
3206		-56.640625
3207		-50.781250
3208		-52.734375
3209		-46.875000
3210		-50.781250
3211		-46.875000
3212		-46.875000
3213		-42.968750
3214		-44.921875
3215		-39.062500
3216		-41.015625
3217		-35.156250
3218		-37.109375
3219		-33.203125
3220		-35.156250
3221		-29.296875
3222		-31.250000
3223		-25.390625
3224		-25.390625
3225		-21.484375
3226		-23.437500
3227		-17.578125
3228		-19.531250
3229		-13.671875
3230		-15.625000
3231		-7.812500
3232		-11.718750
3233		-5.859375
3234		-5.859375
3235		-1.953125
3236		-1.953125
3237		1.953125
3238		1.953125
3239		7.812500
3240		5.859375
3241		11.718750
3242		9.765625
3243		15.625000
3244		13.671875
3245		19.531250
3246		17.578125
3247		23.437500
3248		21.484375
3249		27.343750
3250		25.390625
3251		31.250000
3252		29.296875
3253		35.156250
3254		33.203125
3255		39.062500
3256		37.109375
3257		42.968750
3258		41.015625
3259		46.875000
3260		44.921875
3261		48.828125
3262		48.828125
3263		52.734375
3264		50.781250
3265		56.640625
3266		54.687500
3267		58.593750
3268		58.593750
3269		62.500000
3270		60.546875
3271		66.406250
3272		62.500000
3273		68.359375
3274		66.406250
3275		70.312500
3276		70.312500
3277		74.218750
3278		72.265625
3279		76.171875
3280		74.218750
3281		78.125000
3282		76.171875
3283		80.078125
3284		78.125000
3285		82.031250
3286		80.078125
3287		83.984375
3288		82.031250
3289		85.937500
3290		83.984375
3291		87.890625
3292		83.984375
3293		89.843750
3294		85.937500
3295		89.843750
3296		87.890625
3297		89.843750
3298		87.890625
3299		89.843750
3300		89.843750
3301		91.796875
3302		89.843750
3303		91.796875
3304		89.843750
3305		91.796875
3306		89.843750
3307		91.796875
3308		89.843750
3309		91.796875
3310		87.890625
3311		91.796875
3312		87.890625
3313		91.796875
3314		85.937500
3315		89.843750
3316		85.937500
3317		89.843750
3318		85.937500
3319		89.843750
3320		83.984375
3321		87.890625
3322		83.984375
3323		85.937500
3324		82.031250
3325		85.937500
3326		78.125000
3327		83.984375
3328		78.125000
3329		82.031250
3330		76.171875
3331		80.078125
3332		74.218750
3333		78.125000
3334		72.265625
3335		76.171875
3336		68.359375
3337		74.218750
3338		66.406250
3339		70.312500
3340		62.500000
3341		68.359375
3342		60.546875
3343		64.453125
3344		56.640625
3345		62.500000
3346		54.687500
3347		58.593750
3348		50.781250
3349		54.687500
3350		46.875000
3351		52.734375
3352		42.968750
3353		48.828125
3354		39.062500
3355		44.921875
3356		37.109375
3357		42.968750
3358		31.250000
3359		37.109375
3360		29.296875
3361		33.203125
3362		25.390625
3363		29.296875
3364		19.531250
3365		25.390625
3366		15.625000
3367		21.484375
3368		11.718750
3369		17.578125
3370		7.812500
3371		13.671875
3372		3.906250
3373		9.765625
3374		0.000000
3375		5.859375
3376		-3.906250
3377		1.953125
3378		-7.812500
3379		-1.953125
3380		-11.718750
3381		-7.812500
3382		-17.578125
3383		-11.718750
3384		-21.484375
3385		-15.625000
3386		-23.437500
3387		-19.531250
3388		-29.296875
3389		-21.484375
3390		-31.250000
3391		-27.343750
3392		-35.156250
3393		-29.296875
3394		-39.062500
3395		-33.203125
3396		-42.968750
3397		-37.109375
3398		-46.875000
3399		-41.015625
3400		-48.828125
3401		-42.968750
3402		-50.781250
3403		-46.875000
3404		-54.687500
3405		-48.828125
3406		-56.640625
3407		-52.734375
3408		-60.546875
3409		-54.687500
3410		-62.500000
3411		-58.593750
3412		-64.453125
3413		-60.546875
3414		-66.406250
3415		-62.500000
3416		-68.359375
3417		-64.453125
3418		-68.359375
3419		-66.406250
3420		-70.312500
3421		-66.406250
3422		-72.265625
3423		-68.359375
3424		-72.265625
3425		-68.359375
3426		-74.218750
3427		-70.312500
3428		-74.218750
3429		-70.312500
3430		-74.218750
3431		-72.265625
3432		-74.218750
3433		-70.312500
3434		-74.218750
3435		-70.312500
3436		-74.218750
3437		-70.312500
3438		-72.265625
3439		-70.312500
3440		-72.265625
3441		-68.359375
3442		-70.312500
3443		-68.359375
3444		-70.312500
3445		-66.406250
3446		-68.359375
3447		-64.453125
3448		-66.406250
3449		-62.500000
3450		-66.406250
3451		-60.546875
3452		-62.500000
3453		-58.593750
3454		-60.546875
3455		-56.640625
3456		-56.640625
3457		-52.734375
3458		-54.687500
3459		-50.781250
3460		-52.734375
3461		-48.828125
3462		-50.781250
3463		-44.921875
3464		-46.875000
3465		-42.968750
3466		-42.968750
3467		-39.062500
3468		-41.015625
3469		-35.156250
3470		-37.109375
3471		-31.250000
3472		-33.203125
3473		-27.343750
3474		-29.296875
3475		-23.437500
3476		-25.390625
3477		-19.531250
3478		-21.484375
3479		-15.625000
3480		-17.578125
3481		-11.718750
3482		-13.671875
3483		-7.812500
3484		-9.765625
3485		-3.906250
3486		-5.859375
3487		0.000000
3488		-1.953125
3489		3.906250
3490		1.953125
3491		7.812500
3492		5.859375
3493		11.718750
3494		11.718750
3495		17.578125
3496		15.625000
3497		19.531250
3498		19.531250
3499		25.390625
3500		23.437500
3501		29.296875
3502		27.343750
3503		33.203125
3504		31.250000
3505		37.109375
3506		35.156250
3507		39.062500
3508		39.062500
3509		42.968750
3510		42.968750
3511		46.875000
3512		44.921875
3513		50.781250
3514		48.828125
3515		54.687500
3516		52.734375
3517		58.593750
3518		56.640625
3519		60.546875
3520		58.593750
3521		64.453125
3522		62.500000
3523		66.406250
3524		64.453125
3525		70.312500
3526		68.359375
3527		72.265625
3528		70.312500
3529		74.218750
3530		72.265625
3531		76.171875
3532		74.218750
3533		80.078125
3534		76.171875
3535		82.031250
3536		80.078125
3537		83.984375
3538		80.078125
3539		83.984375
3540		82.031250
3541		85.937500
3542		83.984375
3543		87.890625
3544		85.937500
3545		89.843750
3546		85.937500
3547		89.843750
3548		87.890625
3549		89.843750
3550		87.890625
3551		91.796875
3552		87.890625
3553		91.796875
3554		89.843750
3555		91.796875
3556		89.843750
3557		91.796875
3558		89.843750
3559		91.796875
3560		89.843750
3561		91.796875
3562		87.890625
3563		93.750000
3564		87.890625
3565		91.796875
3566		85.937500
3567		91.796875
3568		85.937500
3569		89.843750
3570		85.937500
3571		87.890625
3572		83.984375
3573		87.890625
3574		82.031250
3575		85.937500
3576		82.031250
3577		85.937500
3578		80.078125
3579		83.984375
3580		78.125000
3581		82.031250
3582		76.171875
3583		78.125000
3584		72.265625
3585		78.125000
3586		70.312500
3587		74.218750
3588		68.359375
3589		72.265625
3590		66.406250
3591		70.312500
3592		62.500000
3593		68.359375
3594		60.546875
3595		64.453125
3596		56.640625
3597		62.500000
3598		52.734375
3599		58.593750
3600		48.828125
3601		54.687500
3602		46.875000
3603		50.781250
3604		42.968750
3605		48.828125
3606		39.062500
3607		44.921875
3608		35.156250
3609		41.015625
3610		31.250000
3611		37.109375
3612		27.343750
3613		33.203125
3614		23.437500
3615		29.296875
3616		19.531250
3617		25.390625
3618		15.625000
3619		21.484375
3620		9.765625
3621		17.578125
3622		7.812500
3623		11.718750
3624		1.953125
3625		7.812500
3626		0.000000
3627		3.906250
3628		-5.859375
3629		0.000000
3630		-9.765625
3631		-1.953125
3632		-13.671875
3633		-7.812500
3634		-17.578125
3635		-11.718750
3636		-21.484375
3637		-15.625000
3638		-25.390625
3639		-19.531250
3640		-29.296875
3641		-23.437500
3642		-33.203125
3643		-27.343750
3644		-37.109375
3645		-31.250000
3646		-39.062500
3647		-35.156250
3648		-42.968750
3649		-39.062500
3650		-48.828125
3651		-41.015625
3652		-50.781250
3653		-44.921875
3654		-52.734375
3655		-46.875000
3656		-54.687500
3657		-50.781250
3658		-58.593750
3659		-54.687500
3660		-60.546875
3661		-54.687500
3662		-62.500000
3663		-58.593750
3664		-64.453125
3665		-60.546875
3666		-66.406250
3667		-62.500000
3668		-68.359375
3669		-64.453125
3670		-70.312500
3671		-66.406250
3672		-70.312500
3673		-66.406250
3674		-72.265625
3675		-68.359375
3676		-72.265625
3677		-68.359375
3678		-72.265625
3679		-70.312500
3680		-74.218750
3681		-70.312500
3682		-74.218750
3683		-72.265625
3684		-74.218750
3685		-70.312500
3686		-74.218750
3687		-70.312500
3688		-72.265625
3689		-70.312500
3690		-72.265625
3691		-70.312500
3692		-72.265625
3693		-68.359375
3694		-70.312500
3695		-68.359375
3696		-68.359375
3697		-64.453125
3698		-68.359375
3699		-64.453125
3700		-66.406250
3701		-62.500000
3702		-64.453125
3703		-60.546875
3704		-62.500000
3705		-58.593750
3706		-60.546875
3707		-54.687500
3708		-56.640625
3709		-52.734375
3710		-54.687500
3711		-50.781250
3712		-52.734375
3713		-46.875000
3714		-48.828125
3715		-44.921875
3716		-46.875000
3717		-41.015625
3718		-42.968750
3719		-37.109375
3720		-39.062500
3721		-33.203125
3722		-37.109375
3723		-31.250000
3724		-33.203125
3725		-27.343750
3726		-29.296875
3727		-23.437500
3728		-25.390625
3729		-19.531250
3730		-21.484375
3731		-15.625000
3732		-17.578125
3733		-11.718750
3734		-13.671875
3735		-5.859375
3736		-9.765625
3737		-3.906250
3738		-5.859375
3739		0.000000
3740		0.000000
3741		5.859375
3742		3.906250
3743		7.812500
3744		7.812500
3745		13.671875
3746		11.718750
3747		17.578125
3748		15.625000
3749		21.484375
3750		19.531250
3751		25.390625
3752		23.437500
3753		29.296875
3754		27.343750
3755		33.203125
3756		31.250000
3757		37.109375
3758		35.156250
3759		41.015625
3760		39.062500
3761		44.921875
3762		42.968750
3763		46.875000
3764		46.875000
3765		50.781250
3766		48.828125
3767		54.687500
3768		52.734375
3769		58.593750
3770		56.640625
3771		60.546875
3772		58.593750
3773		64.453125
3774		62.500000
3775		66.406250
3776		64.453125
3777		70.312500
3778		68.359375
3779		72.265625
3780		70.312500
3781		76.171875
3782		74.218750
3783		76.171875
3784		76.171875
3785		80.078125
3786		76.171875
3787		80.078125
3788		80.078125
3789		83.984375
3790		80.078125
3791		85.937500
3792		82.031250
3793		85.937500
3794		83.984375
3795		87.890625
3796		85.937500
3797		89.843750
3798		85.937500
3799		89.843750
3800		87.890625
3801		89.843750
3802		87.890625
3803		91.796875
3804		87.890625
3805		91.796875
3806		87.890625
3807		91.796875
3808		89.843750
3809		93.750000
3810		89.843750
3811		91.796875
3812		87.890625
3813		91.796875
3814		87.890625
3815		91.796875
3816		87.890625
3817		89.843750
3818		87.890625
3819		91.796875
3820		85.937500
3821		89.843750
3822		85.937500
3823		87.890625
3824		83.984375
3825		87.890625
3826		82.031250
3827		85.937500
3828		80.078125
3829		83.984375
3830		78.125000
3831		82.031250
3832		76.171875
3833		80.078125
3834		76.171875
3835		78.125000
3836		72.265625
3837		76.171875
3838		70.312500
3839		74.218750
3840		68.359375
3841		72.265625
3842		64.453125
3843		70.312500
3844		62.500000
3845		66.406250
3846		58.593750
3847		64.453125
3848		56.640625
3849		60.546875
3850		52.734375
3851		56.640625
3852		48.828125
3853		54.687500
3854		44.921875
3855		50.781250
3856		42.968750
3857		46.875000
3858		39.062500
3859		42.968750
3860		33.203125
3861		39.062500
3862		31.250000
3863		35.156250
3864		27.343750
3865		31.250000
3866		23.437500
3867		27.343750
3868		19.531250
3869		23.437500
3870		13.671875
3871		21.484375
3872		9.765625
3873		15.625000
3874		5.859375
3875		11.718750
3876		1.953125
3877		7.812500
3878		-1.953125
3879		3.906250
3880		-7.812500
3881		0.000000
3882		-9.765625
3883		-3.906250
3884		-13.671875
3885		-7.812500
3886		-17.578125
3887		-13.671875
3888		-21.484375
3889		-17.578125
3890		-25.390625
3891		-19.531250
3892		-29.296875
3893		-25.390625
3894		-33.203125
3895		-27.343750
3896		-37.109375
3897		-31.250000
3898		-41.015625
3899		-35.156250
3900		-42.968750
3901		-39.062500
3902		-46.875000
3903		-42.968750
3904		-50.781250
3905		-44.921875
3906		-52.734375
3907		-48.828125
3908		-54.687500
3909		-50.781250
3910		-58.593750
3911		-54.687500
3912		-60.546875
3913		-56.640625
3914		-64.453125
3915		-58.593750
3916		-64.453125
3917		-60.546875
3918		-66.406250
3919		-62.500000
3920		-68.359375
3921		-64.453125
3922		-70.312500
3923		-66.406250
3924		-70.312500
3925		-68.359375
3926		-72.265625
3927		-68.359375
3928		-72.265625
3929		-68.359375
3930		-74.218750
3931		-70.312500
3932		-74.218750
3933		-70.312500
3934		-72.265625
3935		-70.312500
3936		-74.218750
3937		-70.312500
3938		-74.218750
3939		-70.312500
3940		-72.265625
3941		-70.312500
3942		-72.265625
3943		-68.359375
3944		-70.312500
3945		-68.359375
3946		-70.312500
3947		-66.406250
3948		-68.359375
3949		-64.453125
3950		-66.406250
3951		-64.453125
3952		-64.453125
3953		-62.500000
3954		-64.453125
3955		-58.593750
3956		-60.546875
3957		-56.640625
3958		-58.593750
3959		-54.687500
3960		-56.640625
3961		-52.734375
3962		-54.687500
3963		-48.828125
3964		-50.781250
3965		-46.875000
3966		-48.828125
3967		-42.968750
3968		-44.921875
3969		-39.062500
3970		-41.015625
3971		-37.109375
3972		-39.062500
3973		-33.203125
3974		-35.156250
3975		-29.296875
3976		-31.250000
3977		-25.390625
3978		-27.343750
3979		-21.484375
3980		-23.437500
3981		-17.578125
3982		-19.531250
3983		-13.671875
3984		-15.625000
3985		-9.765625
3986		-11.718750
3987		-5.859375
3988		-7.812500
3989		-1.953125
3990		-3.906250
3991		1.953125
3992		1.953125
3993		5.859375
3994		5.859375
3995		9.765625
3996		7.812500
3997		15.625000
3998		11.718750
3999		17.578125
4000		17.578125
4001		23.437500
4002		21.484375
4003		27.343750
4004		25.390625
4005		29.296875
4006		29.296875
4007		35.156250
4008		33.203125
4009		37.109375
4010		37.109375
4011		41.015625
4012		41.015625
4013		44.921875
4014		42.968750
4015		48.828125
4016		46.875000
4017		52.734375
4018		50.781250
4019		56.640625
4020		54.687500
4021		60.546875
4022		56.640625
4023		62.500000
4024		60.546875
4025		64.453125
4026		62.500000
4027		68.359375
4028		66.406250
4029		70.312500
4030		68.359375
4031		74.218750
4032		70.312500
4033		76.171875
4034		74.218750
4035		78.125000
4036		76.171875
4037		80.078125
4038		78.125000
4039		83.984375
4040		80.078125
4041		83.984375
4042		80.078125
4043		85.937500
4044		83.984375
4045		87.890625
4046		83.984375
4047		87.890625
4048		85.937500
4049		89.843750
4050		85.937500
4051		89.843750
4052		87.890625
4053		89.843750
4054		87.890625
4055		91.796875
4056		87.890625
4057		91.796875
4058		87.890625
4059		93.750000
4060		89.843750
4061		93.750000
4062		87.890625
4063		93.750000
4064		89.843750
4065		93.750000
4066		87.890625
4067		93.750000
4068		87.890625
4069		91.796875
4070		87.890625
4071		89.843750
4072		85.937500
4073		89.843750
4074		83.984375
4075		89.843750
4076		82.031250
4077		87.890625
4078		82.031250
4079		87.890625
4080		80.078125
4081		85.937500
4082		78.125000
4083		83.984375
4084		78.125000
4085		82.031250
4086		74.218750
4087		78.125000
4088		72.265625
4089		76.171875
4090		68.359375
4091		76.171875
4092		66.406250
4093		72.265625
4094		64.453125
4095		70.312500
4096		60.546875
4097		66.406250
4098		56.640625
4099		64.453125
4100		54.687500
4101		60.546875
4102		52.734375
4103		56.640625
4104		48.828125
4105		52.734375
4106		44.921875
4107		50.781250
4108		41.015625
4109		48.828125
4110		37.109375
4111		42.968750
4112		33.203125
4113		41.015625
4114		29.296875
4115		35.156250
4116		25.390625
4117		33.203125
4118		21.484375
4119		27.343750
4120		17.578125
4121		23.437500
4122		13.671875
4123		19.531250
4124		9.765625
4125		17.578125
4126		3.906250
4127		11.718750
4128		0.000000
4129		7.812500
4130		-3.906250
4131		3.906250
4132		-7.812500
4133		0.000000
4134		-11.718750
4135		-3.906250
4136		-15.625000
4137		-9.765625
4138		-19.531250
4139		-13.671875
4140		-23.437500
4141		-17.578125
4142		-27.343750
4143		-21.484375
4144		-31.250000
4145		-25.390625
4146		-33.203125
4147		-29.296875
4148		-37.109375
4149		-33.203125
4150		-41.015625
4151		-37.109375
4152		-44.921875
4153		-39.062500
4154		-46.875000
4155		-42.968750
4156		-50.781250
4157		-44.921875
4158		-52.734375
4159		-48.828125
4160		-56.640625
4161		-52.734375
4162		-58.593750
4163		-54.687500
4164		-60.546875
4165		-56.640625
4166		-62.500000
4167		-58.593750
4168		-64.453125
4169		-60.546875
4170		-66.406250
4171		-62.500000
4172		-68.359375
4173		-64.453125
4174		-70.312500
4175		-66.406250
4176		-70.312500
4177		-68.359375
4178		-72.265625
4179		-68.359375
4180		-72.265625
4181		-70.312500
4182		-72.265625
4183		-70.312500
4184		-72.265625
4185		-70.312500
4186		-72.265625
4187		-70.312500
4188		-72.265625
4189		-70.312500
4190		-72.265625
4191		-70.312500
4192		-72.265625
4193		-70.312500
4194		-70.312500
4195		-68.359375
4196		-70.312500
4197		-68.359375
4198		-70.312500
4199		-66.406250
4200		-68.359375
4201		-64.453125
4202		-66.406250
4203		-62.500000
4204		-64.453125
4205		-60.546875
4206		-62.500000
4207		-58.593750
4208		-60.546875
4209		-56.640625
4210		-58.593750
4211		-54.687500
4212		-56.640625
4213		-50.781250
4214		-52.734375
4215		-48.828125
4216		-50.781250
4217		-44.921875
4218		-46.875000
4219		-42.968750
4220		-44.921875
4221		-39.062500
4222		-41.015625
4223		-37.109375
4224		-37.109375
4225		-33.203125
4226		-33.203125
4227		-29.296875
4228		-29.296875
4229		-25.390625
4230		-25.390625
4231		-21.484375
4232		-23.437500
4233		-17.578125
4234		-19.531250
4235		-13.671875
4236		-13.671875
4237		-9.765625
4238		-9.765625
4239		-5.859375
4240		-9.765625
4241		0.000000
4242		-5.859375
4243		5.859375
4244		0.000000
4245		9.765625
4246		5.859375
4247		11.718750
4248		9.765625
4249		15.625000
4250		13.671875
4251		19.531250
4252		17.578125
4253		23.437500
4254		21.484375
4255		27.343750
4256		25.390625
4257		33.203125
4258		29.296875
4259		39.062500
4260		31.250000
4261		41.015625
4262		37.109375
4263		42.968750
4264		41.015625
4265		46.875000
4266		44.921875
4267		50.781250
4268		48.828125
4269		52.734375
4270		52.734375
4271		56.640625
4272		54.687500
4273		62.500000
4274		54.687500
4275		66.406250
4276		58.593750
4277		68.359375
4278		60.546875
4279		70.312500
4280		66.406250
4281		70.312500
4282		70.312500
4283		74.218750
4284		72.265625
4285		76.171875
4286		74.218750
4287		78.125000
4288		76.171875
4289		80.078125
4290		76.171875
4291		85.937500
4292		78.125000
4293		87.890625
4294		80.078125
4295		89.843750
4296		83.984375
4297		85.937500
4298		85.937500
4299		87.890625
4300		85.937500
4301		89.843750
4302		87.890625
4303		89.843750
4304		87.890625
4305		91.796875
4306		85.937500
4307		95.703125
4308		85.937500
4309		95.703125
4310		85.937500
4311		95.703125
4312		85.937500
4313		95.703125
4314		89.843750
4315		91.796875
4316		89.843750
4317		91.796875
4318		89.843750
4319		91.796875
4320		87.890625
4321		89.843750
4322		87.890625
4323		89.843750
4324		83.984375
4325		93.750000
4326		82.031250
4327		91.796875
4328		80.078125
4329		89.843750
4330		82.031250
4331		85.937500
4332		80.078125
4333		83.984375
4334		78.125000
4335		82.031250
4336		76.171875
4337		80.078125
4338		74.218750
4339		78.125000
4340		68.359375
4341		78.125000
4342		66.406250
4343		76.171875
4344		62.500000
4345		74.218750
4346		64.453125
4347		68.359375
4348		60.546875
4349		66.406250
4350		58.593750
4351		62.500000
4352		54.687500
4353		58.593750
4354		50.781250
4355		56.640625
4356		46.875000
4357		52.734375
4358		42.968750
4359		52.734375
4360		37.109375
4361		48.828125
4362		35.156250
4363		44.921875
4364		33.203125
4365		39.062500
4366		29.296875
4367		35.156250
4368		25.390625
4369		31.250000
4370		21.484375
4371		25.390625
4372		15.625000
4373		21.484375
4374		9.765625
4375		21.484375
4376		5.859375
4377		15.625000
4378		1.953125
4379		11.718750
4380		0.000000
4381		5.859375
4382		-3.906250
4383		1.953125
4384		-7.812500
4385		-1.953125
4386		-11.718750
4387		-5.859375
4388		-15.625000
4389		-9.765625
4390		-23.437500
4391		-15.625000
4392		-25.390625
4393		-13.671875
4394		-31.250000
4395		-19.531250
4396		-31.250000
4397		-21.484375
4398		-35.156250
4399		-29.296875
4400		-39.062500
4401		-33.203125
4402		-41.015625
4403		-37.109375
4404		-44.921875
4405		-41.015625
4406		-48.828125
4407		-42.968750
4408		-54.687500
4409		-42.968750
4410		-56.640625
4411		-46.875000
4412		-58.593750
4413		-48.828125
4414		-58.593750
4415		-54.687500
4416		-60.546875
4417		-56.640625
4418		-62.500000
4419		-60.546875
4420		-64.453125
4421		-62.500000
4422		-66.406250
4423		-64.453125
4424		-68.359375
4425		-66.406250
4426		-70.312500
4427		-66.406250
4428		-74.218750
4429		-64.453125
4430		-72.265625
4431		-68.359375
4432		-72.265625
4433		-70.312500
4434		-72.265625
4435		-70.312500
4436		-72.265625
4437		-70.312500
4438		-72.265625
4439		-70.312500
4440		-74.218750
4441		-70.312500
4442		-74.218750
4443		-68.359375
4444		-76.171875
4445		-68.359375
4446		-74.218750
4447		-68.359375
4448		-70.312500
4449		-68.359375
4450		-70.312500
4451		-66.406250
4452		-68.359375
4453		-64.453125
4454		-66.406250
4455		-62.500000
4456		-64.453125
4457		-60.546875
4458		-64.453125
4459		-58.593750
4460		-62.500000
4461		-54.687500
4462		-58.593750
4463		-52.734375
4464		-54.687500
4465		-50.781250
4466		-52.734375
4467		-48.828125
4468		-50.781250
4469		-44.921875
4470		-46.875000
4471		-42.968750
4472		-42.968750
4473		-39.062500
4474		-41.015625
4475		-35.156250
4476		-37.109375
4477		-31.250000
4478		-33.203125
4479		-29.296875
4480		-29.296875
4481		-23.437500
4482		-25.390625
4483		-21.484375
4484		-21.484375
4485		-15.625000
4486		-17.578125
4487		-13.671875
4488		-13.671875
4489		-7.812500
4490		-9.765625
4491		-3.906250
4492		-5.859375
4493		0.000000
4494		-1.953125
4495		3.906250
4496		1.953125
4497		7.812500
4498		5.859375
4499		11.718750
4500		9.765625
4501		15.625000
4502		13.671875
4503		19.531250
4504		19.531250
4505		23.437500
4506		23.437500
4507		27.343750
4508		27.343750
4509		31.250000
4510		29.296875
4511		35.156250
4512		35.156250
4513		39.062500
4514		39.062500
4515		42.968750
4516		41.015625
4517		46.875000
4518		44.921875
4519		50.781250
4520		48.828125
4521		52.734375
4522		52.734375
4523		56.640625
4524		54.687500
4525		60.546875
4526		58.593750
4527		64.453125
4528		60.546875
4529		66.406250
4530		64.453125
4531		68.359375
4532		66.406250
4533		72.265625
4534		70.312500
4535		74.218750
4536		72.265625
4537		76.171875
4538		74.218750
4539		78.125000
4540		76.171875
4541		80.078125
4542		78.125000
4543		82.031250
4544		80.078125
4545		83.984375
4546		82.031250
4547		85.937500
4548		83.984375
4549		87.890625
4550		83.984375
4551		87.890625
4552		85.937500
4553		87.890625
4554		87.890625
4555		89.843750
4556		87.890625
4557		89.843750
4558		87.890625
4559		91.796875
4560		87.890625
4561		91.796875
4562		89.843750
4563		91.796875
4564		89.843750
4565		91.796875
4566		87.890625
4567		91.796875
4568		87.890625
4569		91.796875
4570		87.890625
4571		91.796875
4572		87.890625
4573		89.843750
4574		85.937500
4575		89.843750
4576		85.937500
4577		89.843750
4578		83.984375
4579		87.890625
4580		83.984375
4581		85.937500
4582		80.078125
4583		83.984375
4584		80.078125
4585		83.984375
4586		78.125000
4587		82.031250
4588		76.171875
4589		78.125000
4590		74.218750
4591		76.171875
4592		70.312500
4593		76.171875
4594		68.359375
4595		72.265625
4596		66.406250
4597		70.312500
4598		60.546875
4599		66.406250
4600		58.593750
4601		64.453125
4602		56.640625
4603		60.546875
4604		52.734375
4605		58.593750
4606		50.781250
4607		54.687500
4608		44.921875
4609		50.781250
4610		42.968750
4611		48.828125
4612		39.062500
4613		44.921875
4614		35.156250
4615		41.015625
4616		31.250000
4617		37.109375
4618		27.343750
4619		33.203125
4620		23.437500
4621		29.296875
4622		19.531250
4623		25.390625
4624		15.625000
4625		21.484375
4626		11.718750
4627		17.578125
4628		7.812500
4629		13.671875
4630		1.953125
4631		7.812500
4632		-1.953125
4633		3.906250
4634		-5.859375
4635		0.000000
4636		-9.765625
4637		-3.906250
4638		-13.671875
4639		-7.812500
4640		-17.578125
4641		-11.718750
4642		-23.437500
4643		-15.625000
4644		-25.390625
4645		-19.531250
4646		-29.296875
4647		-23.437500
4648		-33.203125
4649		-27.343750
4650		-37.109375
4651		-31.250000
4652		-39.062500
4653		-33.203125
4654		-42.968750
4655		-39.062500
4656		-46.875000
4657		-41.015625
4658		-48.828125
4659		-44.921875
4660		-52.734375
4661		-46.875000
4662		-54.687500
4663		-50.781250
4664		-58.593750
4665		-52.734375
4666		-60.546875
4667		-56.640625
4668		-62.500000
4669		-58.593750
4670		-64.453125
4671		-60.546875
4672		-66.406250
4673		-62.500000
4674		-68.359375
4675		-64.453125
4676		-70.312500
4677		-66.406250
4678		-70.312500
4679		-66.406250
4680		-72.265625
4681		-68.359375
4682		-74.218750
4683		-70.312500
4684		-74.218750
4685		-70.312500
4686		-74.218750
4687		-70.312500
4688		-74.218750
4689		-72.265625
4690		-74.218750
4691		-72.265625
4692		-74.218750
4693		-70.312500
4694		-74.218750
4695		-70.312500
4696		-74.218750
4697		-68.359375
4698		-72.265625
4699		-68.359375
4700		-70.312500
4701		-68.359375
4702		-70.312500
4703		-66.406250
4704		-68.359375
4705		-64.453125
4706		-66.406250
4707		-62.500000
4708		-64.453125
4709		-60.546875
4710		-62.500000
4711		-58.593750
4712		-60.546875
4713		-56.640625
4714		-58.593750
4715		-54.687500
4716		-54.687500
4717		-50.781250
4718		-52.734375
4719		-48.828125
4720		-48.828125
4721		-44.921875
4722		-46.875000
4723		-41.015625
4724		-42.968750
4725		-39.062500
4726		-41.015625
4727		-35.156250
4728		-37.109375
4729		-31.250000
4730		-33.203125
4731		-27.343750
4732		-29.296875
4733		-23.437500
4734		-25.390625
4735		-19.531250
4736		-21.484375
4737		-15.625000
4738		-17.578125
4739		-11.718750
4740		-13.671875
4741		-7.812500
4742		-9.765625
4743		-3.906250
4744		-5.859375
4745		0.000000
4746		0.000000
4747		3.906250
4748		1.953125
4749		7.812500
4750		7.812500
4751		11.718750
4752		11.718750
4753		15.625000
4754		15.625000
4755		21.484375
4756		19.531250
4757		23.437500
4758		23.437500
4759		29.296875
4760		27.343750
4761		33.203125
4762		31.250000
4763		35.156250
4764		35.156250
4765		41.015625
4766		39.062500
4767		42.968750
4768		42.968750
4769		46.875000
4770		46.875000
4771		50.781250
4772		48.828125
4773		54.687500
4774		52.734375
4775		56.640625
4776		56.640625
4777		60.546875
4778		58.593750
4779		62.500000
4780		62.500000
4781		66.406250
4782		64.453125
4783		68.359375
4784		68.359375
4785		72.265625
4786		68.359375
4787		74.218750
4788		72.265625
4789		76.171875
4790		74.218750
4791		78.125000
4792		76.171875
4793		80.078125
4794		78.125000
4795		82.031250
4796		80.078125
4797		83.984375
4798		82.031250
4799		85.937500
4800		83.984375
4801		87.890625
4802		85.937500
4803		87.890625
4804		85.937500
4805		89.843750
4806		87.890625
4807		89.843750
4808		87.890625
4809		89.843750
4810		87.890625
4811		91.796875
4812		87.890625
4813		91.796875
4814		89.843750
4815		91.796875
4816		89.843750
4817		91.796875
4818		89.843750
4819		91.796875
4820		87.890625
4821		91.796875
4822		87.890625
4823		89.843750
4824		85.937500
4825		89.843750
4826		85.937500
4827		89.843750
4828		85.937500
4829		89.843750
4830		83.984375
4831		85.937500
4832		82.031250
4833		85.937500
4834		80.078125
4835		83.984375
4836		78.125000
4837		82.031250
4838		76.171875
4839		80.078125
4840		74.218750
4841		78.125000
4842		72.265625
4843		76.171875
4844		68.359375
4845		74.218750
4846		68.359375
4847		72.265625
4848		64.453125
4849		68.359375
4850		62.500000
4851		66.406250
4852		58.593750
4853		62.500000
4854		56.640625
4855		60.546875
4856		52.734375
4857		56.640625
4858		48.828125
4859		52.734375
4860		44.921875
4861		50.781250
4862		41.015625
4863		46.875000
4864		37.109375
4865		44.921875
4866		35.156250
4867		39.062500
4868		31.250000
4869		35.156250
4870		25.390625
4871		31.250000
4872		21.484375
4873		27.343750
4874		17.578125
4875		23.437500
4876		13.671875
4877		19.531250
4878		9.765625
4879		15.625000
4880		5.859375
4881		11.718750
4882		1.953125
4883		7.812500
4884		-1.953125
4885		1.953125
4886		-5.859375
4887		0.000000
4888		-9.765625
4889		-5.859375
4890		-15.625000
4891		-9.765625
4892		-19.531250
4893		-13.671875
4894		-23.437500
4895		-17.578125
4896		-27.343750
4897		-19.531250
4898		-29.296875
4899		-25.390625
4900		-33.203125
4901		-29.296875
4902		-37.109375
4903		-33.203125
4904		-41.015625
4905		-35.156250
4906		-44.921875
4907		-39.062500
4908		-46.875000
4909		-42.968750
4910		-50.781250
4911		-46.875000
4912		-54.687500
4913		-46.875000
4914		-56.640625
4915		-50.781250
4916		-58.593750
4917		-54.687500
4918		-60.546875
4919		-56.640625
4920		-62.500000
4921		-60.546875
4922		-64.453125
4923		-62.500000
4924		-66.406250
4925		-64.453125
4926		-68.359375
4927		-64.453125
4928		-72.265625
4929		-66.406250
4930		-72.265625
4931		-66.406250
4932		-72.265625
4933		-70.312500
4934		-72.265625
4935		-70.312500
4936		-74.218750
4937		-72.265625
4938		-74.218750
4939		-72.265625
4940		-74.218750
4941		-72.265625
4942		-74.218750
4943		-72.265625
4944		-74.218750
4945		-72.265625
4946		-76.171875
4947		-68.359375
4948		-74.218750
4949		-68.359375
4950		-72.265625
4951		-68.359375
4952		-70.312500
4953		-68.359375
4954		-68.359375
4955		-66.406250
4956		-68.359375
4957		-64.453125
4958		-66.406250
4959		-62.500000
4960		-64.453125
4961		-60.546875
4962		-62.500000
4963		-56.640625
4964		-60.546875
4965		-54.687500
4966		-56.640625
4967		-52.734375
4968		-54.687500
4969		-50.781250
4970		-52.734375
4971		-46.875000
4972		-48.828125
4973		-44.921875
4974		-44.921875
4975		-41.015625
4976		-42.968750
4977		-37.109375
4978		-39.062500
4979		-33.203125
4980		-37.109375
4981		-29.296875
4982		-33.203125
4983		-27.343750
4984		-29.296875
4985		-23.437500
4986		-25.390625
4987		-19.531250
4988		-19.531250
4989		-15.625000
4990		-15.625000
4991		-11.718750
4992		-11.718750
4993		-7.812500
4994		-7.812500
4995		-3.906250
4996		-5.859375
4997		1.953125
4998		-1.953125
4999		5.859375
5000		3.906250
5001		9.765625
5002		7.812500
5003		13.671875
5004		11.718750
5005		17.578125
5006		15.625000
5007		21.484375
5008		19.531250
5009		25.390625
5010		23.437500
5011		29.296875
5012		27.343750
5013		35.156250
5014		31.250000
5015		39.062500
5016		35.156250
5017		41.015625
5018		39.062500
5019		44.921875
5020		42.968750
5021		48.828125
5022		46.875000
5023		50.781250
5024		50.781250
5025		54.687500
5026		52.734375
5027		56.640625
5028		56.640625
5029		60.546875
5030		58.593750
5031		64.453125
5032		60.546875
5033		66.406250
5034		64.453125
5035		70.312500
5036		68.359375
5037		72.265625
5038		70.312500
5039		74.218750
5040		72.265625
5041		76.171875
5042		76.171875
5043		78.125000
5044		76.171875
5045		80.078125
5046		80.078125
5047		83.984375
5048		80.078125
5049		83.984375
5050		82.031250
5051		85.937500
5052		83.984375
5053		85.937500
5054		85.937500
5055		87.890625
5056		85.937500
5057		87.890625
5058		87.890625
5059		89.843750
5060		87.890625
5061		89.843750
5062		87.890625
5063		91.796875
5064		87.890625
5065		91.796875
5066		89.843750
5067		91.796875
5068		87.890625
5069		91.796875
5070		87.890625
5071		91.796875
5072		87.890625
5073		89.843750
5074		87.890625
5075		89.843750
5076		85.937500
5077		89.843750
5078		85.937500
5079		87.890625
5080		83.984375
5081		87.890625
5082		83.984375
5083		85.937500
5084		82.031250
5085		83.984375
5086		80.078125
5087		83.984375
5088		78.125000
5089		82.031250
5090		76.171875
5091		80.078125
5092		74.218750
5093		78.125000
5094		72.265625
5095		76.171875
5096		68.359375
5097		72.265625
5098		66.406250
5099		70.312500
5100		64.453125
5101		68.359375
5102		60.546875
5103		64.453125
5104		58.593750
5105		62.500000
5106		54.687500
5107		58.593750
5108		50.781250
5109		56.640625
5110		48.828125
5111		52.734375
5112		44.921875
5113		48.828125
5114		41.015625
5115		44.921875
5116		37.109375
5117		42.968750
5118		33.203125
5119		39.062500
5120		29.296875
5121		33.203125
5122		25.390625
5123		31.250000
5124		21.484375
5125		25.390625
5126		17.578125
5127		23.437500
5128		13.671875
5129		19.531250
5130		9.765625
5131		13.671875
5132		3.906250
5133		9.765625
5134		0.000000
5135		5.859375
5136		-3.906250
5137		1.953125
5138		-7.812500
5139		-1.953125
5140		-11.718750
5141		-5.859375
5142		-15.625000
5143		-9.765625
5144		-19.531250
5145		-15.625000
5146		-23.437500
5147		-19.531250
5148		-27.343750
5149		-23.437500
5150		-31.250000
5151		-25.390625
5152		-35.156250
5153		-29.296875
5154		-39.062500
5155		-33.203125
5156		-41.015625
5157		-37.109375
5158		-44.921875
5159		-41.015625
5160		-48.828125
5161		-44.921875
5162		-50.781250
5163		-46.875000
5164		-54.687500
5165		-50.781250
5166		-56.640625
5167		-52.734375
5168		-58.593750
5169		-56.640625
5170		-62.500000
5171		-58.593750
5172		-64.453125
5173		-60.546875
5174		-66.406250
5175		-62.500000
5176		-68.359375
5177		-64.453125
5178		-68.359375
5179		-66.406250
5180		-70.312500
5181		-68.359375
5182		-72.265625
5183		-68.359375
5184		-72.265625
5185		-70.312500
5186		-74.218750
5187		-70.312500
5188		-74.218750
5189		-72.265625
5190		-74.218750
5191		-72.265625
5192		-74.218750
5193		-72.265625
5194		-74.218750
5195		-72.265625
5196		-74.218750
5197		-72.265625
5198		-74.218750
5199		-70.312500
5200		-72.265625
5201		-70.312500
5202		-72.265625
5203		-68.359375
5204		-70.312500
5205		-68.359375
5206		-68.359375
5207		-66.406250
5208		-68.359375
5209		-64.453125
5210		-66.406250
5211		-62.500000
5212		-64.453125
5213		-60.546875
5214		-62.500000
5215		-58.593750
5216		-60.546875
5217		-54.687500
5218		-56.640625
5219		-52.734375
5220		-54.687500
5221		-50.781250
5222		-50.781250
5223		-46.875000
5224		-48.828125
5225		-44.921875
5226		-44.921875
5227		-41.015625
5228		-41.015625
5229		-37.109375
5230		-39.062500
5231		-33.203125
5232		-35.156250
5233		-29.296875
5234		-31.250000
5235		-27.343750
5236		-27.343750
5237		-23.437500
5238		-23.437500
5239		-19.531250
5240		-19.531250
5241		-15.625000
5242		-15.625000
5243		-9.765625
5244		-11.718750
5245		-5.859375
5246		-7.812500
5247		-1.953125
5248		-3.906250
5249		1.953125
5250		0.000000
5251		5.859375
5252		3.906250
5253		9.765625
5254		7.812500
5255		13.671875
5256		11.718750
5257		17.578125
5258		15.625000
5259		21.484375
5260		21.484375
5261		25.390625
5262		25.390625
5263		29.296875
5264		29.296875
5265		33.203125
5266		33.203125
5267		37.109375
5268		37.109375
5269		41.015625
5270		39.062500
5271		44.921875
5272		42.968750
5273		48.828125
5274		46.875000
5275		50.781250
5276		50.781250
5277		54.687500
5278		54.687500
5279		58.593750
5280		56.640625
5281		62.500000
5282		60.546875
5283		64.453125
5284		62.500000
5285		66.406250
5286		66.406250
5287		70.312500
5288		68.359375
5289		72.265625
5290		70.312500
5291		74.218750
5292		72.265625
5293		76.171875
5294		76.171875
5295		78.125000
5296		78.125000
5297		80.078125
5298		80.078125
5299		82.031250
5300		82.031250
5301		83.984375
5302		82.031250
5303		85.937500
5304		83.984375
5305		87.890625
5306		85.937500
5307		87.890625
5308		85.937500
5309		87.890625
5310		87.890625
5311		89.843750
5312		87.890625
5313		89.843750
5314		87.890625
5315		89.843750
5316		87.890625
5317		89.843750
5318		87.890625
5319		89.843750
5320		89.843750
5321		89.843750
5322		87.890625
5323		89.843750
5324		87.890625
5325		89.843750
5326		87.890625
5327		89.843750
5328		85.937500
5329		89.843750
5330		85.937500
5331		87.890625
5332		83.984375
5333		85.937500
5334		82.031250
5335		85.937500
5336		82.031250
5337		83.984375
5338		80.078125
5339		82.031250
5340		78.125000
5341		82.031250
5342		76.171875
5343		78.125000
5344		74.218750
5345		76.171875
5346		70.312500
5347		74.218750
5348		68.359375
5349		72.265625
5350		64.453125
5351		70.312500
5352		62.500000
5353		66.406250
5354		60.546875
5355		64.453125
5356		56.640625
5357		60.546875
5358		52.734375
5359		58.593750
5360		50.781250
5361		54.687500
5362		46.875000
5363		50.781250
5364		42.968750
5365		48.828125
5366		39.062500
5367		44.921875
5368		35.156250
5369		41.015625
5370		31.250000
5371		37.109375
5372		27.343750
5373		33.203125
5374		23.437500
5375		29.296875
5376		19.531250
5377		25.390625
5378		15.625000
5379		21.484375
5380		11.718750
5381		17.578125
5382		7.812500
5383		13.671875
5384		3.906250
5385		7.812500
5386		0.000000
5387		3.906250
5388		-3.906250
5389		0.000000
5390		-9.765625
5391		-3.906250
5392		-13.671875
5393		-7.812500
5394		-17.578125
5395		-11.718750
5396		-21.484375
5397		-15.625000
5398		-25.390625
5399		-19.531250
5400		-29.296875
5401		-23.437500
5402		-33.203125
5403		-27.343750
5404		-35.156250
5405		-31.250000
5406		-39.062500
5407		-35.156250
5408		-42.968750
5409		-39.062500
5410		-46.875000
5411		-41.015625
5412		-48.828125
5413		-44.921875
5414		-52.734375
5415		-46.875000
5416		-54.687500
5417		-50.781250
5418		-58.593750
5419		-54.687500
5420		-60.546875
5421		-56.640625
5422		-62.500000
5423		-58.593750
5424		-64.453125
5425		-60.546875
5426		-66.406250
5427		-62.500000
5428		-68.359375
5429		-64.453125
5430		-70.312500
5431		-66.406250
5432		-70.312500
5433		-68.359375
5434		-72.265625
5435		-70.312500
5436		-72.265625
5437		-70.312500
5438		-74.218750
5439		-70.312500
5440		-74.218750
5441		-72.265625
5442		-74.218750
5443		-72.265625
5444		-74.218750
5445		-72.265625
5446		-74.218750
5447		-72.265625
5448		-74.218750
5449		-72.265625
5450		-72.265625
5451		-70.312500
5452		-72.265625
5453		-70.312500
5454		-72.265625
5455		-68.359375
5456		-70.312500
5457		-68.359375
5458		-68.359375
5459		-66.406250
5460		-66.406250
5461		-64.453125
5462		-64.453125
5463		-62.500000
5464		-62.500000
5465		-60.546875
5466		-60.546875
5467		-56.640625
5468		-58.593750
5469		-54.687500
5470		-56.640625
5471		-52.734375
5472		-52.734375
5473		-48.828125
5474		-50.781250
5475		-46.875000
5476		-46.875000
5477		-42.968750
5478		-44.921875
5479		-39.062500
5480		-41.015625
5481		-37.109375
5482		-37.109375
5483		-33.203125
5484		-33.203125
5485		-29.296875
5486		-31.250000
5487		-25.390625
5488		-27.343750
5489		-21.484375
5490		-23.437500
5491		-17.578125
5492		-19.531250
5493		-13.671875
5494		-13.671875
5495		-9.765625
5496		-11.718750
5497		-5.859375
5498		-5.859375
5499		-1.953125
5500		-3.906250
5501		1.953125
5502		1.953125
5503		7.812500
5504		5.859375
5505		11.718750
5506		9.765625
5507		15.625000
5508		13.671875
5509		19.531250
5510		17.578125
5511		23.437500
5512		21.484375
5513		27.343750
5514		25.390625
5515		31.250000
5516		29.296875
5517		35.156250
5518		33.203125
5519		39.062500
5520		37.109375
5521		42.968750
5522		41.015625
5523		46.875000
5524		44.921875
5525		48.828125
5526		48.828125
5527		52.734375
5528		50.781250
5529		56.640625
5530		54.687500
5531		58.593750
5532		58.593750
5533		62.500000
5534		60.546875
5535		64.453125
5536		64.453125
5537		68.359375
5538		66.406250
5539		70.312500
5540		70.312500
5541		74.218750
5542		72.265625
5543		76.171875
5544		74.218750
5545		78.125000
5546		76.171875
5547		80.078125
5548		78.125000
5549		82.031250
5550		80.078125
5551		83.984375
5552		82.031250
5553		85.937500
5554		83.984375
5555		85.937500
5556		83.984375
5557		87.890625
5558		85.937500
5559		87.890625
5560		85.937500
5561		89.843750
5562		87.890625
5563		89.843750
5564		87.890625
5565		89.843750
5566		87.890625
5567		91.796875
5568		87.890625
5569		91.796875
5570		89.843750
5571		91.796875
5572		89.843750
5573		91.796875
5574		87.890625
5575		89.843750
5576		87.890625
5577		89.843750
5578		85.937500
5579		89.843750
5580		85.937500
5581		89.843750
5582		83.984375
5583		87.890625
5584		83.984375
5585		87.890625
5586		82.031250
5587		85.937500
5588		82.031250
5589		83.984375
5590		80.078125
5591		82.031250
5592		78.125000
5593		82.031250
5594		74.218750
5595		78.125000
5596		72.265625
5597		76.171875
5598		70.312500
5599		74.218750
5600		68.359375
5601		72.265625
5602		64.453125
5603		70.312500
5604		62.500000
5605		66.406250
5606		58.593750
5607		64.453125
5608		56.640625
5609		60.546875
5610		52.734375
5611		58.593750
5612		48.828125
5613		54.687500
5614		44.921875
5615		50.781250
5616		42.968750
5617		48.828125
5618		39.062500
5619		42.968750
5620		35.156250
5621		41.015625
5622		31.250000
5623		37.109375
5624		27.343750
5625		33.203125
5626		23.437500
5627		29.296875
5628		19.531250
5629		25.390625
5630		15.625000
5631		21.484375
5632		11.718750
5633		15.625000
5634		5.859375
5635		11.718750
5636		1.953125
5637		7.812500
5638		-1.953125
5639		3.906250
5640		-5.859375
5641		0.000000
5642		-9.765625
5643		-3.906250
5644		-13.671875
5645		-7.812500
5646		-17.578125
5647		-11.718750
5648		-21.484375
5649		-15.625000
5650		-25.390625
5651		-19.531250
5652		-29.296875
5653		-23.437500
5654		-33.203125
5655		-27.343750
5656		-37.109375
5657		-31.250000
5658		-39.062500
5659		-35.156250
5660		-42.968750
5661		-39.062500
5662		-46.875000
5663		-41.015625
5664		-48.828125
5665		-44.921875
5666		-52.734375
5667		-48.828125
5668		-54.687500
5669		-50.781250
5670		-58.593750
5671		-54.687500
5672		-60.546875
5673		-56.640625
5674		-62.500000
5675		-58.593750
5676		-64.453125
5677		-60.546875
5678		-66.406250
5679		-62.500000
5680		-68.359375
5681		-64.453125
5682		-70.312500
5683		-66.406250
5684		-70.312500
5685		-68.359375
5686		-72.265625
5687		-68.359375
5688		-72.265625
5689		-70.312500
5690		-74.218750
5691		-70.312500
5692		-74.218750
5693		-70.312500
5694		-74.218750
5695		-72.265625
5696		-74.218750
5697		-72.265625
5698		-74.218750
5699		-72.265625
5700		-74.218750
5701		-70.312500
5702		-72.265625
5703		-70.312500
5704		-72.265625
5705		-68.359375
5706		-72.265625
5707		-68.359375
5708		-70.312500
5709		-66.406250
5710		-68.359375
5711		-66.406250
5712		-66.406250
5713		-62.500000
5714		-64.453125
5715		-60.546875
5716		-62.500000
5717		-58.593750
5718		-60.546875
5719		-56.640625
5720		-58.593750
5721		-54.687500
5722		-54.687500
5723		-50.781250
5724		-52.734375
5725		-48.828125
5726		-50.781250
5727		-44.921875
5728		-46.875000
5729		-42.968750
5730		-42.968750
5731		-39.062500
5732		-41.015625
5733		-35.156250
5734		-37.109375
5735		-31.250000
5736		-33.203125
5737		-27.343750
5738		-29.296875
5739		-25.390625
5740		-25.390625
5741		-21.484375
5742		-21.484375
5743		-17.578125
5744		-17.578125
5745		-11.718750
5746		-13.671875
5747		-7.812500
5748		-9.765625
5749		-3.906250
5750		-5.859375
5751		0.000000
5752		-1.953125
5753		3.906250
5754		1.953125
5755		7.812500
5756		5.859375
5757		11.718750
5758		9.765625
5759		15.625000
5760		15.625000
5761		19.531250
5762		19.531250
5763		23.437500
5764		23.437500
5765		27.343750
5766		27.343750
5767		31.250000
5768		31.250000
5769		35.156250
5770		33.203125
5771		39.062500
5772		39.062500
5773		42.968750
5774		41.015625
5775		46.875000
5776		44.921875
5777		50.781250
5778		48.828125
5779		52.734375
5780		52.734375
5781		56.640625
5782		54.687500
5783		60.546875
5784		58.593750
5785		62.500000
5786		60.546875
5787		66.406250
5788		64.453125
5789		68.359375
5790		66.406250
5791		70.312500
5792		70.312500
5793		74.218750
5794		72.265625
5795		76.171875
5796		74.218750
5797		78.125000
5798		76.171875
5799		80.078125
5800		78.125000
5801		82.031250
5802		80.078125
5803		83.984375
5804		82.031250
5805		83.984375
5806		83.984375
5807		85.937500
5808		83.984375
5809		87.890625
5810		85.937500
5811		87.890625
5812		85.937500
5813		89.843750
5814		87.890625
5815		89.843750
5816		87.890625
5817		89.843750
5818		87.890625
5819		89.843750
5820		87.890625
5821		91.796875
5822		87.890625
5823		91.796875
5824		87.890625
5825		89.843750
5826		87.890625
5827		89.843750
5828		87.890625
5829		89.843750
5830		85.937500
5831		89.843750
5832		85.937500
5833		87.890625
5834		83.984375
5835		87.890625
5836		82.031250
5837		85.937500
5838		82.031250
5839		85.937500
5840		80.078125
5841		83.984375
5842		78.125000
5843		82.031250
5844		76.171875
5845		80.078125
5846		74.218750
5847		78.125000
5848		72.265625
5849		76.171875
5850		70.312500
5851		72.265625
5852		66.406250
5853		70.312500
5854		64.453125
5855		68.359375
5856		60.546875
5857		66.406250
5858		58.593750
5859		62.500000
5860		54.687500
5861		60.546875
5862		52.734375
5863		56.640625
5864		48.828125
5865		52.734375
5866		44.921875
5867		48.828125
5868		41.015625
5869		44.921875
5870		37.109375
5871		42.968750
5872		33.203125
5873		39.062500
5874		29.296875
5875		35.156250
5876		25.390625
5877		31.250000
5878		21.484375
5879		27.343750
5880		17.578125
5881		23.437500
5882		13.671875
5883		19.531250
5884		7.812500
5885		15.625000
5886		3.906250
5887		9.765625
5888		1.953125
5889		5.859375
5890		-3.906250
5891		1.953125
5892		-7.812500
5893		0.000000
5894		-11.718750
5895		-5.859375
5896		-15.625000
5897		-7.812500
5898		-19.531250
5899		-13.671875
5900		-23.437500
5901		-17.578125
5902		-27.343750
5903		-21.484375
5904		-31.250000
5905		-25.390625
5906		-35.156250
5907		-29.296875
5908		-37.109375
5909		-31.250000
5910		-41.015625
5911		-37.109375
5912		-44.921875
5913		-39.062500
5914		-48.828125
5915		-42.968750
5916		-50.781250
5917		-42.968750
5918		-54.687500
5919		-48.828125
5920		-58.593750
5921		-52.734375
5922		-58.593750
5923		-54.687500
5924		-62.500000
5925		-56.640625
5926		-64.453125
5927		-60.546875
5928		-66.406250
5929		-62.500000
5930		-68.359375
5931		-64.453125
5932		-72.265625
5933		-64.453125
5934		-70.312500
5935		-68.359375
5936		-72.265625
5937		-68.359375
5938		-74.218750
5939		-68.359375
5940		-76.171875
5941		-70.312500
5942		-74.218750
5943		-70.312500
5944		-76.171875
5945		-70.312500
5946		-76.171875
5947		-72.265625
5948		-78.125000
5949		-70.312500
5950		-74.218750
5951		-72.265625
5952		-74.218750
5953		-72.265625
5954		-74.218750
5955		-70.312500
5956		-74.218750
5957		-68.359375
5958		-72.265625
5959		-66.406250
5960		-70.312500
5961		-66.406250
5962		-70.312500
5963		-64.453125
5964		-66.406250
5965		-62.500000
5966		-68.359375
5967		-60.546875
5968		-62.500000
5969		-58.593750
5970		-60.546875
5971		-56.640625
5972		-58.593750
5973		-50.781250
5974		-56.640625
5975		-50.781250
5976		-54.687500
5977		-46.875000
5978		-48.828125
5979		-44.921875
5980		-48.828125
5981		-41.015625
5982		-44.921875
5983		-35.156250
5984		-39.062500
5985		-35.156250
5986		-37.109375
5987		-31.250000
5988		-33.203125
5989		-27.343750
5990		-31.250000
5991		-23.437500
5992		-25.390625
5993		-19.531250
5994		-21.484375
5995		-15.625000
5996		-17.578125
5997		-9.765625
5998		-13.671875
5999		-7.812500
6000		-11.718750
6001		-3.906250
6002		-5.859375
6003		0.000000
6004		-1.953125
6005		3.906250
6006		1.953125
6007		11.718750
6008		5.859375
6009		13.671875
6010		11.718750
6011		17.578125
6012		15.625000
6013		23.437500
6014		15.625000
6015		25.390625
6016		21.484375
6017		31.250000
6018		27.343750
6019		33.203125
6020		31.250000
6021		37.109375
6022		33.203125
6023		41.015625
6024		35.156250
6025		44.921875
6026		41.015625
6027		46.875000
6028		46.875000
6029		50.781250
6030		46.875000
6031		56.640625
6032		50.781250
6033		60.546875
6034		54.687500
6035		60.546875
6036		58.593750
6037		62.500000
6038		62.500000
6039		66.406250
6040		62.500000
6041		72.265625
6042		66.406250
6043		72.265625
6044		70.312500
6045		74.218750
6046		70.312500
6047		80.078125
6048		70.312500
6049		80.078125
6050		74.218750
6051		82.031250
6052		78.125000
6053		82.031250
6054		80.078125
6055		83.984375
6056		80.078125
6057		87.890625
6058		80.078125
6059		87.890625
6060		83.984375
6061		87.890625
6062		85.937500
6063		87.890625
6064		82.031250
6065		93.750000
6066		83.984375
6067		93.750000
6068		87.890625
6069		89.843750
6070		87.890625
6071		89.843750
6072		87.890625
6073		91.796875
6074		85.937500
6075		93.750000
6076		87.890625
6077		91.796875
6078		87.890625
6079		89.843750
6080		83.984375
6081		91.796875
6082		83.984375
6083		91.796875
6084		83.984375
6085		89.843750
6086		83.984375
6087		87.890625
6088		82.031250
6089		85.937500
6090		78.125000
6091		85.937500
6092		78.125000
6093		83.984375
6094		78.125000
6095		80.078125
6096		74.218750
6097		80.078125
6098		70.312500
6099		82.031250
6100		68.359375
6101		76.171875
6102		68.359375
6103		72.265625
6104		66.406250
6105		70.312500
6106		62.500000
6107		68.359375
6108		58.593750
6109		68.359375
6110		56.640625
6111		62.500000
6112		52.734375
6113		58.593750
6114		46.875000
6115		56.640625
6116		42.968750
6117		52.734375
6118		42.968750
6119		48.828125
6120		41.015625
6121		44.921875
6122		35.156250
6123		41.015625
6124		31.250000
6125		39.062500
6126		29.296875
6127		35.156250
6128		25.390625
6129		29.296875
6130		17.578125
6131		25.390625
6132		15.625000
6133		25.390625
6134		11.718750
6135		19.531250
6136		7.812500
6137		13.671875
6138		3.906250
6139		9.765625
6140		0.000000
6141		5.859375
6142		-5.859375
6143		3.906250
6144		-7.812500
6145		-1.953125
6146		-13.671875
6147		-5.859375
6148		-17.578125
6149		-9.765625
6150		-21.484375
6151		-15.625000
6152		-23.437500
6153		-19.531250
6154		-27.343750
6155		-23.437500
6156		-33.203125
6157		-27.343750
6158		-37.109375
6159		-27.343750
6160		-39.062500
6161		-33.203125
6162		-42.968750
6163		-37.109375
6164		-46.875000
6165		-41.015625
6166		-48.828125
6167		-42.968750
6168		-52.734375
6169		-44.921875
6170		-54.687500
6171		-50.781250
6172		-56.640625
6173		-52.734375
6174		-64.453125
6175		-56.640625
6176		-64.453125
6177		-56.640625
6178		-64.453125
6179		-60.546875
6180		-70.312500
6181		-62.500000
6182		-68.359375
6183		-64.453125
6184		-70.312500
6185		-66.406250
6186		-72.265625
6187		-68.359375
6188		-72.265625
6189		-70.312500
6190		-72.265625
6191		-70.312500
6192		-76.171875
6193		-70.312500
6194		-76.171875
6195		-70.312500
6196		-76.171875
6197		-72.265625
6198		-76.171875
6199		-70.312500
6200		-74.218750
6201		-72.265625
6202		-74.218750
6203		-72.265625
6204		-74.218750
6205		-72.265625
6206		-74.218750
6207		-70.312500
6208		-72.265625
6209		-70.312500
6210		-70.312500
6211		-68.359375
6212		-70.312500
6213		-66.406250
6214		-68.359375
6215		-64.453125
6216		-66.406250
6217		-62.500000
6218		-64.453125
6219		-60.546875
6220		-62.500000
6221		-58.593750
6222		-60.546875
6223		-54.687500
6224		-58.593750
6225		-54.687500
6226		-54.687500
6227		-50.781250
6228		-52.734375
6229		-46.875000
6230		-48.828125
6231		-44.921875
6232		-46.875000
6233		-41.015625
6234		-42.968750
6235		-37.109375
6236		-39.062500
6237		-35.156250
6238		-35.156250
6239		-31.250000
6240		-31.250000
6241		-25.390625
6242		-29.296875
6243		-21.484375
6244		-25.390625
6245		-19.531250
6246		-21.484375
6247		-15.625000
6248		-17.578125
6249		-9.765625
6250		-13.671875
6251		-5.859375
6252		-9.765625
6253		-3.906250
6254		-3.906250
6255		0.000000
6256		0.000000
6257		5.859375
6258		1.953125
6259		9.765625
6260		7.812500
6261		13.671875
6262		9.765625
6263		17.578125
6264		13.671875
6265		21.484375
6266		19.531250
6267		25.390625
6268		23.437500
6269		29.296875
6270		27.343750
6271		33.203125
6272		31.250000
6273		37.109375
6274		35.156250
6275		41.015625
6276		37.109375
6277		44.921875
6278		42.968750
6279		48.828125
6280		44.921875
6281		52.734375
6282		48.828125
6283		56.640625
6284		52.734375
6285		58.593750
6286		56.640625
6287		60.546875
6288		58.593750
6289		62.500000
6290		62.500000
6291		66.406250
6292		64.453125
6293		70.312500
6294		66.406250
6295		72.265625
6296		68.359375
6297		76.171875
6298		72.265625
6299		78.125000
6300		74.218750
6301		80.078125
6302		76.171875
6303		80.078125
6304		78.125000
6305		82.031250
6306		80.078125
6307		83.984375
6308		80.078125
6309		85.937500
6310		83.984375
6311		87.890625
6312		83.984375
6313		89.843750
6314		83.984375
6315		89.843750
6316		85.937500
6317		89.843750
6318		85.937500
6319		89.843750
6320		87.890625
6321		89.843750
6322		87.890625
6323		89.843750
6324		87.890625
6325		91.796875
6326		87.890625
6327		91.796875
6328		87.890625
6329		91.796875
6330		85.937500
6331		91.796875
6332		85.937500
6333		89.843750
6334		83.984375
6335		89.843750
6336		83.984375
6337		89.843750
6338		83.984375
6339		85.937500
6340		82.031250
6341		85.937500
6342		80.078125
6343		83.984375
6344		78.125000
6345		82.031250
6346		74.218750
6347		82.031250
6348		74.218750
6349		80.078125
6350		72.265625
6351		76.171875
6352		70.312500
6353		74.218750
6354		68.359375
6355		72.265625
6356		64.453125
6357		68.359375
6358		62.500000
6359		66.406250
6360		58.593750
6361		64.453125
6362		56.640625
6363		60.546875
6364		52.734375
6365		58.593750
6366		48.828125
6367		54.687500
6368		44.921875
6369		50.781250
6370		42.968750
6371		46.875000
6372		39.062500
6373		44.921875
6374		35.156250
6375		41.015625
6376		31.250000
6377		37.109375
6378		27.343750
6379		33.203125
6380		21.484375
6381		29.296875
6382		19.531250
6383		25.390625
6384		13.671875
6385		21.484375
6386		11.718750
6387		17.578125
6388		7.812500
6389		11.718750
6390		1.953125
6391		7.812500
6392		-1.953125
6393		5.859375
6394		-5.859375
6395		0.000000
6396		-11.718750
6397		-3.906250
6398		-13.671875
6399		-5.859375
6400		-17.578125
6401		-11.718750
6402		-21.484375
6403		-15.625000
6404		-25.390625
6405		-19.531250
6406		-29.296875
6407		-23.437500
6408		-33.203125
6409		-27.343750
6410		-37.109375
6411		-31.250000
6412		-41.015625
6413		-35.156250
6414		-44.921875
6415		-37.109375
6416		-46.875000
6417		-41.015625
6418		-50.781250
6419		-44.921875
6420		-52.734375
6421		-46.875000
6422		-54.687500
6423		-50.781250
6424		-58.593750
6425		-54.687500
6426		-60.546875
6427		-56.640625
6428		-62.500000
6429		-58.593750
6430		-66.406250
6431		-62.500000
6432		-66.406250
6433		-62.500000
6434		-68.359375
6435		-64.453125
6436		-70.312500
6437		-66.406250
6438		-72.265625
6439		-68.359375
6440		-72.265625
6441		-70.312500
6442		-74.218750
6443		-70.312500
6444		-74.218750
6445		-72.265625
6446		-76.171875
6447		-72.265625
6448		-76.171875
6449		-72.265625
6450		-76.171875
6451		-72.265625
6452		-76.171875
6453		-72.265625
6454		-76.171875
6455		-72.265625
6456		-74.218750
6457		-72.265625
6458		-74.218750
6459		-70.312500
6460		-72.265625
6461		-68.359375
6462		-72.265625
6463		-66.406250
6464		-70.312500
6465		-66.406250
6466		-68.359375
6467		-64.453125
6468		-66.406250
6469		-62.500000
6470		-64.453125
6471		-60.546875
6472		-62.500000
6473		-58.593750
6474		-60.546875
6475		-56.640625
6476		-58.593750
6477		-52.734375
6478		-54.687500
6479		-50.781250
6480		-52.734375
6481		-46.875000
6482		-48.828125
6483		-42.968750
6484		-44.921875
6485		-41.015625
6486		-42.968750
6487		-37.109375
6488		-39.062500
6489		-33.203125
6490		-35.156250
6491		-29.296875
6492		-31.250000
6493		-27.343750
6494		-27.343750
6495		-21.484375
6496		-23.437500
6497		-17.578125
6498		-19.531250
6499		-15.625000
6500		-15.625000
6501		-9.765625
6502		-11.718750
6503		-5.859375
6504		-7.812500
6505		-1.953125
6506		-3.906250
6507		1.953125
6508		0.000000
6509		7.812500
6510		3.906250
6511		9.765625
6512		7.812500
6513		13.671875
6514		11.718750
6515		17.578125
6516		15.625000
6517		21.484375
6518		19.531250
6519		25.390625
6520		25.390625
6521		31.250000
6522		29.296875
6523		33.203125
6524		33.203125
6525		37.109375
6526		37.109375
6527		41.015625
6528		41.015625
6529		44.921875
6530		42.968750
6531		48.828125
6532		46.875000
6533		52.734375
6534		50.781250
6535		54.687500
6536		52.734375
6537		58.593750
6538		56.640625
6539		60.546875
6540		60.546875
6541		64.453125
6542		62.500000
6543		68.359375
6544		66.406250
6545		70.312500
6546		68.359375
6547		72.265625
6548		70.312500
6549		74.218750
6550		72.265625
6551		78.125000
6552		74.218750
6553		78.125000
6554		76.171875
6555		82.031250
6556		80.078125
6557		82.031250
6558		80.078125
6559		83.984375
6560		80.078125
6561		85.937500
6562		83.984375
6563		85.937500
6564		83.984375
6565		87.890625
6566		85.937500
6567		87.890625
6568		85.937500
6569		89.843750
6570		85.937500
6571		89.843750
6572		87.890625
6573		89.843750
6574		87.890625
6575		89.843750
6576		87.890625
6577		89.843750
6578		87.890625
6579		89.843750
6580		87.890625
6581		89.843750
6582		85.937500
6583		89.843750
6584		85.937500
6585		89.843750
6586		83.984375
6587		87.890625
6588		83.984375
6589		87.890625
6590		82.031250
6591		85.937500
6592		82.031250
6593		83.984375
6594		80.078125
6595		83.984375
6596		78.125000
6597		82.031250
6598		76.171875
6599		80.078125
6600		74.218750
6601		78.125000
6602		70.312500
6603		76.171875
6604		68.359375
6605		74.218750
6606		66.406250
6607		70.312500
6608		64.453125
6609		68.359375
6610		60.546875
6611		66.406250
6612		58.593750
6613		62.500000
6614		54.687500
6615		60.546875
6616		50.781250
6617		56.640625
6618		46.875000
6619		52.734375
6620		44.921875
6621		48.828125
6622		41.015625
6623		46.875000
6624		37.109375
6625		42.968750
6626		33.203125
6627		39.062500
6628		29.296875
6629		35.156250
6630		25.390625
6631		31.250000
6632		21.484375
6633		27.343750
6634		17.578125
6635		23.437500
6636		13.671875
6637		19.531250
6638		9.765625
6639		15.625000
6640		5.859375
6641		11.718750
6642		1.953125
6643		5.859375
6644		-1.953125
6645		3.906250
6646		-7.812500
6647		-1.953125
6648		-11.718750
6649		-5.859375
6650		-15.625000
6651		-9.765625
6652		-19.531250
6653		-13.671875
6654		-23.437500
6655		-17.578125
6656		-27.343750
6657		-21.484375
6658		-31.250000
6659		-25.390625
6660		-35.156250
6661		-29.296875
6662		-39.062500
6663		-33.203125
6664		-41.015625
6665		-37.109375
6666		-44.921875
6667		-41.015625
6668		-48.828125
6669		-42.968750
6670		-50.781250
6671		-44.921875
6672		-54.687500
6673		-48.828125
6674		-56.640625
6675		-52.734375
6676		-60.546875
6677		-54.687500
6678		-62.500000
6679		-58.593750
6680		-64.453125
6681		-60.546875
6682		-66.406250
6683		-62.500000
6684		-68.359375
6685		-64.453125
6686		-70.312500
6687		-66.406250
6688		-74.218750
6689		-68.359375
6690		-72.265625
6691		-70.312500
6692		-74.218750
6693		-70.312500
6694		-76.171875
6695		-70.312500
6696		-76.171875
6697		-72.265625
6698		-76.171875
6699		-72.265625
6700		-76.171875
6701		-72.265625
6702		-76.171875
6703		-72.265625
6704		-76.171875
6705		-72.265625
6706		-76.171875
6707		-72.265625
6708		-74.218750
6709		-72.265625
6710		-74.218750
6711		-70.312500
6712		-74.218750
6713		-68.359375
6714		-72.265625
6715		-68.359375
6716		-70.312500
6717		-66.406250
6718		-68.359375
6719		-64.453125
6720		-66.406250
6721		-62.500000
6722		-64.453125
6723		-60.546875
6724		-62.500000
6725		-58.593750
6726		-60.546875
6727		-54.687500
6728		-58.593750
6729		-52.734375
6730		-54.687500
6731		-48.828125
6732		-50.781250
6733		-46.875000
6734		-48.828125
6735		-42.968750
6736		-44.921875
6737		-41.015625
6738		-42.968750
6739		-37.109375
6740		-39.062500
6741		-33.203125
6742		-35.156250
6743		-29.296875
6744		-31.250000
6745		-25.390625
6746		-27.343750
6747		-21.484375
6748		-23.437500
6749		-17.578125
6750		-19.531250
6751		-13.671875
6752		-15.625000
6753		-9.765625
6754		-11.718750
6755		-5.859375
6756		-7.812500
6757		-1.953125
6758		-3.906250
6759		1.953125
6760		0.000000
6761		7.812500
6762		3.906250
6763		9.765625
6764		7.812500
6765		13.671875
6766		11.718750
6767		17.578125
6768		17.578125
6769		23.437500
6770		21.484375
6771		27.343750
6772		25.390625
6773		31.250000
6774		29.296875
6775		33.203125
6776		33.203125
6777		37.109375
6778		37.109375
6779		41.015625
6780		41.015625
6781		44.921875
6782		42.968750
6783		48.828125
6784		46.875000
6785		52.734375
6786		50.781250
6787		56.640625
6788		54.687500
6789		58.593750
6790		56.640625
6791		60.546875
6792		60.546875
6793		64.453125
6794		62.500000
6795		68.359375
6796		64.453125
6797		70.312500
6798		68.359375
6799		72.265625
6800		70.312500
6801		74.218750
6802		72.265625
6803		76.171875
6804		74.218750
6805		78.125000
6806		76.171875
6807		82.031250
6808		78.125000
6809		82.031250
6810		80.078125
6811		83.984375
6812		82.031250
6813		85.937500
6814		83.984375
6815		85.937500
6816		83.984375
6817		87.890625
6818		85.937500
6819		87.890625
6820		85.937500
6821		89.843750
6822		85.937500
6823		89.843750
6824		85.937500
6825		89.843750
6826		87.890625
6827		89.843750
6828		85.937500
6829		89.843750
6830		85.937500
6831		89.843750
6832		85.937500
6833		89.843750
6834		85.937500
6835		89.843750
6836		83.984375
6837		89.843750
6838		83.984375
6839		87.890625
6840		83.984375
6841		85.937500
6842		82.031250
6843		85.937500
6844		80.078125
6845		83.984375
6846		78.125000
6847		83.984375
6848		76.171875
6849		82.031250
6850		76.171875
6851		78.125000
6852		72.265625
6853		76.171875
6854		70.312500
6855		74.218750
6856		68.359375
6857		72.265625
6858		66.406250
6859		70.312500
6860		62.500000
6861		66.406250
6862		60.546875
6863		64.453125
6864		56.640625
6865		62.500000
6866		52.734375
6867		58.593750
6868		50.781250
6869		56.640625
6870		46.875000
6871		52.734375
6872		42.968750
6873		48.828125
6874		41.015625
6875		44.921875
6876		37.109375
6877		41.015625
6878		31.250000
6879		37.109375
6880		27.343750
6881		33.203125
6882		25.390625
6883		29.296875
6884		21.484375
6885		27.343750
6886		15.625000
6887		21.484375
6888		11.718750
6889		17.578125
6890		7.812500
6891		13.671875
6892		3.906250
6893		9.765625
6894		0.000000
6895		5.859375
6896		-3.906250
6897		1.953125
6898		-7.812500
6899		-1.953125
6900		-11.718750
6901		-5.859375
6902		-17.578125
6903		-11.718750
6904		-19.531250
6905		-15.625000
6906		-23.437500
6907		-19.531250
6908		-27.343750
6909		-21.484375
6910		-31.250000
6911		-27.343750
6912		-35.156250
6913		-31.250000
6914		-39.062500
6915		-35.156250
6916		-42.968750
6917		-37.109375
6918		-46.875000
6919		-41.015625
6920		-48.828125
6921		-44.921875
6922		-52.734375
6923		-46.875000
6924		-54.687500
6925		-50.781250
6926		-58.593750
6927		-54.687500
6928		-60.546875
6929		-56.640625
6930		-62.500000
6931		-58.593750
6932		-64.453125
6933		-60.546875
6934		-66.406250
6935		-62.500000
6936		-70.312500
6937		-64.453125
6938		-70.312500
6939		-66.406250
6940		-72.265625
6941		-68.359375
6942		-72.265625
6943		-70.312500
6944		-74.218750
6945		-70.312500
6946		-74.218750
6947		-72.265625
6948		-76.171875
6949		-72.265625
6950		-76.171875
6951		-72.265625
6952		-76.171875
6953		-74.218750
6954		-76.171875
6955		-72.265625
6956		-76.171875
6957		-72.265625
6958		-76.171875
6959		-72.265625
6960		-74.218750
6961		-72.265625
6962		-74.218750
6963		-70.312500
6964		-72.265625
6965		-70.312500
6966		-72.265625
6967		-68.359375
6968		-70.312500
6969		-66.406250
6970		-68.359375
6971		-64.453125
6972		-66.406250
6973		-62.500000
6974		-64.453125
6975		-58.593750
6976		-62.500000
6977		-58.593750
6978		-58.593750
6979		-54.687500
6980		-58.593750
6981		-52.734375
6982		-54.687500
6983		-48.828125
6984		-52.734375
6985		-46.875000
6986		-48.828125
6987		-42.968750
6988		-44.921875
6989		-39.062500
6990		-41.015625
6991		-37.109375
6992		-37.109375
6993		-33.203125
6994		-35.156250
6995		-29.296875
6996		-31.250000
6997		-25.390625
6998		-27.343750
6999		-21.484375
7000		-23.437500
7001		-17.578125
7002		-19.531250
7003		-13.671875
7004		-15.625000
7005		-9.765625
7006		-9.765625
7007		-3.906250
7008		-5.859375
7009		-1.953125
7010		-1.953125
7011		1.953125
7012		1.953125
7013		7.812500
7014		5.859375
7015		11.718750
7016		9.765625
7017		15.625000
7018		13.671875
7019		19.531250
7020		17.578125
7021		23.437500
7022		21.484375
7023		27.343750
7024		25.390625
7025		31.250000
7026		29.296875
7027		35.156250
7028		33.203125
7029		39.062500
7030		37.109375
7031		42.968750
7032		41.015625
7033		44.921875
7034		44.921875
7035		48.828125
7036		46.875000
7037		52.734375
7038		50.781250
7039		56.640625
7040		54.687500
7041		60.546875
7042		56.640625
7043		62.500000
7044		60.546875
7045		64.453125
7046		64.453125
7047		68.359375
7048		66.406250
7049		70.312500
7050		68.359375
7051		72.265625
7052		70.312500
7053		74.218750
7054		72.265625
7055		78.125000
7056		74.218750
7057		80.078125
7058		76.171875
7059		82.031250
7060		78.125000
7061		82.031250
7062		80.078125
7063		83.984375
7064		82.031250
7065		85.937500
7066		83.984375
7067		87.890625
7068		83.984375
7069		87.890625
7070		85.937500
7071		87.890625
7072		85.937500
7073		89.843750
7074		85.937500
7075		89.843750
7076		85.937500
7077		89.843750
7078		87.890625
7079		89.843750
7080		85.937500
7081		89.843750
7082		87.890625
7083		89.843750
7084		85.937500
7085		89.843750
7086		85.937500
7087		87.890625
7088		83.984375
7089		87.890625
7090		83.984375
7091		85.937500
7092		82.031250
7093		85.937500
7094		82.031250
7095		83.984375
7096		80.078125
7097		83.984375
7098		78.125000
7099		83.984375
7100		76.171875
7101		80.078125
7102		74.218750
7103		78.125000
7104		72.265625
7105		76.171875
7106		70.312500
7107		74.218750
7108		68.359375
7109		72.265625
7110		64.453125
7111		70.312500
7112		62.500000
7113		66.406250
7114		58.593750
7115		64.453125
7116		54.687500
7117		60.546875
7118		52.734375
7119		56.640625
7120		48.828125
7121		54.687500
7122		46.875000
7123		50.781250
7124		42.968750
7125		46.875000
7126		39.062500
7127		44.921875
7128		35.156250
7129		41.015625
7130		29.296875
7131		37.109375
7132		27.343750
7133		33.203125
7134		23.437500
7135		29.296875
7136		19.531250
7137		25.390625
7138		15.625000
7139		21.484375
7140		11.718750
7141		17.578125
7142		5.859375
7143		13.671875
7144		1.953125
7145		9.765625
7146		-1.953125
7147		3.906250
7148		-5.859375
7149		0.000000
7150		-9.765625
7151		-3.906250
7152		-13.671875
7153		-7.812500
7154		-17.578125
7155		-11.718750
7156		-21.484375
7157		-15.625000
7158		-25.390625
7159		-19.531250
7160		-29.296875
7161		-23.437500
7162		-33.203125
7163		-27.343750
7164		-37.109375
7165		-31.250000
7166		-39.062500
7167		-35.156250
7168		-44.921875
7169		-39.062500
7170		-46.875000
7171		-42.968750
7172		-48.828125
7173		-44.921875
7174		-52.734375
7175		-48.828125
7176		-56.640625
7177		-50.781250
7178		-58.593750
7179		-54.687500
7180		-60.546875
7181		-56.640625
7182		-64.453125
7183		-58.593750
7184		-64.453125
7185		-60.546875
7186		-68.359375
7187		-62.500000
7188		-70.312500
7189		-66.406250
7190		-70.312500
7191		-66.406250
7192		-72.265625
7193		-68.359375
7194		-74.218750
7195		-70.312500
7196		-74.218750
7197		-72.265625
7198		-76.171875
7199		-72.265625
7200		-76.171875
7201		-72.265625
7202		-76.171875
7203		-72.265625
7204		-76.171875
7205		-74.218750
7206		-76.171875
7207		-74.218750
7208		-76.171875
7209		-72.265625
7210		-76.171875
7211		-72.265625
7212		-74.218750
7213		-72.265625
7214		-74.218750
7215		-70.312500
7216		-72.265625
7217		-68.359375
7218		-72.265625
7219		-68.359375
7220		-70.312500
7221		-66.406250
7222		-68.359375
7223		-64.453125
7224		-66.406250
7225		-62.500000
7226		-64.453125
7227		-58.593750
7228		-62.500000
7229		-56.640625
7230		-58.593750
7231		-54.687500
7232		-56.640625
7233		-50.781250
7234		-54.687500
7235		-48.828125
7236		-50.781250
7237		-44.921875
7238		-46.875000
7239		-42.968750
7240		-44.921875
7241		-39.062500
7242		-41.015625
7243		-35.156250
7244		-37.109375
7245		-33.203125
7246		-33.203125
7247		-29.296875
7248		-29.296875
7249		-23.437500
7250		-25.390625
7251		-21.484375
7252		-21.484375
7253		-15.625000
7254		-17.578125
7255		-13.671875
7256		-13.671875
7257		-7.812500
7258		-9.765625
7259		-3.906250
7260		-5.859375
7261		0.000000
7262		-1.953125
7263		3.906250
7264		1.953125
7265		7.812500
7266		5.859375
7267		11.718750
7268		9.765625
7269		15.625000
7270		15.625000
7271		19.531250
7272		19.531250
7273		23.437500
7274		23.437500
7275		27.343750
7276		25.390625
7277		31.250000
7278		29.296875
7279		35.156250
7280		35.156250
7281		39.062500
7282		39.062500
7283		42.968750
7284		41.015625
7285		46.875000
7286		44.921875
7287		50.781250
7288		48.828125
7289		52.734375
7290		50.781250
7291		56.640625
7292		54.687500
7293		60.546875
7294		58.593750
7295		62.500000
7296		60.546875
7297		66.406250
7298		64.453125
7299		68.359375
7300		66.406250
7301		72.265625
7302		68.359375
7303		74.218750
7304		70.312500
7305		74.218750
7306		74.218750
7307		78.125000
7308		76.171875
7309		80.078125
7310		78.125000
7311		82.031250
7312		80.078125
7313		82.031250
7314		80.078125
7315		83.984375
7316		82.031250
7317		85.937500
7318		83.984375
7319		85.937500
7320		83.984375
7321		87.890625
7322		85.937500
7323		87.890625
7324		85.937500
7325		89.843750
7326		85.937500
7327		89.843750
7328		87.890625
7329		89.843750
7330		85.937500
7331		89.843750
7332		85.937500
7333		89.843750
7334		85.937500
7335		89.843750
7336		85.937500
7337		89.843750
7338		85.937500
7339		87.890625
7340		83.984375
7341		87.890625
7342		83.984375
7343		87.890625
7344		82.031250
7345		85.937500
7346		82.031250
7347		83.984375
7348		80.078125
7349		83.984375
7350		78.125000
7351		82.031250
7352		76.171875
7353		80.078125
7354		74.218750
7355		78.125000
7356		72.265625
7357		76.171875
7358		70.312500
7359		74.218750
7360		66.406250
7361		70.312500
7362		64.453125
7363		70.312500
7364		60.546875
7365		66.406250
7366		58.593750
7367		62.500000
7368		54.687500
7369		60.546875
7370		52.734375
7371		56.640625
7372		48.828125
7373		54.687500
7374		44.921875
7375		50.781250
7376		42.968750
7377		46.875000
7378		39.062500
7379		42.968750
7380		35.156250
7381		39.062500
7382		29.296875
7383		35.156250
7384		27.343750
7385		31.250000
7386		23.437500
7387		29.296875
7388		19.531250
7389		25.390625
7390		13.671875
7391		19.531250
7392		9.765625
7393		15.625000
7394		5.859375
7395		11.718750
7396		1.953125
7397		7.812500
7398		-1.953125
7399		3.906250
7400		-5.859375
7401		0.000000
7402		-9.765625
7403		-3.906250
7404		-15.625000
7405		-7.812500
7406		-17.578125
7407		-13.671875
7408		-23.437500
7409		-15.625000
7410		-25.390625
7411		-21.484375
7412		-29.296875
7413		-23.437500
7414		-33.203125
7415		-29.296875
7416		-39.062500
7417		-33.203125
7418		-41.015625
7419		-35.156250
7420		-44.921875
7421		-39.062500
7422		-48.828125
7423		-42.968750
7424		-50.781250
7425		-44.921875
7426		-52.734375
7427		-48.828125
7428		-56.640625
7429		-52.734375
7430		-58.593750
7431		-54.687500
7432		-62.500000
7433		-56.640625
7434		-64.453125
7435		-58.593750
7436		-66.406250
7437		-62.500000
7438		-68.359375
7439		-64.453125
7440		-70.312500
7441		-66.406250
7442		-72.265625
7443		-68.359375
7444		-72.265625
7445		-70.312500
7446		-74.218750
7447		-70.312500
7448		-74.218750
7449		-72.265625
7450		-76.171875
7451		-72.265625
7452		-76.171875
7453		-72.265625
7454		-76.171875
7455		-72.265625
7456		-78.125000
7457		-74.218750
7458		-76.171875
7459		-74.218750
7460		-76.171875
7461		-72.265625
7462		-76.171875
7463		-72.265625
7464		-74.218750
7465		-70.312500
7466		-74.218750
7467		-70.312500
7468		-74.218750
7469		-70.312500
7470		-72.265625
7471		-68.359375
7472		-70.312500
7473		-66.406250
7474		-66.406250
7475		-64.453125
7476		-66.406250
7477		-62.500000
7478		-64.453125
7479		-58.593750
7480		-60.546875
7481		-56.640625
7482		-58.593750
7483		-54.687500
7484		-56.640625
7485		-50.781250
7486		-52.734375
7487		-48.828125
7488		-50.781250
7489		-44.921875
7490		-46.875000
7491		-41.015625
7492		-42.968750
7493		-37.109375
7494		-39.062500
7495		-35.156250
7496		-37.109375
7497		-31.250000
7498		-33.203125
7499		-27.343750
7500		-29.296875
7501		-23.437500
7502		-25.390625
7503		-19.531250
7504		-21.484375
7505		-15.625000
7506		-17.578125
7507		-11.718750
7508		-13.671875
7509		-7.812500
7510		-9.765625
7511		-3.906250
7512		-3.906250
7513		0.000000
7514		0.000000
7515		3.906250
7516		3.906250
7517		9.765625
7518		7.812500
7519		13.671875
7520		11.718750
7521		17.578125
7522		15.625000
7523		21.484375
7524		19.531250
7525		25.390625
7526		23.437500
7527		29.296875
7528		27.343750
7529		33.203125
7530		31.250000
7531		37.109375
7532		35.156250
7533		41.015625
7534		39.062500
7535		44.921875
7536		42.968750
7537		46.875000
7538		44.921875
7539		50.781250
7540		48.828125
7541		54.687500
7542		52.734375
7543		58.593750
7544		54.687500
7545		60.546875
7546		58.593750
7547		62.500000
7548		60.546875
7549		66.406250
7550		64.453125
7551		68.359375
7552		64.453125
7553		72.265625
7554		70.312500
7555		74.218750
7556		72.265625
7557		76.171875
7558		74.218750
7559		78.125000
7560		76.171875
7561		80.078125
7562		78.125000
7563		82.031250
7564		80.078125
7565		82.031250
7566		82.031250
7567		83.984375
7568		82.031250
7569		85.937500
7570		83.984375
7571		85.937500
7572		83.984375
7573		87.890625
7574		85.937500
7575		87.890625
7576		85.937500
7577		89.843750
7578		85.937500
7579		89.843750
7580		85.937500
7581		89.843750
7582		87.890625
7583		89.843750
7584		85.937500
7585		89.843750
7586		85.937500
7587		89.843750
7588		85.937500
7589		89.843750
7590		83.984375
7591		89.843750
7592		83.984375
7593		87.890625
7594		83.984375
7595		85.937500
7596		82.031250
7597		85.937500
7598		80.078125
7599		83.984375
7600		80.078125
7601		82.031250
7602		78.125000
7603		82.031250
7604		76.171875
7605		80.078125
7606		72.265625
7607		78.125000
7608		72.265625
7609		74.218750
7610		68.359375
7611		74.218750
7612		64.453125
7613		70.312500
7614		64.453125
7615		68.359375
7616		60.546875
7617		64.453125
7618		56.640625
7619		62.500000
7620		54.687500
7621		58.593750
7622		50.781250
7623		56.640625
7624		46.875000
7625		52.734375
7626		44.921875
7627		50.781250
7628		41.015625
7629		44.921875
7630		37.109375
7631		42.968750
7632		33.203125
7633		39.062500
7634		29.296875
7635		35.156250
7636		25.390625
7637		31.250000
7638		21.484375
7639		27.343750
7640		17.578125
7641		23.437500
7642		13.671875
7643		19.531250
7644		7.812500
7645		15.625000
7646		5.859375
7647		11.718750
7648		1.953125
7649		7.812500
7650		-3.906250
7651		1.953125
7652		-7.812500
7653		-1.953125
7654		-11.718750
7655		-5.859375
7656		-15.625000
7657		-9.765625
7658		-19.531250
7659		-13.671875
7660		-23.437500
7661		-17.578125
7662		-27.343750
7663		-21.484375
7664		-31.250000
7665		-25.390625
7666		-35.156250
7667		-29.296875
7668		-39.062500
7669		-33.203125
7670		-42.968750
7671		-37.109375
7672		-44.921875
7673		-41.015625
7674		-48.828125
7675		-42.968750
7676		-50.781250
7677		-46.875000
7678		-54.687500
7679		-48.828125
7680		-56.640625
7681		-52.734375
7682		-60.546875
7683		-56.640625
7684		-62.500000
7685		-58.593750
7686		-64.453125
7687		-60.546875
7688		-66.406250
7689		-62.500000
7690		-68.359375
7691		-64.453125
7692		-70.312500
7693		-66.406250
7694		-72.265625
7695		-68.359375
7696		-72.265625
7697		-70.312500
7698		-74.218750
7699		-70.312500
7700		-74.218750
7701		-72.265625
7702		-76.171875
7703		-72.265625
7704		-76.171875
7705		-72.265625
7706		-78.125000
7707		-72.265625
7708		-76.171875
7709		-74.218750
7710		-76.171875
7711		-72.265625
7712		-76.171875
7713		-72.265625
7714		-76.171875
7715		-70.312500
7716		-74.218750
7717		-70.312500
7718		-74.218750
7719		-70.312500
7720		-72.265625
7721		-68.359375
7722		-70.312500
7723		-66.406250
7724		-68.359375
7725		-64.453125
7726		-66.406250
7727		-62.500000
7728		-64.453125
7729		-60.546875
7730		-64.453125
7731		-58.593750
7732		-62.500000
7733		-56.640625
7734		-56.640625
7735		-52.734375
7736		-54.687500
7737		-50.781250
7738		-52.734375
7739		-46.875000
7740		-48.828125
7741		-44.921875
7742		-46.875000
7743		-41.015625
7744		-42.968750
7745		-37.109375
7746		-39.062500
7747		-33.203125
7748		-35.156250
7749		-31.250000
7750		-31.250000
7751		-25.390625
7752		-27.343750
7753		-21.484375
7754		-25.390625
7755		-17.578125
7756		-19.531250
7757		-15.625000
7758		-15.625000
7759		-9.765625
7760		-11.718750
7761		-5.859375
7762		-7.812500
7763		-1.953125
7764		-5.859375
7765		1.953125
7766		0.000000
7767		5.859375
7768		3.906250
7769		9.765625
7770		7.812500
7771		13.671875
7772		11.718750
7773		17.578125
7774		15.625000
7775		21.484375
7776		21.484375
7777		25.390625
7778		23.437500
7779		31.250000
7780		29.296875
7781		33.203125
7782		31.250000
7783		37.109375
7784		37.109375
7785		41.015625
7786		39.062500
7787		44.921875
7788		42.968750
7789		48.828125
7790		46.875000
7791		52.734375
7792		50.781250
7793		54.687500
7794		52.734375
7795		58.593750
7796		56.640625
7797		60.546875
7798		58.593750
7799		64.453125
7800		62.500000
7801		66.406250
7802		64.453125
7803		68.359375
7804		66.406250
7805		72.265625
7806		70.312500
7807		74.218750
7808		72.265625
7809		76.171875
7810		74.218750
7811		78.125000
7812		76.171875
7813		80.078125
7814		78.125000
7815		82.031250
7816		80.078125
7817		82.031250
7818		82.031250
7819		85.937500
7820		82.031250
7821		85.937500
7822		82.031250
7823		87.890625
7824		83.984375
7825		87.890625
7826		85.937500
7827		87.890625
7828		85.937500
7829		89.843750
7830		85.937500
7831		89.843750
7832		85.937500
7833		89.843750
7834		85.937500
7835		89.843750
7836		85.937500
7837		89.843750
7838		85.937500
7839		89.843750
7840		85.937500
7841		89.843750
7842		83.984375
7843		87.890625
7844		83.984375
7845		87.890625
7846		82.031250
7847		85.937500
7848		80.078125
7849		85.937500
7850		80.078125
7851		83.984375
7852		78.125000
7853		82.031250
7854		76.171875
7855		80.078125
7856		74.218750
7857		78.125000
7858		72.265625
7859		76.171875
7860		70.312500
7861		74.218750
7862		68.359375
7863		72.265625
7864		66.406250
7865		70.312500
7866		62.500000
7867		68.359375
7868		60.546875
7869		64.453125
7870		54.687500
7871		60.546875
7872		52.734375
7873		58.593750
7874		48.828125
7875		54.687500
7876		46.875000
7877		50.781250
7878		42.968750
7879		48.828125
7880		39.062500
7881		44.921875
7882		37.109375
7883		41.015625
7884		33.203125
7885		37.109375
7886		29.296875
7887		33.203125
7888		25.390625
7889		31.250000
7890		19.531250
7891		25.390625
7892		15.625000
7893		21.484375
7894		11.718750
7895		17.578125
7896		7.812500
7897		13.671875
7898		3.906250
7899		9.765625
7900		0.000000
7901		5.859375
7902		-3.906250
7903		1.953125
7904		-7.812500
7905		-1.953125
7906		-13.671875
7907		-5.859375
7908		-15.625000
7909		-11.718750
7910		-21.484375
7911		-15.625000
7912		-25.390625
7913		-19.531250
7914		-29.296875
7915		-23.437500
7916		-31.250000
7917		-27.343750
7918		-35.156250
7919		-31.250000
7920		-41.015625
7921		-35.156250
7922		-42.968750
7923		-37.109375
7924		-44.921875
7925		-41.015625
7926		-48.828125
7927		-44.921875
7928		-52.734375
7929		-46.875000
7930		-54.687500
7931		-50.781250
7932		-58.593750
7933		-54.687500
7934		-60.546875
7935		-56.640625
7936		-62.500000
7937		-58.593750
7938		-66.406250
7939		-62.500000
7940		-68.359375
7941		-62.500000
7942		-70.312500
7943		-66.406250
7944		-70.312500
7945		-68.359375
7946		-72.265625
7947		-68.359375
7948		-74.218750
7949		-70.312500
7950		-76.171875
7951		-70.312500
7952		-76.171875
7953		-72.265625
7954		-76.171875
7955		-72.265625
7956		-76.171875
7957		-72.265625
7958		-76.171875
7959		-72.265625
7960		-76.171875
7961		-74.218750
7962		-76.171875
7963		-72.265625
7964		-76.171875
7965		-72.265625
7966		-76.171875
7967		-72.265625
7968		-74.218750
7969		-70.312500
7970		-72.265625
7971		-70.312500
7972		-72.265625
7973		-68.359375
7974		-70.312500
7975		-66.406250
7976		-68.359375
7977		-64.453125
7978		-66.406250
7979		-62.500000
7980		-64.453125
7981		-60.546875
7982		-62.500000
7983		-58.593750
7984		-60.546875
7985		-56.640625
7986		-56.640625
7987		-52.734375
7988		-54.687500
7989		-50.781250
7990		-52.734375
7991		-46.875000
7992		-48.828125
7993		-42.968750
7994		-44.921875
7995		-39.062500
7996		-41.015625
7997		-37.109375
7998		-39.062500
7999		-33.203125
8000		-35.156250
8001		-29.296875
8002		-31.250000
8003		-25.390625
8004		-27.343750
8005		-21.484375
8006		-23.437500
8007		-17.578125
8008		-19.531250
8009		-13.671875
8010		-15.625000
8011		-9.765625
8012		-11.718750
8013		-5.859375
8014		-7.812500
8015		-1.953125
8016		-1.953125
8017		3.906250
8018		1.953125
8019		5.859375
8020		5.859375
8021		9.765625
8022		9.765625
8023		15.625000
8024		13.671875
8025		19.531250
8026		17.578125
8027		23.437500
8028		21.484375
8029		27.343750
8030		25.390625
8031		31.250000
8032		29.296875
8033		35.156250
8034		33.203125
8035		39.062500
8036		37.109375
8037		41.015625
8038		41.015625
8039		46.875000
8040		42.968750
8041		48.828125
8042		44.921875
8043		52.734375
8044		50.781250
8045		56.640625
8046		54.687500
8047		58.593750
8048		56.640625
8049		60.546875
8050		60.546875
8051		64.453125
8052		62.500000
8053		66.406250
8054		66.406250
8055		70.312500
8056		66.406250
8057		74.218750
8058		68.359375
8059		76.171875
8060		70.312500
8061		76.171875
8062		74.218750
8063		80.078125
8064		74.218750
8065		80.078125
8066		78.125000
8067		82.031250
8068		80.078125
8069		83.984375
8070		82.031250
8071		83.984375
8072		82.031250
8073		87.890625
8074		82.031250
8075		89.843750
8076		82.031250
8077		89.843750
8078		85.937500
8079		87.890625
8080		85.937500
8081		89.843750
8082		85.937500
8083		89.843750
8084		85.937500
8085		89.843750
8086		87.890625
8087		89.843750
8088		87.890625
8089		89.843750
8090		83.984375
8091		91.796875
8092		83.984375
8093		91.796875
8094		82.031250
8095		89.843750
8096		82.031250
8097		87.890625
8098		82.031250
8099		85.937500
8100		80.078125
8101		87.890625
8102		80.078125
8103		82.031250
8104		78.125000
8105		82.031250
8106		74.218750
8107		80.078125
8108		74.218750
8109		80.078125
8110		70.312500
8111		78.125000
8112		68.359375
8113		76.171875
8114		66.406250
8115		74.218750
8116		64.453125
8117		70.312500
8118		62.500000
8119		66.406250
8120		58.593750
8121		64.453125
8122		54.687500
8123		60.546875
8124		50.781250
8125		60.546875
8126		46.875000
8127		56.640625
8128		44.921875
8129		52.734375
8130		42.968750
8131		50.781250
8132		37.109375
8133		46.875000
8134		33.203125
8135		42.968750
8136		31.250000
8137		37.109375
8138		27.343750
8139		33.203125
8140		21.484375
8141		31.250000
8142		17.578125
8143		27.343750
8144		13.671875
8145		23.437500
8146		9.765625
8147		17.578125
8148		5.859375
8149		15.625000
8150		0.000000
8151		11.718750
8152		0.000000
8153		5.859375
8154		-5.859375
8155		0.000000
8156		-11.718750
8157		-3.906250
8158		-15.625000
8159		-5.859375
8160		-19.531250
8161		-9.765625
8162		-21.484375
8163		-13.671875
8164		-27.343750
8165		-17.578125
8166		-31.250000
8167		-21.484375
8168		-33.203125
8169		-25.390625
8170		-37.109375
8171		-31.250000
8172		-39.062500
8173		-35.156250
8174		-44.921875
8175		-37.109375
8176		-48.828125
8177		-41.015625
8178		-52.734375
8179		-42.968750
8180		-56.640625
8181		-46.875000
8182		-56.640625
8183		-48.828125
8184		-60.546875
8185		-52.734375
8186		-60.546875
8187		-56.640625
8188		-62.500000
8189		-58.593750
8190		-68.359375
8191		-60.546875
8192		-70.312500
8193		-60.546875
8194		-70.312500
8195		-64.453125
8196		-72.265625
8197		-66.406250
8198		-74.218750
8199		-66.406250
8200		-76.171875
8201		-68.359375
8202		-76.171875
8203		-68.359375
8204		-74.218750
8205		-72.265625
8206		-76.171875
8207		-72.265625
8208		-78.125000
8209		-70.312500
8210		-80.078125
8211		-72.265625
8212		-78.125000
8213		-70.312500
8214		-78.125000
8215		-70.312500
8216		-78.125000
8217		-70.312500
8218		-76.171875
8219		-70.312500
8220		-74.218750
8221		-70.312500
8222		-72.265625
8223		-70.312500
8224		-74.218750
8225		-66.406250
8226		-72.265625
8227		-64.453125
8228		-70.312500
8229		-62.500000
8230		-68.359375
8231		-60.546875
8232		-66.406250
8233		-58.593750
8234		-64.453125
8235		-54.687500
8236		-60.546875
8237		-54.687500
8238		-56.640625
8239		-52.734375
8240		-54.687500
8241		-46.875000
8242		-52.734375
8243		-42.968750
8244		-48.828125
8245		-41.015625
8246		-46.875000
8247		-37.109375
8248		-42.968750
8249		-33.203125
8250		-39.062500
8251		-31.250000
8252		-35.156250
8253		-27.343750
8254		-29.296875
8255		-23.437500
8256		-25.390625
8257		-19.531250
8258		-23.437500
8259		-15.625000
8260		-19.531250
8261		-11.718750
8262		-15.625000
8263		-5.859375
8264		-11.718750
8265		-3.906250
8266		-7.812500
8267		1.953125
8268		-3.906250
8269		5.859375
8270		0.000000
8271		7.812500
8272		5.859375
8273		11.718750
8274		9.765625
8275		17.578125
8276		11.718750
8277		21.484375
8278		17.578125
8279		27.343750
8280		21.484375
8281		29.296875
8282		23.437500
8283		33.203125
8284		29.296875
8285		37.109375
8286		31.250000
8287		39.062500
8288		37.109375
8289		42.968750
8290		41.015625
8291		48.828125
8292		42.968750
8293		52.734375
8294		46.875000
8295		54.687500
8296		50.781250
8297		58.593750
8298		52.734375
8299		62.500000
8300		56.640625
8301		64.453125
8302		58.593750
8303		66.406250
8304		64.453125
8305		68.359375
8306		66.406250
8307		70.312500
8308		68.359375
8309		76.171875
8310		70.312500
8311		78.125000
8312		72.265625
8313		80.078125
8314		72.265625
8315		82.031250
8316		76.171875
8317		83.984375
8318		78.125000
8319		83.984375
8320		80.078125
8321		85.937500
8322		82.031250
8323		85.937500
8324		82.031250
8325		87.890625
8326		82.031250
8327		89.843750
8328		82.031250
8329		89.843750
8330		83.984375
8331		91.796875
8332		83.984375
8333		91.796875
8334		83.984375
8335		91.796875
8336		83.984375
8337		91.796875
8338		87.890625
8339		89.843750
8340		85.937500
8341		89.843750
8342		83.984375
8343		91.796875
8344		83.984375
8345		89.843750
8346		82.031250
8347		89.843750
8348		82.031250
8349		87.890625
8350		80.078125
8351		87.890625
8352		80.078125
8353		85.937500
8354		80.078125
8355		83.984375
8356		78.125000
8357		82.031250
8358		74.218750
8359		80.078125
8360		70.312500
8361		80.078125
8362		70.312500
8363		78.125000
8364		66.406250
8365		76.171875
8366		64.453125
8367		72.265625
8368		62.500000
8369		70.312500
8370		60.546875
8371		68.359375
8372		58.593750
8373		62.500000
8374		54.687500
8375		60.546875
8376		50.781250
8377		58.593750
8378		46.875000
8379		54.687500
8380		42.968750
8381		52.734375
8382		39.062500
8383		48.828125
8384		35.156250
8385		44.921875
8386		33.203125
8387		41.015625
8388		31.250000
8389		35.156250
8390		25.390625
8391		31.250000
8392		19.531250
8393		27.343750
8394		15.625000
8395		25.390625
8396		11.718750
8397		21.484375
8398		7.812500
8399		17.578125
8400		3.906250
8401		13.671875
8402		0.000000
8403		9.765625
8404		-1.953125
8405		5.859375
8406		-5.859375
8407		-1.953125
8408		-11.718750
8409		-3.906250
8410		-17.578125
8411		-5.859375
8412		-21.484375
8413		-11.718750
8414		-25.390625
8415		-15.625000
8416		-27.343750
8417		-19.531250
8418		-31.250000
8419		-23.437500
8420		-35.156250
8421		-27.343750
8422		-37.109375
8423		-33.203125
8424		-41.015625
8425		-37.109375
8426		-46.875000
8427		-37.109375
8428		-50.781250
8429		-41.015625
8430		-52.734375
8431		-44.921875
8432		-56.640625
8433		-46.875000
8434		-58.593750
8435		-50.781250
8436		-62.500000
8437		-52.734375
8438		-62.500000
8439		-56.640625
8440		-64.453125
8441		-60.546875
8442		-68.359375
8443		-60.546875
8444		-70.312500
8445		-62.500000
8446		-72.265625
8447		-64.453125
8448		-74.218750
8449		-66.406250
8450		-76.171875
8451		-68.359375
8452		-76.171875
8453		-68.359375
8454		-76.171875
8455		-70.312500
8456		-76.171875
8457		-72.265625
8458		-78.125000
8459		-72.265625
8460		-78.125000
8461		-72.265625
8462		-78.125000
8463		-72.265625
8464		-78.125000
8465		-72.265625
8466		-78.125000
8467		-70.312500
8468		-78.125000
8469		-70.312500
8470		-76.171875
8471		-68.359375
8472		-74.218750
8473		-70.312500
8474		-72.265625
8475		-70.312500
8476		-72.265625
8477		-66.406250
8478		-72.265625
8479		-64.453125
8480		-70.312500
8481		-60.546875
8482		-68.359375
8483		-60.546875
8484		-66.406250
8485		-56.640625
8486		-64.453125
8487		-54.687500
8488		-60.546875
8489		-54.687500
8490		-54.687500
8491		-50.781250
8492		-52.734375
8493		-46.875000
8494		-52.734375
8495		-42.968750
8496		-48.828125
8497		-41.015625
8498		-44.921875
8499		-35.156250
8500		-41.015625
8501		-33.203125
8502		-39.062500
8503		-29.296875
8504		-35.156250
8505		-27.343750
8506		-29.296875
8507		-23.437500
8508		-25.390625
8509		-19.531250
8510		-23.437500
8511		-13.671875
8512		-19.531250
8513		-9.765625
8514		-15.625000
8515		-5.859375
8516		-11.718750
8517		-1.953125
8518		-7.812500
8519		1.953125
8520		-1.953125
8521		5.859375
8522		3.906250
8523		7.812500
8524		7.812500
8525		11.718750
8526		11.718750
8527		19.531250
8528		13.671875
8529		23.437500
8530		17.578125
8531		27.343750
8532		21.484375
8533		31.250000
8534		25.390625
8535		35.156250
8536		29.296875
8537		39.062500
8538		33.203125
8539		41.015625
8540		39.062500
8541		42.968750
8542		42.968750
8543		48.828125
8544		42.968750
8545		52.734375
8546		46.875000
8547		56.640625
8548		50.781250
8549		58.593750
8550		52.734375
8551		62.500000
8552		56.640625
8553		64.453125
8554		60.546875
8555		68.359375
8556		64.453125
8557		68.359375
8558		66.406250
8559		70.312500
8560		68.359375
8561		76.171875
8562		68.359375
8563		78.125000
8564		72.265625
8565		80.078125
8566		74.218750
8567		82.031250
8568		76.171875
8569		83.984375
8570		78.125000
8571		85.937500
8572		80.078125
8573		85.937500
8574		82.031250
8575		85.937500
8576		82.031250
8577		87.890625
8578		82.031250
8579		89.843750
8580		83.984375
8581		89.843750
8582		83.984375
8583		91.796875
8584		83.984375
8585		91.796875
8586		83.984375
8587		91.796875
8588		83.984375
8589		91.796875
8590		87.890625
8591		89.843750
8592		87.890625
8593		89.843750
8594		83.984375
8595		91.796875
8596		83.984375
8597		91.796875
8598		82.031250
8599		89.843750
8600		82.031250
8601		87.890625
8602		80.078125
8603		87.890625
8604		78.125000
8605		85.937500
8606		80.078125
8607		83.984375
8608		78.125000
8609		82.031250
8610		74.218750
8611		80.078125
8612		72.265625
8613		80.078125
8614		70.312500
8615		78.125000
8616		66.406250
8617		76.171875
8618		64.453125
8619		72.265625
8620		62.500000
8621		70.312500
8622		60.546875
8623		66.406250
8624		58.593750
8625		62.500000
8626		54.687500
8627		58.593750
8628		50.781250
8629		58.593750
8630		46.875000
8631		54.687500
8632		42.968750
8633		50.781250
8634		39.062500
8635		48.828125
8636		35.156250
8637		44.921875
8638		31.250000
8639		41.015625
8640		29.296875
8641		35.156250
8642		25.390625
8643		31.250000
8644		19.531250
8645		27.343750
8646		15.625000
8647		25.390625
8648		11.718750
8649		21.484375
8650		7.812500
8651		17.578125
8652		3.906250
8653		13.671875
8654		0.000000
8655		7.812500
8656		-1.953125
8657		3.906250
8658		-5.859375
8659		-1.953125
8660		-13.671875
8661		-5.859375
8662		-17.578125
8663		-7.812500
8664		-21.484375
8665		-11.718750
8666		-25.390625
8667		-15.625000
8668		-27.343750
8669		-19.531250
8670		-33.203125
8671		-23.437500
8672		-35.156250
8673		-25.390625
8674		-37.109375
8675		-33.203125
8676		-41.015625
8677		-37.109375
8678		-46.875000
8679		-39.062500
8680		-48.828125
8681		-41.015625
8682		-52.734375
8683		-44.921875
8684		-56.640625
8685		-46.875000
8686		-58.593750
8687		-50.781250
8688		-60.546875
8689		-52.734375
8690		-62.500000
8691		-56.640625
8692		-64.453125
8693		-60.546875
8694		-68.359375
8695		-60.546875
8696		-70.312500
8697		-62.500000
8698		-72.265625
8699		-64.453125
8700		-74.218750
8701		-66.406250
8702		-76.171875
8703		-68.359375
8704		-76.171875
8705		-68.359375
8706		-76.171875
8707		-70.312500
8708		-74.218750
8709		-72.265625
8710		-76.171875
8711		-74.218750
8712		-78.125000
8713		-70.312500
8714		-78.125000
8715		-72.265625
8716		-78.125000
8717		-72.265625
8718		-78.125000
8719		-70.312500
8720		-78.125000
8721		-70.312500
8722		-76.171875
8723		-68.359375
8724		-72.265625
8725		-70.312500
8726		-72.265625
8727		-68.359375
8728		-72.265625
8729		-64.453125
8730		-70.312500
8731		-62.500000
8732		-68.359375
8733		-60.546875
8734		-66.406250
8735		-58.593750
8736		-64.453125
8737		-56.640625
8738		-62.500000
8739		-54.687500
8740		-60.546875
8741		-52.734375
8742		-54.687500
8743		-50.781250
8744		-52.734375
8745		-44.921875
8746		-50.781250
8747		-42.968750
8748		-48.828125
8749		-39.062500
8750		-44.921875
8751		-35.156250
8752		-41.015625
8753		-31.250000
8754		-37.109375
8755		-27.343750
8756		-35.156250
8757		-25.390625
8758		-27.343750
8759		-23.437500
8760		-23.437500
8761		-19.531250
8762		-21.484375
8763		-13.671875
8764		-17.578125
8765		-9.765625
8766		-13.671875
8767		-5.859375
8768		-9.765625
8769		-1.953125
8770		-5.859375
8771		1.953125
8772		-1.953125
8773		7.812500
8774		3.906250
8775		9.765625
8776		7.812500
8777		13.671875
8778		11.718750
8779		19.531250
8780		13.671875
8781		25.390625
8782		17.578125
8783		27.343750
8784		23.437500
8785		31.250000
8786		27.343750
8787		35.156250
8788		29.296875
8789		41.015625
8790		33.203125
8791		41.015625
8792		39.062500
8793		44.921875
8794		42.968750
8795		48.828125
8796		44.921875
8797		54.687500
8798		48.828125
8799		56.640625
8800		50.781250
8801		60.546875
8802		54.687500
8803		62.500000
8804		56.640625
8805		66.406250
8806		58.593750
8807		68.359375
8808		64.453125
8809		68.359375
8810		68.359375
8811		72.265625
8812		68.359375
8813		76.171875
8814		70.312500
8815		78.125000
8816		72.265625
8817		80.078125
8818		74.218750
8819		82.031250
8820		76.171875
8821		83.984375
8822		78.125000
8823		85.937500
8824		80.078125
8825		85.937500
8826		83.984375
8827		85.937500
8828		82.031250
8829		87.890625
8830		83.984375
8831		89.843750
8832		83.984375
8833		89.843750
8834		83.984375
8835		91.796875
8836		83.984375
8837		91.796875
8838		83.984375
8839		91.796875
8840		83.984375
8841		91.796875
8842		87.890625
8843		89.843750
8844		85.937500
8845		89.843750
8846		83.984375
8847		91.796875
8848		82.031250
8849		89.843750
8850		82.031250
8851		89.843750
8852		82.031250
8853		87.890625
8854		80.078125
8855		87.890625
8856		78.125000
8857		85.937500
8858		78.125000
8859		83.984375
8860		78.125000
8861		80.078125
8862		72.265625
8863		80.078125
8864		72.265625
8865		78.125000
8866		68.359375
8867		76.171875
8868		66.406250
8869		74.218750
8870		62.500000
8871		72.265625
8872		60.546875
8873		70.312500
8874		60.546875
8875		66.406250
8876		56.640625
8877		62.500000
8878		54.687500
8879		58.593750
8880		48.828125
8881		56.640625
8882		44.921875
8883		54.687500
8884		41.015625
8885		50.781250
8886		39.062500
8887		46.875000
8888		35.156250
8889		42.968750
8890		31.250000
8891		41.015625
8892		29.296875
8893		35.156250
8894		25.390625
8895		31.250000
8896		19.531250
8897		27.343750
8898		15.625000
8899		23.437500
8900		11.718750
8901		19.531250
8902		7.812500
8903		15.625000
8904		1.953125
8905		11.718750
8906		0.000000
8907		7.812500
8908		-3.906250
8909		3.906250
8910		-7.812500
8911		-1.953125
8912		-13.671875
8913		-5.859375
8914		-19.531250
8915		-7.812500
8916		-21.484375
8917		-11.718750
8918		-25.390625
8919		-15.625000
8920		-29.296875
8921		-19.531250
8922		-33.203125
8923		-23.437500
8924		-37.109375
8925		-29.296875
8926		-39.062500
8927		-33.203125
8928		-42.968750
8929		-37.109375
8930		-46.875000
8931		-39.062500
8932		-50.781250
8933		-42.968750
8934		-54.687500
8935		-44.921875
8936		-56.640625
8937		-48.828125
8938		-60.546875
8939		-50.781250
8940		-62.500000
8941		-52.734375
8942		-62.500000
8943		-56.640625
8944		-64.453125
8945		-60.546875
8946		-68.359375
8947		-62.500000
8948		-70.312500
8949		-62.500000
8950		-72.265625
8951		-64.453125
8952		-74.218750
8953		-66.406250
8954		-74.218750
8955		-68.359375
8956		-76.171875
8957		-68.359375
8958		-76.171875
8959		-70.312500
8960		-74.218750
8961		-72.265625
8962		-76.171875
8963		-74.218750
8964		-78.125000
8965		-72.265625
8966		-78.125000
8967		-72.265625
8968		-78.125000
8969		-70.312500
8970		-78.125000
8971		-70.312500
8972		-76.171875
8973		-70.312500
8974		-76.171875
8975		-68.359375
8976		-74.218750
8977		-70.312500
8978		-72.265625
8979		-68.359375
8980		-72.265625
8981		-64.453125
8982		-70.312500
8983		-62.500000
8984		-68.359375
8985		-60.546875
8986		-66.406250
8987		-58.593750
8988		-64.453125
8989		-56.640625
8990		-60.546875
8991		-52.734375
8992		-58.593750
8993		-52.734375
8994		-54.687500
8995		-48.828125
8996		-50.781250
8997		-44.921875
8998		-48.828125
8999		-41.015625
9000		-46.875000
9001		-39.062500
9002		-42.968750
9003		-33.203125
9004		-41.015625
9005		-31.250000
9006		-37.109375
9007		-27.343750
9008		-33.203125
9009		-23.437500
9010		-27.343750
9011		-21.484375
9012		-23.437500
9013		-17.578125
9014		-19.531250
9015		-11.718750
9016		-17.578125
9017		-7.812500
9018		-13.671875
9019		-3.906250
9020		-7.812500
9021		0.000000
9022		-3.906250
9023		5.859375
9024		0.000000
9025		7.812500
9026		1.953125
9027		9.765625
9028		9.765625
9029		15.625000
9030		13.671875
9031		21.484375
9032		15.625000
9033		25.390625
9034		19.531250
9035		29.296875
9036		23.437500
9037		33.203125
9038		27.343750
9039		37.109375
9040		31.250000
9041		41.015625
9042		35.156250
9043		42.968750
9044		41.015625
9045		44.921875
9046		44.921875
9047		48.828125
9048		44.921875
9049		54.687500
9050		48.828125
9051		56.640625
9052		52.734375
9053		60.546875
9054		54.687500
9055		64.453125
9056		58.593750
9057		66.406250
9058		60.546875
9059		68.359375
9060		64.453125
9061		70.312500
9062		68.359375
9063		72.265625
9064		70.312500
9065		76.171875
9066		70.312500
9067		80.078125
9068		72.265625
9069		80.078125
9070		74.218750
9071		82.031250
9072		76.171875
9073		83.984375
9074		78.125000
9075		85.937500
9076		80.078125
9077		85.937500
9078		83.984375
9079		85.937500
9080		83.984375
9081		87.890625
9082		82.031250
9083		89.843750
9084		83.984375
9085		91.796875
9086		83.984375
9087		89.843750
9088		83.984375
9089		91.796875
9090		83.984375
9091		91.796875
9092		85.937500
9093		91.796875
9094		85.937500
9095		89.843750
9096		85.937500
9097		89.843750
9098		83.984375
9099		89.843750
9100		82.031250
9101		89.843750
9102		82.031250
9103		89.843750
9104		80.078125
9105		87.890625
9106		78.125000
9107		87.890625
9108		78.125000
9109		85.937500
9110		78.125000
9111		83.984375
9112		76.171875
9113		80.078125
9114		72.265625
9115		78.125000
9116		70.312500
9117		78.125000
9118		66.406250
9119		76.171875
9120		64.453125
9121		74.218750
9122		62.500000
9123		70.312500
9124		60.546875
9125		68.359375
9126		58.593750
9127		66.406250
9128		56.640625
9129		60.546875
9130		52.734375
9131		58.593750
9132		48.828125
9133		56.640625
9134		44.921875
9135		52.734375
9136		41.015625
9137		50.781250
9138		37.109375
9139		46.875000
9140		33.203125
9141		42.968750
9142		29.296875
9143		39.062500
9144		27.343750
9145		35.156250
9146		23.437500
9147		29.296875
9148		17.578125
9149		25.390625
9150		13.671875
9151		23.437500
9152		9.765625
9153		19.531250
9154		5.859375
9155		15.625000
9156		1.953125
9157		11.718750
9158		-1.953125
9159		7.812500
9160		-5.859375
9161		3.906250
9162		-9.765625
9163		-3.906250
9164		-13.671875
9165		-7.812500
9166		-19.531250
9167		-9.765625
9168		-23.437500
9169		-13.671875
9170		-27.343750
9171		-17.578125
9172		-31.250000
9173		-21.484375
9174		-35.156250
9175		-25.390625
9176		-39.062500
9177		-29.296875
9178		-39.062500
9179		-33.203125
9180		-42.968750
9181		-39.062500
9182		-48.828125
9183		-41.015625
9184		-52.734375
9185		-42.968750
9186		-54.687500
9187		-44.921875
9188		-58.593750
9189		-48.828125
9190		-60.546875
9191		-52.734375
9192		-62.500000
9193		-54.687500
9194		-64.453125
9195		-56.640625
9196		-66.406250
9197		-62.500000
9198		-70.312500
9199		-62.500000
9200		-72.265625
9201		-64.453125
9202		-74.218750
9203		-66.406250
9204		-74.218750
9205		-66.406250
9206		-76.171875
9207		-68.359375
9208		-78.125000
9209		-70.312500
9210		-78.125000
9211		-70.312500
9212		-76.171875
9213		-74.218750
9214		-76.171875
9215		-74.218750
9216		-78.125000
9217		-72.265625
9218		-78.125000
9219		-72.265625
9220		-78.125000
9221		-70.312500
9222		-78.125000
9223		-70.312500
9224		-78.125000
9225		-70.312500
9226		-76.171875
9227		-68.359375
9228		-74.218750
9229		-68.359375
9230		-72.265625
9231		-68.359375
9232		-70.312500
9233		-64.453125
9234		-70.312500
9235		-62.500000
9236		-68.359375
9237		-60.546875
9238		-66.406250
9239		-58.593750
9240		-64.453125
9241		-56.640625
9242		-62.500000
9243		-52.734375
9244		-60.546875
9245		-50.781250
9246		-52.734375
9247		-48.828125
9248		-50.781250
9249		-44.921875
9250		-50.781250
9251		-41.015625
9252		-46.875000
9253		-37.109375
9254		-42.968750
9255		-35.156250
9256		-39.062500
9257		-31.250000
9258		-37.109375
9259		-27.343750
9260		-33.203125
9261		-23.437500
9262		-27.343750
9263		-21.484375
9264		-21.484375
9265		-17.578125
9266		-19.531250
9267		-11.718750
9268		-15.625000
9269		-7.812500
9270		-13.671875
9271		-3.906250
9272		-7.812500
9273		1.953125
9274		-3.906250
9275		5.859375
9276		0.000000
9277		9.765625
9278		3.906250
9279		11.718750
9280		9.765625
9281		15.625000
9282		13.671875
9283		21.484375
9284		15.625000
9285		25.390625
9286		19.531250
9287		29.296875
9288		23.437500
9289		33.203125
9290		29.296875
9291		37.109375
9292		31.250000
9293		41.015625
9294		35.156250
9295		42.968750
9296		41.015625
9297		46.875000
9298		44.921875
9299		48.828125
9300		44.921875
9301		54.687500
9302		48.828125
9303		58.593750
9304		52.734375
9305		60.546875
9306		54.687500
9307		64.453125
9308		58.593750
9309		66.406250
9310		62.500000
9311		70.312500
9312		64.453125
9313		70.312500
9314		68.359375
9315		72.265625
9316		70.312500
9317		78.125000
9318		72.265625
9319		78.125000
9320		74.218750
9321		80.078125
9322		74.218750
9323		83.984375
9324		76.171875
9325		83.984375
9326		78.125000
9327		85.937500
9328		80.078125
9329		85.937500
9330		83.984375
9331		85.937500
9332		83.984375
9333		87.890625
9334		82.031250
9335		89.843750
9336		83.984375
9337		89.843750
9338		83.984375
9339		89.843750
9340		83.984375
9341		91.796875
9342		85.937500
9343		91.796875
9344		83.984375
9345		91.796875
9346		85.937500
9347		87.890625
9348		85.937500
9349		87.890625
9350		83.984375
9351		89.843750
9352		82.031250
9353		89.843750
9354		82.031250
9355		87.890625
9356		80.078125
9357		87.890625
9358		78.125000
9359		85.937500
9360		78.125000
9361		85.937500
9362		76.171875
9363		83.984375
9364		76.171875
9365		80.078125
9366		72.265625
9367		78.125000
9368		70.312500
9369		78.125000
9370		66.406250
9371		76.171875
9372		64.453125
9373		72.265625
9374		60.546875
9375		70.312500
9376		58.593750
9377		68.359375
9378		56.640625
9379		64.453125
9380		54.687500
9381		60.546875
9382		52.734375
9383		56.640625
9384		46.875000
9385		54.687500
9386		42.968750
9387		52.734375
9388		41.015625
9389		48.828125
9390		35.156250
9391		44.921875
9392		33.203125
9393		41.015625
9394		29.296875
9395		37.109375
9396		27.343750
9397		33.203125
9398		23.437500
9399		27.343750
9400		17.578125
9401		23.437500
9402		13.671875
9403		21.484375
9404		7.812500
9405		17.578125
9406		3.906250
9407		13.671875
9408		0.000000
9409		9.765625
9410		-3.906250
9411		5.859375
9412		-7.812500
9413		1.953125
9414		-9.765625
9415		-3.906250
9416		-13.671875
9417		-7.812500
9418		-21.484375
9419		-9.765625
9420		-23.437500
9421		-15.625000
9422		-27.343750
9423		-19.531250
9424		-31.250000
9425		-23.437500
9426		-35.156250
9427		-27.343750
9428		-39.062500
9429		-31.250000
9430		-41.015625
9431		-35.156250
9432		-44.921875
9433		-39.062500
9434		-48.828125
9435		-42.968750
9436		-52.734375
9437		-44.921875
9438		-56.640625
9439		-46.875000
9440		-58.593750
9441		-50.781250
9442		-60.546875
9443		-52.734375
9444		-64.453125
9445		-54.687500
9446		-64.453125
9447		-58.593750
9448		-66.406250
9449		-62.500000
9450		-70.312500
9451		-64.453125
9452		-72.265625
9453		-64.453125
9454		-74.218750
9455		-66.406250
9456		-74.218750
9457		-68.359375
9458		-76.171875
9459		-68.359375
9460		-76.171875
9461		-70.312500
9462		-78.125000
9463		-70.312500
9464		-76.171875
9465		-74.218750
9466		-76.171875
9467		-74.218750
9468		-78.125000
9469		-72.265625
9470		-78.125000
9471		-70.312500
9472		-78.125000
9473		-70.312500
9474		-78.125000
9475		-70.312500
9476		-76.171875
9477		-68.359375
9478		-76.171875
9479		-68.359375
9480		-74.218750
9481		-68.359375
9482		-70.312500
9483		-68.359375
9484		-70.312500
9485		-64.453125
9486		-70.312500
9487		-62.500000
9488		-68.359375
9489		-60.546875
9490		-66.406250
9491		-56.640625
9492		-64.453125
9493		-54.687500
9494		-60.546875
9495		-52.734375
9496		-58.593750
9497		-50.781250
9498		-52.734375
9499		-48.828125
9500		-50.781250
9501		-44.921875
9502		-48.828125
9503		-41.015625
9504		-44.921875
9505		-37.109375
9506		-42.968750
9507		-33.203125
9508		-39.062500
9509		-29.296875
9510		-35.156250
9511		-25.390625
9512		-31.250000
9513		-21.484375
9514		-27.343750
9515		-19.531250
9516		-21.484375
9517		-15.625000
9518		-17.578125
9519		-9.765625
9520		-15.625000
9521		-5.859375
9522		-11.718750
9523		-1.953125
9524		-7.812500
9525		1.953125
9526		-1.953125
9527		5.859375
9528		0.000000
9529		9.765625
9530		3.906250
9531		11.718750
9532		11.718750
9533		17.578125
9534		15.625000
9535		21.484375
9536		17.578125
9537		25.390625
9538		21.484375
9539		31.250000
9540		25.390625
9541		33.203125
9542		29.296875
9543		39.062500
9544		33.203125
9545		41.015625
9546		37.109375
9547		44.921875
9548		42.968750
9549		46.875000
9550		44.921875
9551		50.781250
9552		46.875000
9553		56.640625
9554		50.781250
9555		58.593750
9556		52.734375
9557		62.500000
9558		56.640625
9559		64.453125
9560		58.593750
9561		68.359375
9562		62.500000
9563		70.312500
9564		64.453125
9565		70.312500
9566		70.312500
9567		72.265625
9568		70.312500
9569		78.125000
9570		70.312500
9571		80.078125
9572		74.218750
9573		82.031250
9574		76.171875
9575		82.031250
9576		76.171875
9577		83.984375
9578		78.125000
9579		85.937500
9580		80.078125
9581		87.890625
9582		83.984375
9583		85.937500
9584		83.984375
9585		87.890625
9586		82.031250
9587		89.843750
9588		83.984375
9589		91.796875
9590		83.984375
9591		91.796875
9592		83.984375
9593		91.796875
9594		83.984375
9595		91.796875
9596		83.984375
9597		91.796875
9598		85.937500
9599		91.796875
9600		85.937500
9601		87.890625
9602		82.031250
9603		89.843750
9604		82.031250
9605		89.843750
9606		80.078125
9607		87.890625
9608		80.078125
9609		87.890625
9610		78.125000
9611		85.937500
9612		76.171875
9613		83.984375
9614		76.171875
9615		82.031250
9616		76.171875
9617		78.125000
9618		70.312500
9619		78.125000
9620		68.359375
9621		78.125000
9622		66.406250
9623		74.218750
9624		64.453125
9625		72.265625
9626		60.546875
9627		70.312500
9628		58.593750
9629		66.406250
9630		56.640625
9631		64.453125
9632		54.687500
9633		58.593750
9634		50.781250
9635		56.640625
9636		46.875000
9637		54.687500
9638		42.968750
9639		50.781250
9640		39.062500
9641		46.875000
9642		35.156250
9643		44.921875
9644		31.250000
9645		41.015625
9646		27.343750
9647		37.109375
9648		25.390625
9649		33.203125
9650		21.484375
9651		27.343750
9652		15.625000
9653		23.437500
9654		11.718750
9655		21.484375
9656		7.812500
9657		17.578125
9658		3.906250
9659		13.671875
9660		0.000000
9661		7.812500
9662		-5.859375
9663		3.906250
9664		-7.812500
9665		0.000000
9666		-11.718750
9667		-5.859375
9668		-15.625000
9669		-9.765625
9670		-21.484375
9671		-11.718750
9672		-25.390625
9673		-15.625000
9674		-29.296875
9675		-19.531250
9676		-33.203125
9677		-23.437500
9678		-37.109375
9679		-27.343750
9680		-41.015625
9681		-31.250000
9682		-41.015625
9683		-35.156250
9684		-44.921875
9685		-41.015625
9686		-50.781250
9687		-42.968750
9688		-52.734375
9689		-44.921875
9690		-56.640625
9691		-46.875000
9692		-58.593750
9693		-50.781250
9694		-62.500000
9695		-54.687500
9696		-64.453125
9697		-56.640625
9698		-66.406250
9699		-58.593750
9700		-66.406250
9701		-62.500000
9702		-70.312500
9703		-64.453125
9704		-72.265625
9705		-64.453125
9706		-74.218750
9707		-66.406250
9708		-76.171875
9709		-68.359375
9710		-76.171875
9711		-68.359375
9712		-76.171875
9713		-70.312500
9714		-78.125000
9715		-70.312500
9716		-76.171875
9717		-74.218750
9718		-76.171875
9719		-74.218750
9720		-78.125000
9721		-72.265625
9722		-78.125000
9723		-72.265625
9724		-78.125000
9725		-72.265625
9726		-78.125000
9727		-70.312500
9728		-76.171875
9729		-70.312500
9730		-76.171875
9731		-68.359375
9732		-74.218750
9733		-68.359375
9734		-70.312500
9735		-68.359375
9736		-70.312500
9737		-62.500000
9738		-68.359375
9739		-62.500000
9740		-66.406250
9741		-58.593750
9742		-66.406250
9743		-56.640625
9744		-62.500000
9745		-54.687500
9746		-60.546875
9747		-50.781250
9748		-56.640625
9749		-48.828125
9750		-52.734375
9751		-46.875000
9752		-48.828125
9753		-44.921875
9754		-48.828125
9755		-39.062500
9756		-44.921875
9757		-35.156250
9758		-41.015625
9759		-31.250000
9760		-37.109375
9761		-29.296875
9762		-33.203125
9763		-25.390625
9764		-31.250000
9765		-21.484375
9766		-25.390625
9767		-19.531250
9768		-19.531250
9769		-15.625000
9770		-15.625000
9771		-7.812500
9772		-13.671875
9773		-3.906250
9774		-9.765625
9775		0.000000
9776		-5.859375
9777		3.906250
9778		-1.953125
9779		7.812500
9780		1.953125
9781		11.718750
9782		5.859375
9783		13.671875
9784		11.718750
9785		17.578125
9786		15.625000
9787		23.437500
9788		17.578125
9789		27.343750
9790		21.484375
9791		31.250000
9792		27.343750
9793		35.156250
9794		29.296875
9795		39.062500
9796		33.203125
9797		42.968750
9798		37.109375
9799		46.875000
9800		42.968750
9801		48.828125
9802		46.875000
9803		50.781250
9804		48.828125
9805		56.640625
9806		50.781250
9807		58.593750
9808		54.687500
9809		62.500000
9810		56.640625
9811		66.406250
9812		60.546875
9813		68.359375
9814		62.500000
9815		70.312500
9816		66.406250
9817		72.265625
9818		70.312500
9819		74.218750
9820		72.265625
9821		78.125000
9822		72.265625
9823		80.078125
9824		74.218750
9825		82.031250
9826		76.171875
9827		83.984375
9828		76.171875
9829		85.937500
9830		78.125000
9831		87.890625
9832		80.078125
9833		87.890625
9834		83.984375
9835		85.937500
9836		85.937500
9837		87.890625
9838		83.984375
9839		89.843750
9840		83.984375
9841		91.796875
9842		83.984375
9843		91.796875
9844		83.984375
9845		91.796875
9846		83.984375
9847		91.796875
9848		83.984375
9849		91.796875
9850		85.937500
9851		91.796875
9852		85.937500
9853		87.890625
9854		83.984375
9855		89.843750
9856		82.031250
9857		89.843750
9858		82.031250
9859		87.890625
9860		80.078125
9861		87.890625
9862		78.125000
9863		85.937500
9864		76.171875
9865		83.984375
9866		76.171875
9867		83.984375
9868		74.218750
9869		78.125000
9870		72.265625
9871		76.171875
9872		68.359375
9873		76.171875
9874		66.406250
9875		74.218750
9876		62.500000
9877		72.265625
9878		60.546875
9879		68.359375
9880		56.640625
9881		66.406250
9882		56.640625
9883		64.453125
9884		54.687500
9885		58.593750
9886		50.781250
9887		56.640625
9888		44.921875
9889		52.734375
9890		41.015625
9891		50.781250
9892		37.109375
9893		46.875000
9894		35.156250
9895		44.921875
9896		31.250000
9897		41.015625
9898		25.390625
9899		35.156250
9900		25.390625
9901		31.250000
9902		21.484375
9903		27.343750
9904		15.625000
9905		23.437500
9906		9.765625
9907		19.531250
9908		5.859375
9909		15.625000
9910		1.953125
9911		11.718750
9912		-1.953125
9913		7.812500
9914		-3.906250
9915		3.906250
9916		-9.765625
9917		0.000000
9918		-11.718750
9919		-5.859375
9920		-15.625000
9921		-9.765625
9922		-21.484375
9923		-13.671875
9924		-25.390625
9925		-15.625000
9926		-29.296875
9927		-19.531250
9928		-33.203125
9929		-23.437500
9930		-37.109375
9931		-27.343750
9932		-41.015625
9933		-33.203125
9934		-42.968750
9935		-35.156250
9936		-44.921875
9937		-41.015625
9938		-50.781250
9939		-42.968750
9940		-54.687500
9941		-44.921875
9942		-56.640625
9943		-48.828125
9944		-60.546875
9945		-50.781250
9946		-62.500000
9947		-54.687500
9948		-64.453125
9949		-56.640625
9950		-66.406250
9951		-58.593750
9952		-66.406250
9953		-62.500000
9954		-68.359375
9955		-64.453125
9956		-72.265625
9957		-64.453125
9958		-74.218750
9959		-66.406250
9960		-74.218750
9961		-68.359375
9962		-76.171875
9963		-68.359375
9964		-76.171875
9965		-70.312500
9966		-78.125000
9967		-70.312500
9968		-76.171875
9969		-72.265625
9970		-76.171875
9971		-74.218750
9972		-78.125000
9973		-70.312500
9974		-78.125000
9975		-70.312500
9976		-78.125000
9977		-70.312500
9978		-76.171875
9979		-70.312500
9980		-76.171875
9981		-68.359375
9982		-74.218750
9983		-68.359375
9984		-74.218750
9985		-66.406250
9986		-70.312500
9987		-66.406250
9988		-68.359375
9989		-62.500000
9990		-68.359375
9991		-60.546875
9992		-66.406250
9993		-58.593750
9994		-64.453125
9995		-56.640625
9996		-60.546875
9997		-52.734375
9998		-58.593750
9999		-50.781250
10000		-54.687500
