Channel              :		CH1
Frequency            :		1.771kHz
Period               :		0.565ms
PK-PK                :		109.4mV
Probe attenuation    :		1X
Voltage per ADC value:		0.122070mV
Time interval        :		2.00000us

index		CH1_Voltage(mV)
1		66.406250
2		66.406250
3		68.359375
4		64.453125
5		68.359375
6		62.500000
7		70.312500
8		62.500000
9		68.359375
10		60.546875
11		68.359375
12		60.546875
13		68.359375
14		60.546875
15		68.359375
16		58.593750
17		66.406250
18		60.546875
19		62.500000
20		60.546875
21		62.500000
22		56.640625
23		62.500000
24		54.687500
25		62.500000
26		54.687500
27		62.500000
28		52.734375
29		60.546875
30		50.781250
31		58.593750
32		50.781250
33		56.640625
34		50.781250
35		56.640625
36		48.828125
37		52.734375
38		44.921875
39		52.734375
40		44.921875
41		50.781250
42		42.968750
43		48.828125
44		41.015625
45		48.828125
46		39.062500
47		46.875000
48		37.109375
49		44.921875
50		35.156250
51		42.968750
52		35.156250
53		39.062500
54		33.203125
55		37.109375
56		29.296875
57		35.156250
58		27.343750
59		33.203125
60		25.390625
61		31.250000
62		21.484375
63		29.296875
64		19.531250
65		27.343750
66		17.578125
67		25.390625
68		17.578125
69		23.437500
70		15.625000
71		19.531250
72		11.718750
73		17.578125
74		7.812500
75		17.578125
76		5.859375
77		13.671875
78		3.906250
79		11.718750
80		1.953125
81		9.765625
82		0.000000
83		7.812500
84		0.000000
85		5.859375
86		-1.953125
87		1.953125
88		-3.906250
89		0.000000
90		-7.812500
91		0.000000
92		-7.812500
93		-1.953125
94		-11.718750
95		-3.906250
96		-13.671875
97		-5.859375
98		-15.625000
99		-7.812500
100		-15.625000
101		-9.765625
102		-15.625000
103		-13.671875
104		-17.578125
105		-15.625000
106		-21.484375
107		-15.625000
108		-23.437500
109		-15.625000
110		-25.390625
111		-17.578125
112		-25.390625
113		-19.531250
114		-27.343750
115		-19.531250
116		-29.296875
117		-21.484375
118		-29.296875
119		-21.484375
120		-27.343750
121		-25.390625
122		-29.296875
123		-25.390625
124		-31.250000
125		-25.390625
126		-33.203125
127		-25.390625
128		-33.203125
129		-25.390625
130		-33.203125
131		-27.343750
132		-33.203125
133		-27.343750
134		-33.203125
135		-27.343750
136		-31.250000
137		-29.296875
138		-31.250000
139		-29.296875
140		-33.203125
141		-27.343750
142		-33.203125
143		-27.343750
144		-33.203125
145		-27.343750
146		-33.203125
147		-27.343750
148		-33.203125
149		-27.343750
150		-33.203125
151		-25.390625
152		-31.250000
153		-25.390625
154		-29.296875
155		-25.390625
156		-29.296875
157		-23.437500
158		-29.296875
159		-21.484375
160		-29.296875
161		-21.484375
162		-27.343750
163		-19.531250
164		-25.390625
165		-19.531250
166		-23.437500
167		-17.578125
168		-23.437500
169		-15.625000
170		-19.531250
171		-15.625000
172		-17.578125
173		-13.671875
174		-17.578125
175		-11.718750
176		-17.578125
177		-9.765625
178		-15.625000
179		-7.812500
180		-13.671875
181		-5.859375
182		-11.718750
183		-3.906250
184		-9.765625
185		-1.953125
186		-5.859375
187		-1.953125
188		-3.906250
189		0.000000
190		-1.953125
191		3.906250
192		-1.953125
193		5.859375
194		0.000000
195		7.812500
196		1.953125
197		9.765625
198		3.906250
199		11.718750
200		7.812500
201		15.625000
202		7.812500
203		15.625000
204		13.671875
205		17.578125
206		15.625000
207		21.484375
208		15.625000
209		23.437500
210		17.578125
211		25.390625
212		19.531250
213		27.343750
214		21.484375
215		29.296875
216		23.437500
217		31.250000
218		25.390625
219		33.203125
220		31.250000
221		33.203125
222		31.250000
223		35.156250
224		33.203125
225		39.062500
226		33.203125
227		41.015625
228		37.109375
229		44.921875
230		37.109375
231		44.921875
232		39.062500
233		46.875000
234		41.015625
235		48.828125
236		42.968750
237		48.828125
238		46.875000
239		50.781250
240		46.875000
241		54.687500
242		48.828125
243		54.687500
244		48.828125
245		56.640625
246		50.781250
247		58.593750
248		52.734375
249		60.546875
250		52.734375
251		60.546875
252		54.687500
253		62.500000
254		58.593750
255		60.546875
256		58.593750
257		62.500000
258		58.593750
259		64.453125
260		58.593750
261		66.406250
262		60.546875
263		66.406250
264		60.546875
265		66.406250
266		60.546875
267		68.359375
268		60.546875
269		68.359375
270		64.453125
271		66.406250
272		64.453125
273		66.406250
274		62.500000
275		70.312500
276		62.500000
277		70.312500
278		62.500000
279		70.312500
280		64.453125
281		70.312500
282		62.500000
283		70.312500
284		62.500000
285		70.312500
286		62.500000
287		70.312500
288		64.453125
289		66.406250
290		62.500000
291		68.359375
292		60.546875
293		68.359375
294		60.546875
295		68.359375
296		60.546875
297		66.406250
298		58.593750
299		66.406250
300		58.593750
301		66.406250
302		58.593750
303		64.453125
304		58.593750
305		62.500000
306		56.640625
307		60.546875
308		54.687500
309		60.546875
310		52.734375
311		60.546875
312		50.781250
313		58.593750
314		50.781250
315		56.640625
316		48.828125
317		56.640625
318		46.875000
319		54.687500
320		46.875000
321		52.734375
322		46.875000
323		48.828125
324		42.968750
325		48.828125
326		41.015625
327		48.828125
328		39.062500
329		46.875000
330		37.109375
331		44.921875
332		35.156250
333		42.968750
334		33.203125
335		41.015625
336		31.250000
337		39.062500
338		31.250000
339		35.156250
340		29.296875
341		31.250000
342		25.390625
343		31.250000
344		21.484375
345		31.250000
346		19.531250
347		29.296875
348		17.578125
349		27.343750
350		15.625000
351		23.437500
352		13.671875
353		21.484375
354		13.671875
355		17.578125
356		11.718750
357		15.625000
358		5.859375
359		13.671875
360		3.906250
361		13.671875
362		1.953125
363		9.765625
364		0.000000
365		7.812500
366		-1.953125
367		5.859375
368		-3.906250
369		3.906250
370		-3.906250
371		1.953125
372		-5.859375
373		-1.953125
374		-9.765625
375		-3.906250
376		-11.718750
377		-3.906250
378		-13.671875
379		-5.859375
380		-15.625000
381		-7.812500
382		-17.578125
383		-9.765625
384		-17.578125
385		-11.718750
386		-19.531250
387		-11.718750
388		-19.531250
389		-15.625000
390		-21.484375
391		-17.578125
392		-25.390625
393		-17.578125
394		-25.390625
395		-17.578125
396		-27.343750
397		-19.531250
398		-27.343750
399		-21.484375
400		-29.296875
401		-21.484375
402		-29.296875
403		-23.437500
404		-29.296875
405		-23.437500
406		-29.296875
407		-27.343750
408		-33.203125
409		-25.390625
410		-33.203125
411		-25.390625
412		-33.203125
413		-27.343750
414		-33.203125
415		-27.343750
416		-33.203125
417		-27.343750
418		-33.203125
419		-27.343750
420		-35.156250
421		-27.343750
422		-31.250000
423		-29.296875
424		-33.203125
425		-29.296875
426		-33.203125
427		-27.343750
428		-33.203125
429		-27.343750
430		-33.203125
431		-25.390625
432		-33.203125
433		-25.390625
434		-31.250000
435		-25.390625
436		-31.250000
437		-23.437500
438		-29.296875
439		-25.390625
440		-27.343750
441		-23.437500
442		-27.343750
443		-21.484375
444		-27.343750
445		-19.531250
446		-25.390625
447		-19.531250
448		-25.390625
449		-15.625000
450		-23.437500
451		-15.625000
452		-21.484375
453		-13.671875
454		-19.531250
455		-13.671875
456		-15.625000
457		-13.671875
458		-15.625000
459		-9.765625
460		-15.625000
461		-7.812500
462		-13.671875
463		-5.859375
464		-11.718750
465		-3.906250
466		-9.765625
467		-1.953125
468		-7.812500
469		0.000000
470		-5.859375
471		1.953125
472		-1.953125
473		1.953125
474		0.000000
475		3.906250
476		1.953125
477		7.812500
478		1.953125
479		9.765625
480		3.906250
481		11.718750
482		5.859375
483		15.625000
484		7.812500
485		17.578125
486		11.718750
487		19.531250
488		13.671875
489		19.531250
490		17.578125
491		21.484375
492		19.531250
493		25.390625
494		19.531250
495		27.343750
496		21.484375
497		31.250000
498		23.437500
499		33.203125
500		25.390625
501		33.203125
502		29.296875
503		37.109375
504		31.250000
505		37.109375
506		35.156250
507		37.109375
508		37.109375
509		39.062500
510		37.109375
511		44.921875
512		39.062500
513		46.875000
514		41.015625
515		46.875000
516		42.968750
517		48.828125
518		42.968750
519		50.781250
520		44.921875
521		52.734375
522		48.828125
523		52.734375
524		50.781250
525		54.687500
526		50.781250
527		56.640625
528		50.781250
529		58.593750
530		52.734375
531		60.546875
532		54.687500
533		60.546875
534		54.687500
535		62.500000
536		56.640625
537		64.453125
538		56.640625
539		64.453125
540		60.546875
541		62.500000
542		60.546875
543		64.453125
544		60.546875
545		68.359375
546		60.546875
547		68.359375
548		62.500000
549		68.359375
550		62.500000
551		70.312500
552		62.500000
553		70.312500
554		62.500000
555		70.312500
556		66.406250
557		68.359375
558		66.406250
559		68.359375
560		62.500000
561		70.312500
562		64.453125
563		70.312500
564		64.453125
565		70.312500
566		64.453125
567		70.312500
568		62.500000
569		70.312500
570		62.500000
571		70.312500
572		64.453125
573		70.312500
574		64.453125
575		66.406250
576		60.546875
577		66.406250
578		60.546875
579		68.359375
580		60.546875
581		66.406250
582		58.593750
583		66.406250
584		58.593750
585		66.406250
586		56.640625
587		64.453125
588		56.640625
589		62.500000
590		56.640625
591		60.546875
592		54.687500
593		58.593750
594		52.734375
595		60.546875
596		50.781250
597		58.593750
598		48.828125
599		56.640625
600		48.828125
601		54.687500
602		44.921875
603		54.687500
604		42.968750
605		52.734375
606		44.921875
607		48.828125
608		42.968750
609		46.875000
610		39.062500
611		46.875000
612		37.109375
613		44.921875
614		35.156250
615		42.968750
616		33.203125
617		41.015625
618		31.250000
619		39.062500
620		29.296875
621		37.109375
622		29.296875
623		35.156250
624		27.343750
625		31.250000
626		23.437500
627		29.296875
628		21.484375
629		29.296875
630		17.578125
631		25.390625
632		15.625000
633		23.437500
634		13.671875
635		21.484375
636		11.718750
637		19.531250
638		9.765625
639		17.578125
640		9.765625
641		13.671875
642		7.812500
643		11.718750
644		3.906250
645		9.765625
646		0.000000
647		9.765625
648		0.000000
649		5.859375
650		-3.906250
651		3.906250
652		-5.859375
653		1.953125
654		-7.812500
655		1.953125
656		-7.812500
657		-1.953125
658		-9.765625
659		-5.859375
660		-13.671875
661		-5.859375
662		-15.625000
663		-5.859375
664		-15.625000
665		-7.812500
666		-17.578125
667		-9.765625
668		-19.531250
669		-11.718750
670		-21.484375
671		-13.671875
672		-21.484375
673		-15.625000
674		-21.484375
675		-19.531250
676		-23.437500
677		-19.531250
678		-27.343750
679		-19.531250
680		-27.343750
681		-19.531250
682		-29.296875
683		-21.484375
684		-31.250000
685		-23.437500
686		-31.250000
687		-23.437500
688		-31.250000
689		-23.437500
690		-29.296875
691		-27.343750
692		-31.250000
693		-27.343750
694		-33.203125
695		-27.343750
696		-33.203125
697		-27.343750
698		-33.203125
699		-27.343750
700		-33.203125
701		-27.343750
702		-33.203125
703		-27.343750
704		-33.203125
705		-27.343750
706		-33.203125
707		-27.343750
708		-31.250000
709		-29.296875
710		-31.250000
711		-27.343750
712		-33.203125
713		-25.390625
714		-33.203125
715		-25.390625
716		-31.250000
717		-25.390625
718		-31.250000
719		-23.437500
720		-31.250000
721		-23.437500
722		-29.296875
723		-21.484375
724		-25.390625
725		-23.437500
726		-25.390625
727		-21.484375
728		-25.390625
729		-19.531250
730		-25.390625
731		-17.578125
732		-23.437500
733		-15.625000
734		-21.484375
735		-13.671875
736		-19.531250
737		-13.671875
738		-17.578125
739		-11.718750
740		-17.578125
741		-11.718750
742		-13.671875
743		-9.765625
744		-11.718750
745		-5.859375
746		-11.718750
747		-3.906250
748		-9.765625
749		-1.953125
750		-7.812500
751		0.000000
752		-5.859375
753		1.953125
754		-3.906250
755		3.906250
756		-1.953125
757		5.859375
758		1.953125
759		5.859375
760		3.906250
761		7.812500
762		5.859375
763		11.718750
764		5.859375
765		13.671875
766		7.812500
767		17.578125
768		11.718750
769		19.531250
770		13.671875
771		21.484375
772		15.625000
773		23.437500
774		17.578125
775		23.437500
776		21.484375
777		25.390625
778		23.437500
779		29.296875
780		23.437500
781		31.250000
782		25.390625
783		33.203125
784		27.343750
785		35.156250
786		29.296875
787		37.109375
788		31.250000
789		39.062500
790		35.156250
791		41.015625
792		37.109375
793		41.015625
794		39.062500
795		46.875000
796		39.062500
797		46.875000
798		41.015625
799		48.828125
800		42.968750
801		50.781250
802		44.921875
803		52.734375
804		46.875000
805		54.687500
806		46.875000
807		54.687500
808		50.781250
809		54.687500
810		52.734375
811		56.640625
812		52.734375
813		60.546875
814		54.687500
815		60.546875
816		54.687500
817		62.500000
818		54.687500
819		64.453125
820		56.640625
821		64.453125
822		58.593750
823		64.453125
824		58.593750
825		66.406250
826		62.500000
827		64.453125
828		62.500000
829		66.406250
830		60.546875
831		68.359375
832		62.500000
833		68.359375
834		62.500000
835		68.359375
836		62.500000
837		70.312500
838		62.500000
839		70.312500
840		64.453125
841		70.312500
842		66.406250
843		68.359375
844		66.406250
845		68.359375
846		64.453125
847		70.312500
848		62.500000
849		70.312500
850		62.500000
851		70.312500
852		62.500000
853		70.312500
854		62.500000
855		68.359375
856		62.500000
857		68.359375
858		62.500000
859		68.359375
860		62.500000
861		66.406250
862		60.546875
863		66.406250
864		58.593750
865		66.406250
866		58.593750
867		66.406250
868		56.640625
869		64.453125
870		56.640625
871		62.500000
872		54.687500
873		62.500000
874		54.687500
875		60.546875
876		54.687500
877		56.640625
878		52.734375
879		56.640625
880		48.828125
881		56.640625
882		48.828125
883		54.687500
884		46.875000
885		54.687500
886		44.921875
887		52.734375
888		42.968750
889		50.781250
890		41.015625
891		48.828125
892		41.015625
893		44.921875
894		39.062500
895		42.968750
896		35.156250
897		41.015625
898		33.203125
899		41.015625
900		31.250000
901		39.062500
902		29.296875
903		37.109375
904		27.343750
905		35.156250
906		25.390625
907		33.203125
908		25.390625
909		31.250000
910		23.437500
911		27.343750
912		19.531250
913		25.390625
914		17.578125
915		25.390625
916		15.625000
917		23.437500
918		11.718750
919		21.484375
920		9.765625
921		19.531250
922		7.812500
923		15.625000
924		5.859375
925		13.671875
926		5.859375
927		9.765625
928		3.906250
929		7.812500
930		0.000000
931		7.812500
932		-1.953125
933		5.859375
934		-3.906250
935		3.906250
936		-5.859375
937		0.000000
938		-7.812500
939		0.000000
940		-11.718750
941		-3.906250
942		-9.765625
943		-5.859375
944		-11.718750
945		-7.812500
946		-15.625000
947		-9.765625
948		-17.578125
949		-9.765625
950		-19.531250
951		-11.718750
952		-21.484375
953		-13.671875
954		-21.484375
955		-15.625000
956		-23.437500
957		-15.625000
958		-23.437500
959		-17.578125
960		-23.437500
961		-21.484375
962		-25.390625
963		-21.484375
964		-29.296875
965		-21.484375
966		-29.296875
967		-21.484375
968		-29.296875
969		-23.437500
970		-31.250000
971		-23.437500
972		-31.250000
973		-25.390625
974		-31.250000
975		-25.390625
976		-29.296875
977		-27.343750
978		-31.250000
979		-27.343750
980		-33.203125
981		-27.343750
982		-33.203125
983		-27.343750
984		-33.203125
985		-27.343750
986		-33.203125
987		-27.343750
988		-33.203125
989		-27.343750
990		-33.203125
991		-25.390625
992		-33.203125
993		-27.343750
994		-29.296875
995		-27.343750
996		-31.250000
997		-25.390625
998		-31.250000
999		-25.390625
1000		-31.250000
1001		-23.437500
1002		-29.296875
1003		-23.437500
1004		-29.296875
1005		-21.484375
1006		-27.343750
1007		-21.484375
1008		-27.343750
1009		-19.531250
1010		-23.437500
1011		-19.531250
1012		-21.484375
1013		-19.531250
1014		-23.437500
1015		-15.625000
1016		-21.484375
1017		-13.671875
1018		-19.531250
1019		-11.718750
1020		-17.578125
1021		-11.718750
1022		-17.578125
1023		-9.765625
1024		-15.625000
1025		-7.812500
1026		-13.671875
1027		-7.812500
1028		-9.765625
1029		-5.859375
1030		-7.812500
1031		-1.953125
1032		-7.812500
1033		0.000000
1034		-5.859375
1035		1.953125
1036		-3.906250
1037		3.906250
1038		-1.953125
1039		5.859375
1040		0.000000
1041		7.812500
1042		1.953125
1043		9.765625
1044		5.859375
1045		9.765625
1046		9.765625
1047		11.718750
1048		9.765625
1049		17.578125
1050		9.765625
1051		19.531250
1052		13.671875
1053		21.484375
1054		15.625000
1055		23.437500
1056		17.578125
1057		25.390625
1058		19.531250
1059		27.343750
1060		21.484375
1061		27.343750
1062		25.390625
1063		29.296875
1064		27.343750
1065		33.203125
1066		27.343750
1067		35.156250
1068		31.250000
1069		39.062500
1070		33.203125
1071		39.062500
1072		35.156250
1073		42.968750
1074		35.156250
1075		42.968750
1076		37.109375
1077		44.921875
1078		42.968750
1079		44.921875
1080		42.968750
1081		48.828125
1082		42.968750
1083		50.781250
1084		44.921875
1085		52.734375
1086		46.875000
1087		54.687500
1088		48.828125
1089		56.640625
1090		50.781250
1091		56.640625
1092		50.781250
1093		58.593750
1094		54.687500
1095		58.593750
1096		56.640625
1097		58.593750
1098		54.687500
1099		62.500000
1100		56.640625
1101		62.500000
1102		58.593750
1103		64.453125
1104		58.593750
1105		66.406250
1106		58.593750
1107		66.406250
1108		60.546875
1109		68.359375
1110		62.500000
1111		68.359375
1112		64.453125
1113		66.406250
1114		62.500000
1115		68.359375
1116		62.500000
1117		70.312500
1118		62.500000
1119		70.312500
1120		62.500000
1121		70.312500
1122		64.453125
1123		70.312500
1124		64.453125
1125		70.312500
1126		64.453125
1127		70.312500
1128		66.406250
1129		68.359375
1130		66.406250
1131		68.359375
1132		64.453125
1133		70.312500
1134		62.500000
1135		70.312500
1136		62.500000
1137		70.312500
1138		62.500000
1139		68.359375
1140		62.500000
1141		68.359375
1142		60.546875
1143		68.359375
1144		62.500000
1145		66.406250
1146		62.500000
1147		64.453125
1148		58.593750
1149		64.453125
1150		56.640625
1151		64.453125
1152		56.640625
1153		64.453125
1154		56.640625
1155		62.500000
1156		54.687500
1157		60.546875
1158		52.734375
1159		58.593750
1160		50.781250
1161		58.593750
1162		52.734375
1163		54.687500
1164		48.828125
1165		54.687500
1166		46.875000
1167		54.687500
1168		44.921875
1169		52.734375
1170		42.968750
1171		50.781250
1172		41.015625
1173		48.828125
1174		39.062500
1175		46.875000
1176		39.062500
1177		44.921875
1178		39.062500
1179		41.015625
1180		37.109375
1181		39.062500
1182		31.250000
1183		39.062500
1184		29.296875
1185		39.062500
1186		27.343750
1187		35.156250
1188		25.390625
1189		33.203125
1190		23.437500
1191		31.250000
1192		21.484375
1193		29.296875
1194		21.484375
1195		27.343750
1196		19.531250
1197		23.437500
1198		15.625000
1199		21.484375
1200		13.671875
1201		21.484375
1202		9.765625
1203		17.578125
1204		7.812500
1205		15.625000
1206		5.859375
1207		13.671875
1208		3.906250
1209		11.718750
1210		1.953125
1211		9.765625
1212		1.953125
1213		5.859375
1214		0.000000
1215		3.906250
1216		-3.906250
1217		3.906250
1218		-5.859375
1219		1.953125
1220		-7.812500
1221		0.000000
1222		-9.765625
1223		-3.906250
1224		-11.718750
1225		-3.906250
1226		-13.671875
1227		-5.859375
1228		-13.671875
1229		-9.765625
1230		-15.625000
1231		-11.718750
1232		-19.531250
1233		-11.718750
1234		-21.484375
1235		-13.671875
1236		-21.484375
1237		-13.671875
1238		-23.437500
1239		-15.625000
1240		-25.390625
1241		-17.578125
1242		-25.390625
1243		-19.531250
1244		-27.343750
1245		-19.531250
1246		-25.390625
1247		-23.437500
1248		-29.296875
1249		-23.437500
1250		-29.296875
1251		-23.437500
1252		-31.250000
1253		-23.437500
1254		-33.203125
1255		-25.390625
1256		-33.203125
1257		-25.390625
1258		-33.203125
1259		-25.390625
1260		-33.203125
1261		-25.390625
1262		-31.250000
1263		-29.296875
1264		-31.250000
1265		-29.296875
1266		-33.203125
1267		-27.343750
1268		-33.203125
1269		-27.343750
1270		-33.203125
1271		-27.343750
1272		-33.203125
1273		-27.343750
1274		-33.203125
1275		-25.390625
1276		-33.203125
1277		-25.390625
1278		-31.250000
1279		-25.390625
1280		-29.296875
1281		-25.390625
1282		-29.296875
1283		-23.437500
1284		-29.296875
1285		-23.437500
1286		-29.296875
1287		-21.484375
1288		-27.343750
1289		-21.484375
1290		-27.343750
1291		-19.531250
1292		-25.390625
1293		-17.578125
1294		-25.390625
1295		-17.578125
1296		-21.484375
1297		-17.578125
1298		-19.531250
1299		-15.625000
1300		-19.531250
1301		-13.671875
1302		-17.578125
1303		-11.718750
1304		-17.578125
1305		-9.765625
1306		-15.625000
1307		-7.812500
1308		-13.671875
1309		-5.859375
1310		-11.718750
1311		-3.906250
1312		-9.765625
1313		-3.906250
1314		-5.859375
1315		-1.953125
1316		-3.906250
1317		1.953125
1318		-3.906250
1319		3.906250
1320		-1.953125
1321		5.859375
1322		0.000000
1323		7.812500
1324		1.953125
1325		9.765625
1326		3.906250
1327		11.718750
1328		5.859375
1329		13.671875
1330		11.718750
1331		15.625000
1332		11.718750
1333		19.531250
1334		11.718750
1335		19.531250
1336		15.625000
1337		23.437500
1338		17.578125
1339		25.390625
1340		19.531250
1341		27.343750
1342		21.484375
1343		29.296875
1344		23.437500
1345		31.250000
1346		27.343750
1347		31.250000
1348		29.296875
1349		33.203125
1350		29.296875
1351		37.109375
1352		31.250000
1353		39.062500
1354		35.156250
1355		41.015625
1356		35.156250
1357		42.968750
1358		37.109375
1359		44.921875
1360		39.062500
1361		46.875000
1362		41.015625
1363		48.828125
1364		44.921875
1365		48.828125
1366		46.875000
1367		52.734375
1368		44.921875
1369		54.687500
1370		48.828125
1371		56.640625
1372		50.781250
1373		56.640625
1374		50.781250
1375		58.593750
1376		52.734375
1377		58.593750
1378		54.687500
1379		60.546875
1380		56.640625
1381		60.546875
1382		58.593750
1383		60.546875
1384		56.640625
1385		64.453125
1386		58.593750
1387		66.406250
1388		58.593750
1389		66.406250
1390		60.546875
1391		68.359375
1392		60.546875
1393		68.359375
1394		62.500000
1395		68.359375
1396		62.500000
1397		68.359375
1398		64.453125
1399		68.359375
1400		62.500000
1401		70.312500
1402		64.453125
1403		70.312500
1404		64.453125
1405		70.312500
1406		64.453125
1407		70.312500
1408		64.453125
1409		70.312500
1410		64.453125
1411		72.265625
1412		64.453125
1413		70.312500
1414		66.406250
1415		68.359375
1416		64.453125
1417		68.359375
1418		62.500000
1419		70.312500
1420		62.500000
1421		68.359375
1422		62.500000
1423		68.359375
1424		60.546875
1425		68.359375
1426		60.546875
1427		66.406250
1428		60.546875
1429		66.406250
1430		60.546875
1431		64.453125
1432		60.546875
1433		62.500000
1434		56.640625
1435		62.500000
1436		54.687500
1437		62.500000
1438		54.687500
1439		60.546875
1440		52.734375
1441		60.546875
1442		50.781250
1443		58.593750
1444		50.781250
1445		56.640625
1446		50.781250
1447		56.640625
1448		48.828125
1449		52.734375
1450		44.921875
1451		52.734375
1452		42.968750
1453		52.734375
1454		42.968750
1455		48.828125
1456		41.015625
1457		46.875000
1458		39.062500
1459		44.921875
1460		37.109375
1461		42.968750
1462		35.156250
1463		41.015625
1464		35.156250
1465		37.109375
1466		33.203125
1467		35.156250
1468		27.343750
1469		35.156250
1470		27.343750
1471		33.203125
1472		23.437500
1473		31.250000
1474		23.437500
1475		29.296875
1476		19.531250
1477		27.343750
1478		17.578125
1479		25.390625
1480		17.578125
1481		23.437500
1482		15.625000
1483		19.531250
1484		11.718750
1485		17.578125
1486		7.812500
1487		15.625000
1488		7.812500
1489		13.671875
1490		3.906250
1491		11.718750
1492		1.953125
1493		9.765625
1494		0.000000
1495		7.812500
1496		0.000000
1497		5.859375
1498		-1.953125
1499		1.953125
1500		-5.859375
1501		0.000000
1502		-5.859375
1503		0.000000
1504		-7.812500
1505		-3.906250
1506		-11.718750
1507		-5.859375
1508		-13.671875
1509		-5.859375
1510		-13.671875
1511		-9.765625
1512		-15.625000
1513		-9.765625
1514		-15.625000
1515		-13.671875
1516		-17.578125
1517		-15.625000
1518		-19.531250
1519		-15.625000
1520		-23.437500
1521		-17.578125
1522		-21.484375
1523		-19.531250
1524		-25.390625
1525		-19.531250
1526		-25.390625
1527		-19.531250
1528		-27.343750
1529		-21.484375
1530		-27.343750
1531		-23.437500
1532		-27.343750
1533		-25.390625
1534		-29.296875
1535		-23.437500
1536		-29.296875
1537		-25.390625
1538		-29.296875
1539		-27.343750
1540		-29.296875
1541		-27.343750
1542		-33.203125
1543		-25.390625
1544		-31.250000
1545		-27.343750
1546		-33.203125
1547		-27.343750
1548		-31.250000
1549		-29.296875
1550		-31.250000
1551		-29.296875
1552		-33.203125
1553		-27.343750
1554		-31.250000
1555		-27.343750
1556		-31.250000
1557		-27.343750
1558		-29.296875
1559		-25.390625
1560		-29.296875
1561		-25.390625
1562		-29.296875
1563		-25.390625
1564		-27.343750
1565		-25.390625
1566		-27.343750
1567		-25.390625
1568		-27.343750
1569		-23.437500
1570		-25.390625
1571		-21.484375
1572		-25.390625
1573		-21.484375
1574		-23.437500
1575		-19.531250
1576		-23.437500
1577		-19.531250
1578		-21.484375
1579		-17.578125
1580		-19.531250
1581		-15.625000
1582		-17.578125
1583		-15.625000
1584		-15.625000
1585		-11.718750
1586		-15.625000
1587		-11.718750
1588		-13.671875
1589		-9.765625
1590		-11.718750
1591		-7.812500
1592		-9.765625
1593		-5.859375
1594		-7.812500
1595		-3.906250
1596		-5.859375
1597		-1.953125
1598		-3.906250
1599		0.000000
1600		-1.953125
1601		1.953125
1602		0.000000
1603		3.906250
1604		1.953125
1605		5.859375
1606		3.906250
1607		7.812500
1608		5.859375
1609		9.765625
1610		7.812500
1611		13.671875
1612		9.765625
1613		15.625000
1614		11.718750
1615		17.578125
1616		15.625000
1617		19.531250
1618		17.578125
1619		21.484375
1620		19.531250
1621		23.437500
1622		21.484375
1623		25.390625
1624		23.437500
1625		27.343750
1626		25.390625
1627		29.296875
1628		27.343750
1629		31.250000
1630		29.296875
1631		35.156250
1632		33.203125
1633		35.156250
1634		33.203125
1635		37.109375
1636		35.156250
1637		41.015625
1638		39.062500
1639		41.015625
1640		39.062500
1641		42.968750
1642		42.968750
1643		44.921875
1644		42.968750
1645		46.875000
1646		44.921875
1647		48.828125
1648		46.875000
1649		50.781250
1650		48.828125
1651		52.734375
1652		50.781250
1653		54.687500
1654		50.781250
1655		54.687500
1656		52.734375
1657		56.640625
1658		54.687500
1659		58.593750
1660		56.640625
1661		60.546875
1662		56.640625
1663		60.546875
1664		58.593750
1665		62.500000
1666		58.593750
1667		62.500000
1668		60.546875
1669		62.500000
1670		60.546875
1671		64.453125
1672		62.500000
1673		66.406250
1674		62.500000
1675		66.406250
1676		64.453125
1677		66.406250
1678		64.453125
1679		68.359375
1680		64.453125
1681		68.359375
1682		64.453125
1683		68.359375
1684		66.406250
1685		68.359375
1686		66.406250
1687		68.359375
1688		66.406250
1689		68.359375
1690		66.406250
1691		68.359375
1692		66.406250
1693		68.359375
1694		66.406250
1695		68.359375
1696		66.406250
1697		68.359375
1698		64.453125
1699		68.359375
1700		66.406250
1701		68.359375
1702		62.500000
1703		68.359375
1704		64.453125
1705		66.406250
1706		62.500000
1707		66.406250
1708		62.500000
1709		66.406250
1710		60.546875
1711		64.453125
1712		60.546875
1713		64.453125
1714		60.546875
1715		64.453125
1716		58.593750
1717		62.500000
1718		58.593750
1719		60.546875
1720		56.640625
1721		60.546875
1722		54.687500
1723		58.593750
1724		52.734375
1725		56.640625
1726		52.734375
1727		56.640625
1728		50.781250
1729		54.687500
1730		48.828125
1731		52.734375
1732		46.875000
1733		50.781250
1734		46.875000
1735		48.828125
1736		42.968750
1737		46.875000
1738		42.968750
1739		46.875000
1740		39.062500
1741		44.921875
1742		39.062500
1743		42.968750
1744		37.109375
1745		41.015625
1746		35.156250
1747		39.062500
1748		31.250000
1749		37.109375
1750		31.250000
1751		33.203125
1752		27.343750
1753		31.250000
1754		25.390625
1755		31.250000
1756		23.437500
1757		29.296875
1758		21.484375
1759		25.390625
1760		19.531250
1761		23.437500
1762		17.578125
1763		21.484375
1764		15.625000
1765		19.531250
1766		13.671875
1767		19.531250
1768		11.718750
1769		15.625000
1770		9.765625
1771		13.671875
1772		7.812500
1773		9.765625
1774		3.906250
1775		7.812500
1776		1.953125
1777		5.859375
1778		0.000000
1779		3.906250
1780		-1.953125
1781		1.953125
1782		-3.906250
1783		0.000000
1784		-5.859375
1785		-1.953125
1786		-9.765625
1787		-3.906250
1788		-9.765625
1789		-5.859375
1790		-11.718750
1791		-7.812500
1792		-13.671875
1793		-9.765625
1794		-15.625000
1795		-11.718750
1796		-17.578125
1797		-11.718750
1798		-19.531250
1799		-13.671875
1800		-19.531250
1801		-15.625000
1802		-21.484375
1803		-17.578125
1804		-23.437500
1805		-17.578125
1806		-23.437500
1807		-19.531250
1808		-25.390625
1809		-21.484375
1810		-27.343750
1811		-23.437500
1812		-27.343750
1813		-23.437500
1814		-27.343750
1815		-23.437500
1816		-29.296875
1817		-25.390625
1818		-29.296875
1819		-25.390625
1820		-29.296875
1821		-27.343750
1822		-31.250000
1823		-27.343750
1824		-31.250000
1825		-27.343750
1826		-31.250000
1827		-27.343750
1828		-31.250000
1829		-27.343750
1830		-31.250000
1831		-27.343750
1832		-31.250000
1833		-27.343750
1834		-31.250000
1835		-29.296875
1836		-31.250000
1837		-27.343750
1838		-31.250000
1839		-27.343750
1840		-31.250000
1841		-27.343750
1842		-29.296875
1843		-27.343750
1844		-29.296875
1845		-25.390625
1846		-29.296875
1847		-25.390625
1848		-29.296875
1849		-25.390625
1850		-27.343750
1851		-23.437500
1852		-25.390625
1853		-23.437500
1854		-25.390625
1855		-21.484375
1856		-23.437500
1857		-19.531250
1858		-23.437500
1859		-19.531250
1860		-21.484375
1861		-17.578125
1862		-19.531250
1863		-15.625000
1864		-19.531250
1865		-13.671875
1866		-17.578125
1867		-13.671875
1868		-15.625000
1869		-11.718750
1870		-13.671875
1871		-9.765625
1872		-11.718750
1873		-7.812500
1874		-9.765625
1875		-5.859375
1876		-7.812500
1877		-3.906250
1878		-5.859375
1879		-1.953125
1880		-5.859375
1881		0.000000
1882		-1.953125
1883		1.953125
1884		0.000000
1885		3.906250
1886		1.953125
1887		5.859375
1888		3.906250
1889		7.812500
1890		5.859375
1891		9.765625
1892		7.812500
1893		11.718750
1894		9.765625
1895		13.671875
1896		11.718750
1897		17.578125
1898		15.625000
1899		17.578125
1900		15.625000
1901		21.484375
1902		19.531250
1903		23.437500
1904		21.484375
1905		25.390625
1906		23.437500
1907		27.343750
1908		25.390625
1909		29.296875
1910		27.343750
1911		31.250000
1912		29.296875
1913		33.203125
1914		31.250000
1915		35.156250
1916		33.203125
1917		37.109375
1918		35.156250
1919		39.062500
1920		37.109375
1921		41.015625
1922		39.062500
1923		42.968750
1924		41.015625
1925		46.875000
1926		42.968750
1927		46.875000
1928		44.921875
1929		48.828125
1930		46.875000
1931		50.781250
1932		48.828125
1933		52.734375
1934		48.828125
1935		52.734375
1936		52.734375
1937		54.687500
1938		52.734375
1939		56.640625
1940		54.687500
1941		58.593750
1942		56.640625
1943		58.593750
1944		56.640625
1945		60.546875
1946		58.593750
1947		60.546875
1948		58.593750
1949		62.500000
1950		60.546875
1951		64.453125
1952		62.500000
1953		64.453125
1954		62.500000
1955		66.406250
1956		62.500000
1957		66.406250
1958		64.453125
1959		66.406250
1960		64.453125
1961		68.359375
1962		64.453125
1963		68.359375
1964		64.453125
1965		68.359375
1966		64.453125
1967		70.312500
1968		66.406250
1969		68.359375
1970		66.406250
1971		68.359375
1972		66.406250
1973		70.312500
1974		66.406250
1975		68.359375
1976		66.406250
1977		70.312500
1978		66.406250
1979		68.359375
1980		66.406250
1981		68.359375
1982		64.453125
1983		68.359375
1984		64.453125
1985		68.359375
1986		64.453125
1987		66.406250
1988		62.500000
1989		66.406250
1990		62.500000
1991		66.406250
1992		62.500000
1993		66.406250
1994		62.500000
1995		64.453125
1996		60.546875
1997		62.500000
1998		58.593750
1999		62.500000
2000		56.640625
2001		62.500000
2002		56.640625
2003		60.546875
2004		56.640625
2005		58.593750
2006		54.687500
2007		58.593750
2008		52.734375
2009		56.640625
2010		50.781250
2011		54.687500
2012		48.828125
2013		52.734375
2014		48.828125
2015		50.781250
2016		44.921875
2017		50.781250
2018		44.921875
2019		48.828125
2020		42.968750
2021		46.875000
2022		41.015625
2023		44.921875
2024		39.062500
2025		42.968750
2026		37.109375
2027		41.015625
2028		35.156250
2029		39.062500
2030		33.203125
2031		37.109375
2032		31.250000
2033		35.156250
2034		29.296875
2035		33.203125
2036		27.343750
2037		31.250000
2038		23.437500
2039		29.296875
2040		23.437500
2041		27.343750
2042		21.484375
2043		25.390625
2044		17.578125
2045		21.484375
2046		15.625000
2047		21.484375
2048		13.671875
2049		17.578125
2050		11.718750
2051		15.625000
2052		9.765625
2053		13.671875
2054		7.812500
2055		11.718750
2056		5.859375
2057		9.765625
2058		1.953125
2059		7.812500
2060		0.000000
2061		5.859375
2062		0.000000
2063		1.953125
2064		-3.906250
2065		1.953125
2066		-3.906250
2067		-1.953125
2068		-5.859375
2069		-1.953125
2070		-7.812500
2071		-5.859375
2072		-11.718750
2073		-7.812500
2074		-11.718750
2075		-7.812500
2076		-13.671875
2077		-9.765625
2078		-15.625000
2079		-11.718750
2080		-17.578125
2081		-13.671875
2082		-19.531250
2083		-15.625000
2084		-21.484375
2085		-17.578125
2086		-21.484375
2087		-17.578125
2088		-23.437500
2089		-19.531250
2090		-23.437500
2091		-19.531250
2092		-25.390625
2093		-21.484375
2094		-25.390625
2095		-23.437500
2096		-27.343750
2097		-23.437500
2098		-27.343750
2099		-25.390625
2100		-29.296875
2101		-25.390625
2102		-29.296875
2103		-25.390625
2104		-29.296875
2105		-27.343750
2106		-31.250000
2107		-27.343750
2108		-31.250000
2109		-27.343750
2110		-31.250000
2111		-27.343750
2112		-31.250000
2113		-27.343750
2114		-31.250000
2115		-27.343750
2116		-31.250000
2117		-27.343750
2118		-31.250000
2119		-27.343750
2120		-29.296875
2121		-27.343750
2122		-29.296875
2123		-27.343750
2124		-31.250000
2125		-25.390625
2126		-29.296875
2127		-25.390625
2128		-29.296875
2129		-25.390625
2130		-27.343750
2131		-23.437500
2132		-27.343750
2133		-23.437500
2134		-25.390625
2135		-21.484375
2136		-25.390625
2137		-21.484375
2138		-23.437500
2139		-21.484375
2140		-23.437500
2141		-19.531250
2142		-21.484375
2143		-17.578125
2144		-19.531250
2145		-15.625000
2146		-17.578125
2147		-13.671875
2148		-17.578125
2149		-13.671875
2150		-15.625000
2151		-11.718750
2152		-13.671875
2153		-9.765625
2154		-11.718750
2155		-7.812500
2156		-9.765625
2157		-5.859375
2158		-7.812500
2159		-3.906250
2160		-5.859375
2161		-1.953125
2162		-3.906250
2163		0.000000
2164		-1.953125
2165		1.953125
2166		0.000000
2167		3.906250
2168		1.953125
2169		5.859375
2170		3.906250
2171		7.812500
2172		5.859375
2173		9.765625
2174		7.812500
2175		11.718750
2176		9.765625
2177		13.671875
2178		13.671875
2179		17.578125
2180		15.625000
2181		21.484375
2182		15.625000
2183		21.484375
2184		19.531250
2185		23.437500
2186		21.484375
2187		25.390625
2188		23.437500
2189		27.343750
2190		25.390625
2191		29.296875
2192		27.343750
2193		31.250000
2194		29.296875
2195		33.203125
2196		31.250000
2197		35.156250
2198		33.203125
2199		39.062500
2200		35.156250
2201		41.015625
2202		37.109375
2203		41.015625
2204		39.062500
2205		42.968750
2206		41.015625
2207		44.921875
2208		42.968750
2209		46.875000
2210		44.921875
2211		48.828125
2212		46.875000
2213		50.781250
2214		48.828125
2215		52.734375
2216		48.828125
2217		54.687500
2218		50.781250
2219		56.640625
2220		52.734375
2221		56.640625
2222		54.687500
2223		58.593750
2224		56.640625
2225		58.593750
2226		56.640625
2227		60.546875
2228		58.593750
2229		60.546875
2230		58.593750
2231		62.500000
2232		60.546875
2233		64.453125
2234		60.546875
2235		64.453125
2236		62.500000
2237		66.406250
2238		62.500000
2239		66.406250
2240		64.453125
2241		66.406250
2242		64.453125
2243		68.359375
2244		64.453125
2245		68.359375
2246		64.453125
2247		68.359375
2248		66.406250
2249		68.359375
2250		66.406250
2251		68.359375
2252		66.406250
2253		70.312500
2254		66.406250
2255		68.359375
2256		66.406250
2257		68.359375
2258		64.453125
2259		68.359375
2260		66.406250
2261		68.359375
2262		66.406250
2263		70.312500
2264		66.406250
2265		68.359375
2266		64.453125
2267		68.359375
2268		64.453125
2269		68.359375
2270		64.453125
2271		68.359375
2272		62.500000
2273		66.406250
2274		62.500000
2275		66.406250
2276		62.500000
2277		64.453125
2278		60.546875
2279		64.453125
2280		58.593750
2281		62.500000
2282		56.640625
2283		62.500000
2284		56.640625
2285		60.546875
2286		54.687500
2287		58.593750
2288		54.687500
2289		58.593750
2290		52.734375
2291		56.640625
2292		50.781250
2293		56.640625
2294		50.781250
2295		52.734375
2296		48.828125
2297		52.734375
2298		46.875000
2299		50.781250
2300		44.921875
2301		48.828125
2302		42.968750
2303		46.875000
2304		41.015625
2305		44.921875
2306		39.062500
2307		42.968750
2308		37.109375
2309		41.015625
2310		35.156250
2311		39.062500
2312		33.203125
2313		37.109375
2314		31.250000
2315		35.156250
2316		29.296875
2317		33.203125
2318		27.343750
2319		31.250000
2320		25.390625
2321		29.296875
2322		23.437500
2323		27.343750
2324		19.531250
2325		25.390625
2326		17.578125
2327		23.437500
2328		15.625000
2329		21.484375
2330		13.671875
2331		17.578125
2332		11.718750
2333		15.625000
2334		9.765625
2335		13.671875
2336		7.812500
2337		11.718750
2338		5.859375
2339		9.765625
2340		3.906250
2341		7.812500
2342		0.000000
2343		5.859375
2344		0.000000
2345		3.906250
2346		-3.906250
2347		1.953125
2348		-5.859375
2349		-1.953125
2350		-7.812500
2351		-1.953125
2352		-9.765625
2353		-5.859375
2354		-9.765625
2355		-5.859375
2356		-11.718750
2357		-7.812500
2358		-13.671875
2359		-9.765625
2360		-15.625000
2361		-11.718750
2362		-17.578125
2363		-13.671875
2364		-19.531250
2365		-15.625000
2366		-21.484375
2367		-15.625000
2368		-21.484375
2369		-17.578125
2370		-23.437500
2371		-19.531250
2372		-23.437500
2373		-21.484375
2374		-25.390625
2375		-21.484375
2376		-25.390625
2377		-23.437500
2378		-27.343750
2379		-23.437500
2380		-27.343750
2381		-23.437500
2382		-29.296875
2383		-25.390625
2384		-29.296875
2385		-27.343750
2386		-29.296875
2387		-27.343750
2388		-31.250000
2389		-25.390625
2390		-31.250000
2391		-27.343750
2392		-31.250000
2393		-27.343750
2394		-31.250000
2395		-29.296875
2396		-31.250000
2397		-27.343750
2398		-31.250000
2399		-27.343750
2400		-31.250000
2401		-27.343750
2402		-31.250000
2403		-27.343750
2404		-29.296875
2405		-27.343750
2406		-29.296875
2407		-27.343750
2408		-29.296875
2409		-25.390625
2410		-29.296875
2411		-25.390625
2412		-27.343750
2413		-23.437500
2414		-27.343750
2415		-23.437500
2416		-25.390625
2417		-21.484375
2418		-25.390625
2419		-21.484375
2420		-23.437500
2421		-19.531250
2422		-21.484375
2423		-17.578125
2424		-21.484375
2425		-17.578125
2426		-19.531250
2427		-15.625000
2428		-17.578125
2429		-15.625000
2430		-17.578125
2431		-13.671875
2432		-15.625000
2433		-11.718750
2434		-13.671875
2435		-9.765625
2436		-11.718750
2437		-7.812500
2438		-9.765625
2439		-5.859375
2440		-7.812500
2441		-3.906250
2442		-5.859375
2443		-1.953125
2444		-3.906250
2445		0.000000
2446		-3.906250
2447		1.953125
2448		0.000000
2449		3.906250
2450		1.953125
2451		5.859375
2452		3.906250
2453		7.812500
2454		5.859375
2455		11.718750
2456		7.812500
2457		11.718750
2458		9.765625
2459		13.671875
2460		11.718750
2461		15.625000
2462		13.671875
2463		19.531250
2464		17.578125
2465		19.531250
2466		19.531250
2467		23.437500
2468		21.484375
2469		25.390625
2470		23.437500
2471		27.343750
2472		25.390625
2473		29.296875
2474		27.343750
2475		31.250000
2476		29.296875
2477		33.203125
2478		31.250000
2479		37.109375
2480		33.203125
2481		37.109375
2482		35.156250
2483		39.062500
2484		37.109375
2485		41.015625
2486		39.062500
2487		42.968750
2488		41.015625
2489		44.921875
2490		42.968750
2491		46.875000
2492		44.921875
2493		50.781250
2494		46.875000
2495		50.781250
2496		48.828125
2497		52.734375
2498		48.828125
2499		52.734375
2500		50.781250
2501		54.687500
2502		52.734375
2503		56.640625
2504		54.687500
2505		58.593750
2506		56.640625
2507		58.593750
2508		56.640625
2509		60.546875
2510		58.593750
2511		62.500000
2512		60.546875
2513		62.500000
2514		60.546875
2515		64.453125
2516		60.546875
2517		64.453125
2518		62.500000
2519		66.406250
2520		62.500000
2521		66.406250
2522		62.500000
2523		66.406250
2524		64.453125
2525		68.359375
2526		64.453125
2527		68.359375
2528		64.453125
2529		68.359375
2530		66.406250
2531		68.359375
2532		66.406250
2533		70.312500
2534		66.406250
2535		70.312500
2536		66.406250
2537		70.312500
2538		66.406250
2539		70.312500
2540		66.406250
2541		70.312500
2542		66.406250
2543		68.359375
2544		66.406250
2545		70.312500
2546		66.406250
2547		68.359375
2548		64.453125
2549		68.359375
2550		64.453125
2551		68.359375
2552		64.453125
2553		68.359375
2554		62.500000
2555		66.406250
2556		62.500000
2557		66.406250
2558		62.500000
2559		64.453125
2560		60.546875
2561		64.453125
2562		58.593750
2563		62.500000
2564		58.593750
2565		62.500000
2566		56.640625
2567		60.546875
2568		56.640625
2569		60.546875
2570		54.687500
2571		58.593750
2572		52.734375
2573		56.640625
2574		52.734375
2575		54.687500
2576		50.781250
2577		54.687500
2578		48.828125
2579		52.734375
2580		46.875000
2581		50.781250
2582		44.921875
2583		48.828125
2584		42.968750
2585		46.875000
2586		41.015625
2587		44.921875
2588		39.062500
2589		42.968750
2590		37.109375
2591		41.015625
2592		35.156250
2593		39.062500
2594		33.203125
2595		37.109375
2596		31.250000
2597		35.156250
2598		29.296875
2599		33.203125
2600		27.343750
2601		31.250000
2602		25.390625
2603		29.296875
2604		23.437500
2605		27.343750
2606		21.484375
2607		25.390625
2608		19.531250
2609		23.437500
2610		15.625000
2611		21.484375
2612		15.625000
2613		19.531250
2614		11.718750
2615		15.625000
2616		9.765625
2617		13.671875
2618		7.812500
2619		11.718750
2620		5.859375
2621		9.765625
2622		1.953125
2623		7.812500
2624		1.953125
2625		5.859375
2626		0.000000
2627		3.906250
2628		-1.953125
2629		1.953125
2630		-5.859375
2631		0.000000
2632		-5.859375
2633		-1.953125
2634		-7.812500
2635		-3.906250
2636		-9.765625
2637		-5.859375
2638		-11.718750
2639		-7.812500
2640		-13.671875
2641		-9.765625
2642		-15.625000
2643		-11.718750
2644		-17.578125
2645		-13.671875
2646		-19.531250
2647		-15.625000
2648		-19.531250
2649		-15.625000
2650		-21.484375
2651		-17.578125
2652		-21.484375
2653		-19.531250
2654		-23.437500
2655		-19.531250
2656		-25.390625
2657		-21.484375
2658		-27.343750
2659		-23.437500
2660		-27.343750
2661		-23.437500
2662		-27.343750
2663		-25.390625
2664		-29.296875
2665		-25.390625
2666		-29.296875
2667		-25.390625
2668		-29.296875
2669		-25.390625
2670		-31.250000
2671		-25.390625
2672		-31.250000
2673		-27.343750
2674		-31.250000
2675		-27.343750
2676		-31.250000
2677		-27.343750
2678		-31.250000
2679		-27.343750
2680		-31.250000
2681		-27.343750
2682		-31.250000
2683		-27.343750
2684		-29.296875
2685		-27.343750
2686		-29.296875
2687		-27.343750
2688		-29.296875
2689		-25.390625
2690		-29.296875
2691		-25.390625
2692		-27.343750
2693		-25.390625
2694		-27.343750
2695		-23.437500
2696		-27.343750
2697		-23.437500
2698		-27.343750
2699		-21.484375
2700		-23.437500
2701		-21.484375
2702		-23.437500
2703		-19.531250
2704		-21.484375
2705		-19.531250
2706		-21.484375
2707		-17.578125
2708		-19.531250
2709		-15.625000
2710		-17.578125
2711		-15.625000
2712		-17.578125
2713		-13.671875
2714		-15.625000
2715		-11.718750
2716		-13.671875
2717		-9.765625
2718		-11.718750
2719		-7.812500
2720		-9.765625
2721		-5.859375
2722		-7.812500
2723		-3.906250
2724		-7.812500
2725		-1.953125
2726		-3.906250
2727		0.000000
2728		-1.953125
2729		1.953125
2730		0.000000
2731		3.906250
2732		1.953125
2733		5.859375
2734		3.906250
2735		7.812500
2736		5.859375
2737		9.765625
2738		7.812500
2739		11.718750
2740		9.765625
2741		13.671875
2742		11.718750
2743		15.625000
2744		13.671875
2745		17.578125
2746		15.625000
2747		21.484375
2748		17.578125
2749		23.437500
2750		21.484375
2751		25.390625
2752		23.437500
2753		27.343750
2754		25.390625
2755		29.296875
2756		27.343750
2757		31.250000
2758		29.296875
2759		33.203125
2760		31.250000
2761		35.156250
2762		33.203125
2763		37.109375
2764		35.156250
2765		39.062500
2766		37.109375
2767		41.015625
2768		39.062500
2769		42.968750
2770		41.015625
2771		44.921875
2772		42.968750
2773		46.875000
2774		44.921875
2775		48.828125
2776		46.875000
2777		50.781250
2778		48.828125
2779		52.734375
2780		48.828125
2781		52.734375
2782		52.734375
2783		54.687500
2784		52.734375
2785		56.640625
2786		54.687500
2787		58.593750
2788		54.687500
2789		58.593750
2790		56.640625
2791		60.546875
2792		58.593750
2793		60.546875
2794		58.593750
2795		62.500000
2796		60.546875
2797		64.453125
2798		60.546875
2799		64.453125
2800		62.500000
2801		66.406250
2802		62.500000
2803		66.406250
2804		64.453125
2805		66.406250
2806		64.453125
2807		68.359375
2808		64.453125
2809		68.359375
2810		66.406250
2811		68.359375
2812		64.453125
2813		68.359375
2814		66.406250
2815		68.359375
2816		66.406250
2817		70.312500
2818		66.406250
2819		68.359375
2820		66.406250
2821		70.312500
2822		66.406250
2823		70.312500
2824		66.406250
2825		68.359375
2826		66.406250
2827		68.359375
2828		66.406250
2829		68.359375
2830		64.453125
2831		68.359375
2832		64.453125
2833		68.359375
2834		64.453125
2835		68.359375
2836		64.453125
2837		66.406250
2838		62.500000
2839		66.406250
2840		60.546875
2841		66.406250
2842		60.546875
2843		64.453125
2844		58.593750
2845		62.500000
2846		58.593750
2847		62.500000
2848		56.640625
2849		60.546875
2850		56.640625
2851		60.546875
2852		54.687500
2853		58.593750
2854		52.734375
2855		56.640625
2856		52.734375
2857		54.687500
2858		50.781250
2859		54.687500
2860		48.828125
2861		52.734375
2862		46.875000
2863		50.781250
2864		44.921875
2865		50.781250
2866		42.968750
2867		46.875000
2868		41.015625
2869		46.875000
2870		41.015625
2871		44.921875
2872		37.109375
2873		41.015625
2874		35.156250
2875		41.015625
2876		33.203125
2877		37.109375
2878		33.203125
2879		35.156250
2880		29.296875
2881		35.156250
2882		27.343750
2883		33.203125
2884		25.390625
2885		29.296875
2886		23.437500
2887		27.343750
2888		21.484375
2889		25.390625
2890		19.531250
2891		23.437500
2892		15.625000
2893		21.484375
2894		15.625000
2895		19.531250
2896		11.718750
2897		15.625000
2898		11.718750
2899		13.671875
2900		7.812500
2901		11.718750
2902		5.859375
2903		9.765625
2904		3.906250
2905		7.812500
2906		1.953125
2907		5.859375
2908		0.000000
2909		3.906250
2910		-1.953125
2911		1.953125
2912		-3.906250
2913		0.000000
2914		-5.859375
2915		-1.953125
2916		-7.812500
2917		-3.906250
2918		-9.765625
2919		-5.859375
2920		-11.718750
2921		-7.812500
2922		-13.671875
2923		-9.765625
2924		-15.625000
2925		-9.765625
2926		-17.578125
2927		-11.718750
2928		-17.578125
2929		-15.625000
2930		-19.531250
2931		-15.625000
2932		-21.484375
2933		-17.578125
2934		-21.484375
2935		-17.578125
2936		-23.437500
2937		-19.531250
2938		-25.390625
2939		-21.484375
2940		-25.390625
2941		-21.484375
2942		-25.390625
2943		-23.437500
2944		-27.343750
2945		-25.390625
2946		-29.296875
2947		-25.390625
2948		-29.296875
2949		-25.390625
2950		-29.296875
2951		-25.390625
2952		-29.296875
2953		-27.343750
2954		-31.250000
2955		-27.343750
2956		-31.250000
2957		-27.343750
2958		-31.250000
2959		-27.343750
2960		-29.296875
2961		-27.343750
2962		-31.250000
2963		-27.343750
2964		-31.250000
2965		-27.343750
2966		-29.296875
2967		-27.343750
2968		-29.296875
2969		-27.343750
2970		-29.296875
2971		-27.343750
2972		-29.296875
2973		-25.390625
2974		-27.343750
2975		-25.390625
2976		-27.343750
2977		-23.437500
2978		-27.343750
2979		-23.437500
2980		-25.390625
2981		-21.484375
2982		-25.390625
2983		-21.484375
2984		-23.437500
2985		-19.531250
2986		-21.484375
2987		-19.531250
2988		-21.484375
2989		-17.578125
2990		-19.531250
2991		-15.625000
2992		-19.531250
2993		-13.671875
2994		-15.625000
2995		-13.671875
2996		-15.625000
2997		-11.718750
2998		-13.671875
2999		-9.765625
3000		-11.718750
3001		-7.812500
3002		-9.765625
3003		-5.859375
3004		-7.812500
3005		-3.906250
3006		-5.859375
3007		-1.953125
3008		-3.906250
3009		0.000000
3010		-3.906250
3011		1.953125
3012		0.000000
3013		3.906250
3014		1.953125
3015		5.859375
3016		3.906250
3017		7.812500
3018		5.859375
3019		9.765625
3020		7.812500
3021		11.718750
3022		9.765625
3023		13.671875
3024		11.718750
3025		17.578125
3026		13.671875
3027		17.578125
3028		17.578125
3029		21.484375
3030		19.531250
3031		23.437500
3032		21.484375
3033		25.390625
3034		23.437500
3035		27.343750
3036		25.390625
3037		29.296875
3038		27.343750
3039		31.250000
3040		29.296875
3041		33.203125
3042		31.250000
3043		35.156250
3044		33.203125
3045		37.109375
3046		35.156250
3047		39.062500
3048		37.109375
3049		41.015625
3050		41.015625
3051		42.968750
3052		41.015625
3053		44.921875
3054		42.968750
3055		46.875000
3056		44.921875
3057		48.828125
3058		46.875000
3059		50.781250
3060		46.875000
3061		52.734375
3062		50.781250
3063		54.687500
3064		52.734375
3065		56.640625
3066		52.734375
3067		56.640625
3068		54.687500
3069		58.593750
3070		56.640625
3071		60.546875
3072		56.640625
3073		60.546875
3074		58.593750
3075		62.500000
3076		58.593750
3077		64.453125
3078		60.546875
3079		64.453125
3080		62.500000
3081		64.453125
3082		62.500000
3083		66.406250
3084		62.500000
3085		66.406250
3086		64.453125
3087		66.406250
3088		64.453125
3089		68.359375
3090		66.406250
3091		68.359375
3092		66.406250
3093		70.312500
3094		66.406250
3095		70.312500
3096		66.406250
3097		70.312500
3098		66.406250
3099		70.312500
3100		66.406250
3101		70.312500
3102		68.359375
3103		70.312500
3104		66.406250
3105		70.312500
3106		66.406250
3107		70.312500
3108		66.406250
3109		70.312500
3110		66.406250
3111		70.312500
3112		66.406250
3113		68.359375
3114		64.453125
3115		68.359375
3116		64.453125
3117		68.359375
3118		64.453125
3119		66.406250
3120		62.500000
3121		66.406250
3122		62.500000
3123		66.406250
3124		62.500000
3125		64.453125
3126		58.593750
3127		64.453125
3128		60.546875
3129		62.500000
3130		58.593750
3131		60.546875
3132		56.640625
3133		60.546875
3134		54.687500
3135		58.593750
3136		54.687500
3137		58.593750
3138		52.734375
3139		56.640625
3140		50.781250
3141		54.687500
3142		50.781250
3143		52.734375
3144		46.875000
3145		50.781250
3146		46.875000
3147		48.828125
3148		42.968750
3149		48.828125
3150		42.968750
3151		46.875000
3152		41.015625
3153		44.921875
3154		39.062500
3155		42.968750
3156		37.109375
3157		41.015625
3158		35.156250
3159		39.062500
3160		33.203125
3161		37.109375
3162		31.250000
3163		35.156250
3164		29.296875
3165		33.203125
3166		25.390625
3167		31.250000
3168		23.437500
3169		29.296875
3170		21.484375
3171		25.390625
3172		19.531250
3173		23.437500
3174		17.578125
3175		21.484375
3176		15.625000
3177		19.531250
3178		13.671875
3179		17.578125
3180		11.718750
3181		15.625000
3182		9.765625
3183		13.671875
3184		5.859375
3185		11.718750
3186		3.906250
3187		7.812500
3188		1.953125
3189		7.812500
3190		0.000000
3191		3.906250
3192		-1.953125
3193		1.953125
3194		-3.906250
3195		0.000000
3196		-5.859375
3197		-1.953125
3198		-7.812500
3199		-3.906250
3200		-9.765625
3201		-5.859375
3202		-11.718750
3203		-7.812500
3204		-11.718750
3205		-9.765625
3206		-15.625000
3207		-11.718750
3208		-15.625000
3209		-11.718750
3210		-17.578125
3211		-13.671875
3212		-19.531250
3213		-15.625000
3214		-19.531250
3215		-17.578125
3216		-21.484375
3217		-17.578125
3218		-23.437500
3219		-19.531250
3220		-23.437500
3221		-21.484375
3222		-25.390625
3223		-21.484375
3224		-25.390625
3225		-23.437500
3226		-27.343750
3227		-23.437500
3228		-27.343750
3229		-23.437500
3230		-27.343750
3231		-25.390625
3232		-29.296875
3233		-25.390625
3234		-29.296875
3235		-25.390625
3236		-29.296875
3237		-27.343750
3238		-31.250000
3239		-27.343750
3240		-31.250000
3241		-27.343750
3242		-29.296875
3243		-27.343750
3244		-31.250000
3245		-27.343750
3246		-29.296875
3247		-27.343750
3248		-29.296875
3249		-27.343750
3250		-31.250000
3251		-23.437500
3252		-29.296875
3253		-25.390625
3254		-29.296875
3255		-25.390625
3256		-27.343750
3257		-25.390625
3258		-27.343750
3259		-23.437500
3260		-27.343750
3261		-23.437500
3262		-25.390625
3263		-21.484375
3264		-25.390625
3265		-21.484375
3266		-23.437500
3267		-19.531250
3268		-23.437500
3269		-19.531250
3270		-21.484375
3271		-17.578125
3272		-19.531250
3273		-15.625000
3274		-17.578125
3275		-15.625000
3276		-17.578125
3277		-13.671875
3278		-15.625000
3279		-11.718750
3280		-13.671875
3281		-9.765625
3282		-11.718750
3283		-7.812500
3284		-9.765625
3285		-5.859375
3286		-7.812500
3287		-3.906250
3288		-7.812500
3289		-1.953125
3290		-3.906250
3291		0.000000
3292		-1.953125
3293		1.953125
3294		0.000000
3295		5.859375
3296		1.953125
3297		5.859375
3298		3.906250
3299		7.812500
3300		5.859375
3301		9.765625
3302		7.812500
3303		11.718750
3304		9.765625
3305		15.625000
3306		11.718750
3307		15.625000
3308		13.671875
3309		17.578125
3310		17.578125
3311		21.484375
3312		19.531250
3313		21.484375
3314		21.484375
3315		25.390625
3316		23.437500
3317		27.343750
3318		25.390625
3319		29.296875
3320		27.343750
3321		31.250000
3322		29.296875
3323		33.203125
3324		31.250000
3325		35.156250
3326		33.203125
3327		37.109375
3328		35.156250
3329		39.062500
3330		37.109375
3331		41.015625
3332		39.062500
3333		42.968750
3334		41.015625
3335		44.921875
3336		42.968750
3337		46.875000
3338		44.921875
3339		48.828125
3340		46.875000
3341		50.781250
3342		48.828125
3343		50.781250
3344		48.828125
3345		54.687500
3346		50.781250
3347		54.687500
3348		52.734375
3349		56.640625
3350		54.687500
3351		58.593750
3352		56.640625
3353		58.593750
3354		56.640625
3355		60.546875
3356		58.593750
3357		62.500000
3358		58.593750
3359		62.500000
3360		60.546875
3361		64.453125
3362		60.546875
3363		64.453125
3364		62.500000
3365		64.453125
3366		62.500000
3367		66.406250
3368		62.500000
3369		68.359375
3370		64.453125
3371		68.359375
3372		64.453125
3373		68.359375
3374		66.406250
3375		68.359375
3376		66.406250
3377		70.312500
3378		66.406250
3379		70.312500
3380		66.406250
3381		68.359375
3382		66.406250
3383		70.312500
3384		66.406250
3385		70.312500
3386		66.406250
3387		70.312500
3388		66.406250
3389		70.312500
3390		66.406250
3391		70.312500
3392		66.406250
3393		68.359375
3394		66.406250
3395		68.359375
3396		64.453125
3397		68.359375
3398		64.453125
3399		68.359375
3400		64.453125
3401		66.406250
3402		62.500000
3403		66.406250
3404		62.500000
3405		66.406250
3406		60.546875
3407		64.453125
3408		60.546875
3409		64.453125
3410		58.593750
3411		62.500000
3412		56.640625
3413		60.546875
3414		56.640625
3415		60.546875
3416		56.640625
3417		58.593750
3418		54.687500
3419		58.593750
3420		52.734375
3421		56.640625
3422		50.781250
3423		54.687500
3424		48.828125
3425		52.734375
3426		46.875000
3427		52.734375
3428		46.875000
3429		50.781250
3430		44.921875
3431		48.828125
3432		42.968750
3433		46.875000
3434		41.015625
3435		44.921875
3436		39.062500
3437		42.968750
3438		37.109375
3439		41.015625
3440		35.156250
3441		39.062500
3442		33.203125
3443		37.109375
3444		31.250000
3445		35.156250
3446		29.296875
3447		33.203125
3448		27.343750
3449		29.296875
3450		23.437500
3451		29.296875
3452		21.484375
3453		27.343750
3454		19.531250
3455		23.437500
3456		17.578125
3457		21.484375
3458		15.625000
3459		19.531250
3460		13.671875
3461		17.578125
3462		11.718750
3463		15.625000
3464		9.765625
3465		13.671875
3466		7.812500
3467		9.765625
3468		5.859375
3469		9.765625
3470		1.953125
3471		7.812500
3472		0.000000
3473		3.906250
3474		-1.953125
3475		3.906250
3476		-3.906250
3477		0.000000
3478		-5.859375
3479		-1.953125
3480		-7.812500
3481		-3.906250
3482		-9.765625
3483		-5.859375
3484		-11.718750
3485		-7.812500
3486		-13.671875
3487		-7.812500
3488		-13.671875
3489		-11.718750
3490		-15.625000
3491		-11.718750
3492		-17.578125
3493		-13.671875
3494		-19.531250
3495		-15.625000
3496		-21.484375
3497		-17.578125
3498		-21.484375
3499		-17.578125
3500		-23.437500
3501		-19.531250
3502		-25.390625
3503		-19.531250
3504		-25.390625
3505		-21.484375
3506		-25.390625
3507		-23.437500
3508		-27.343750
3509		-23.437500
3510		-27.343750
3511		-23.437500
3512		-29.296875
3513		-25.390625
3514		-29.296875
3515		-25.390625
3516		-29.296875
3517		-27.343750
3518		-31.250000
3519		-25.390625
3520		-31.250000
3521		-27.343750
3522		-31.250000
3523		-27.343750
3524		-31.250000
3525		-27.343750
3526		-31.250000
3527		-27.343750
3528		-31.250000
3529		-27.343750
3530		-31.250000
3531		-27.343750
3532		-29.296875
3533		-27.343750
3534		-29.296875
3535		-25.390625
3536		-29.296875
3537		-25.390625
3538		-29.296875
3539		-23.437500
3540		-27.343750
3541		-23.437500
3542		-27.343750
3543		-23.437500
3544		-25.390625
3545		-21.484375
3546		-25.390625
3547		-21.484375
3548		-25.390625
3549		-19.531250
3550		-21.484375
3551		-19.531250
3552		-21.484375
3553		-17.578125
3554		-19.531250
3555		-15.625000
3556		-17.578125
3557		-13.671875
3558		-17.578125
3559		-13.671875
3560		-15.625000
3561		-11.718750
3562		-13.671875
3563		-9.765625
3564		-11.718750
3565		-7.812500
3566		-9.765625
3567		-5.859375
3568		-7.812500
3569		-3.906250
3570		-5.859375
3571		-1.953125
3572		-3.906250
3573		0.000000
3574		-1.953125
3575		1.953125
3576		0.000000
3577		3.906250
3578		0.000000
3579		5.859375
3580		3.906250
3581		7.812500
3582		5.859375
3583		9.765625
3584		7.812500
3585		11.718750
3586		9.765625
3587		13.671875
3588		11.718750
3589		15.625000
3590		13.671875
3591		17.578125
3592		15.625000
3593		19.531250
3594		17.578125
3595		23.437500
3596		21.484375
3597		25.390625
3598		21.484375
3599		27.343750
3600		23.437500
3601		29.296875
3602		27.343750
3603		31.250000
3604		29.296875
3605		33.203125
3606		31.250000
3607		35.156250
3608		33.203125
3609		37.109375
3610		35.156250
3611		39.062500
3612		37.109375
3613		41.015625
3614		39.062500
3615		42.968750
3616		41.015625
3617		44.921875
3618		42.968750
3619		46.875000
3620		42.968750
3621		48.828125
3622		46.875000
3623		50.781250
3624		48.828125
3625		50.781250
3626		48.828125
3627		54.687500
3628		50.781250
3629		54.687500
3630		52.734375
3631		56.640625
3632		52.734375
3633		58.593750
3634		56.640625
3635		58.593750
3636		56.640625
3637		60.546875
3638		58.593750
3639		62.500000
3640		60.546875
3641		62.500000
3642		60.546875
3643		64.453125
3644		60.546875
3645		64.453125
3646		62.500000
3647		66.406250
3648		64.453125
3649		66.406250
3650		64.453125
3651		66.406250
3652		64.453125
3653		68.359375
3654		64.453125
3655		68.359375
3656		66.406250
3657		68.359375
3658		66.406250
3659		70.312500
3660		66.406250
3661		70.312500
3662		66.406250
3663		70.312500
3664		66.406250
3665		70.312500
3666		66.406250
3667		70.312500
3668		66.406250
3669		70.312500
3670		66.406250
3671		70.312500
3672		66.406250
3673		70.312500
3674		66.406250
3675		68.359375
3676		66.406250
3677		68.359375
3678		64.453125
3679		68.359375
3680		64.453125
3681		68.359375
3682		64.453125
3683		68.359375
3684		62.500000
3685		66.406250
3686		62.500000
3687		66.406250
3688		62.500000
3689		64.453125
3690		60.546875
3691		64.453125
3692		60.546875
3693		62.500000
3694		58.593750
3695		62.500000
3696		56.640625
3697		60.546875
3698		54.687500
3699		60.546875
3700		54.687500
3701		58.593750
3702		52.734375
3703		56.640625
3704		50.781250
3705		56.640625
3706		48.828125
3707		54.687500
3708		48.828125
3709		52.734375
3710		46.875000
3711		48.828125
3712		44.921875
3713		48.828125
3714		42.968750
3715		46.875000
3716		41.015625
3717		44.921875
3718		39.062500
3719		42.968750
3720		37.109375
3721		41.015625
3722		35.156250
3723		39.062500
3724		33.203125
3725		37.109375
3726		31.250000
3727		35.156250
3728		29.296875
3729		33.203125
3730		25.390625
3731		31.250000
3732		23.437500
3733		29.296875
3734		23.437500
3735		25.390625
3736		19.531250
3737		23.437500
3738		17.578125
3739		23.437500
3740		15.625000
3741		19.531250
3742		13.671875
3743		17.578125
3744		11.718750
3745		15.625000
3746		9.765625
3747		13.671875
3748		5.859375
3749		11.718750
3750		5.859375
3751		7.812500
3752		3.906250
3753		5.859375
3754		0.000000
3755		3.906250
3756		-1.953125
3757		1.953125
3758		-3.906250
3759		0.000000
3760		-5.859375
3761		-1.953125
3762		-7.812500
3763		-3.906250
3764		-9.765625
3765		-5.859375
3766		-11.718750
3767		-5.859375
3768		-11.718750
3769		-9.765625
3770		-15.625000
3771		-9.765625
3772		-15.625000
3773		-11.718750
3774		-17.578125
3775		-13.671875
3776		-19.531250
3777		-15.625000
3778		-19.531250
3779		-15.625000
3780		-21.484375
3781		-17.578125
3782		-23.437500
3783		-19.531250
3784		-23.437500
3785		-21.484375
3786		-25.390625
3787		-21.484375
3788		-25.390625
3789		-21.484375
3790		-27.343750
3791		-23.437500
3792		-27.343750
3793		-25.390625
3794		-29.296875
3795		-23.437500
3796		-29.296875
3797		-25.390625
3798		-29.296875
3799		-27.343750
3800		-31.250000
3801		-25.390625
3802		-29.296875
3803		-27.343750
3804		-31.250000
3805		-27.343750
3806		-31.250000
3807		-27.343750
3808		-31.250000
3809		-27.343750
3810		-31.250000
3811		-27.343750
3812		-31.250000
3813		-27.343750
3814		-29.296875
3815		-27.343750
3816		-29.296875
3817		-27.343750
3818		-29.296875
3819		-25.390625
3820		-27.343750
3821		-23.437500
3822		-27.343750
3823		-23.437500
3824		-27.343750
3825		-23.437500
3826		-27.343750
3827		-21.484375
3828		-25.390625
3829		-21.484375
3830		-23.437500
3831		-19.531250
3832		-23.437500
3833		-17.578125
3834		-21.484375
3835		-17.578125
3836		-19.531250
3837		-15.625000
3838		-19.531250
3839		-15.625000
3840		-17.578125
3841		-13.671875
3842		-15.625000
3843		-11.718750
3844		-13.671875
3845		-9.765625
3846		-11.718750
3847		-7.812500
3848		-9.765625
3849		-7.812500
3850		-9.765625
3851		-5.859375
3852		-7.812500
3853		-3.906250
3854		-3.906250
3855		0.000000
3856		-3.906250
3857		1.953125
3858		-1.953125
3859		3.906250
3860		0.000000
3861		3.906250
3862		3.906250
3863		7.812500
3864		5.859375
3865		9.765625
3866		7.812500
3867		11.718750
3868		9.765625
3869		13.671875
3870		11.718750
3871		15.625000
3872		11.718750
3873		17.578125
3874		15.625000
3875		21.484375
3876		17.578125
3877		21.484375
3878		19.531250
3879		25.390625
3880		23.437500
3881		25.390625
3882		23.437500
3883		29.296875
3884		25.390625
3885		31.250000
3886		29.296875
3887		33.203125
3888		31.250000
3889		35.156250
3890		33.203125
3891		37.109375
3892		35.156250
3893		39.062500
3894		37.109375
3895		41.015625
3896		39.062500
3897		42.968750
3898		41.015625
3899		44.921875
3900		42.968750
3901		46.875000
3902		44.921875
3903		46.875000
3904		46.875000
3905		50.781250
3906		46.875000
3907		50.781250
3908		48.828125
3909		52.734375
3910		50.781250
3911		54.687500
3912		52.734375
3913		56.640625
3914		54.687500
3915		58.593750
3916		54.687500
3917		58.593750
3918		56.640625
3919		60.546875
3920		58.593750
3921		60.546875
3922		58.593750
3923		62.500000
3924		60.546875
3925		64.453125
3926		60.546875
3927		66.406250
3928		62.500000
3929		64.453125
3930		62.500000
3931		66.406250
3932		64.453125
3933		68.359375
3934		64.453125
3935		68.359375
3936		64.453125
3937		68.359375
3938		64.453125
3939		68.359375
3940		66.406250
3941		68.359375
3942		66.406250
3943		70.312500
3944		66.406250
3945		68.359375
3946		66.406250
3947		70.312500
3948		66.406250
3949		70.312500
3950		66.406250
3951		70.312500
3952		66.406250
3953		70.312500
3954		66.406250
3955		70.312500
3956		66.406250
3957		70.312500
3958		66.406250
3959		68.359375
3960		64.453125
3961		68.359375
3962		64.453125
3963		68.359375
3964		64.453125
3965		66.406250
3966		62.500000
3967		66.406250
3968		62.500000
3969		66.406250
3970		62.500000
3971		64.453125
3972		60.546875
3973		64.453125
3974		58.593750
3975		62.500000
3976		58.593750
3977		62.500000
3978		56.640625
3979		60.546875
3980		56.640625
3981		58.593750
3982		54.687500
3983		58.593750
3984		52.734375
3985		56.640625
3986		52.734375
3987		54.687500
3988		50.781250
3989		52.734375
3990		48.828125
3991		52.734375
3992		46.875000
3993		50.781250
3994		44.921875
3995		48.828125
3996		42.968750
3997		46.875000
3998		41.015625
3999		44.921875
4000		39.062500
4001		42.968750
4002		37.109375
4003		41.015625
4004		35.156250
4005		39.062500
4006		33.203125
4007		37.109375
4008		31.250000
4009		35.156250
4010		29.296875
4011		33.203125
4012		27.343750
4013		31.250000
4014		25.390625
4015		29.296875
4016		23.437500
4017		27.343750
4018		19.531250
4019		25.390625
4020		17.578125
4021		23.437500
4022		15.625000
4023		19.531250
4024		13.671875
4025		19.531250
4026		11.718750
4027		15.625000
4028		9.765625
4029		13.671875
4030		7.812500
4031		11.718750
4032		5.859375
4033		9.765625
4034		1.953125
4035		7.812500
4036		1.953125
4037		5.859375
4038		0.000000
4039		3.906250
4040		-3.906250
4041		1.953125
4042		-5.859375
4043		-1.953125
4044		-5.859375
4045		-1.953125
4046		-9.765625
4047		-5.859375
4048		-9.765625
4049		-5.859375
4050		-11.718750
4051		-7.812500
4052		-13.671875
4053		-9.765625
4054		-15.625000
4055		-11.718750
4056		-17.578125
4057		-13.671875
4058		-19.531250
4059		-15.625000
4060		-19.531250
4061		-15.625000
4062		-21.484375
4063		-17.578125
4064		-23.437500
4065		-19.531250
4066		-23.437500
4067		-21.484375
4068		-25.390625
4069		-21.484375
4070		-25.390625
4071		-23.437500
4072		-27.343750
4073		-23.437500
4074		-27.343750
4075		-23.437500
4076		-27.343750
4077		-25.390625
4078		-29.296875
4079		-25.390625
4080		-29.296875
4081		-27.343750
4082		-29.296875
4083		-27.343750
4084		-31.250000
4085		-27.343750
4086		-31.250000
4087		-27.343750
4088		-29.296875
4089		-27.343750
4090		-31.250000
4091		-27.343750
4092		-31.250000
4093		-27.343750
4094		-29.296875
4095		-27.343750
4096		-29.296875
4097		-27.343750
4098		-29.296875
4099		-25.390625
4100		-29.296875
4101		-25.390625
4102		-27.343750
4103		-25.390625
4104		-27.343750
4105		-25.390625
4106		-25.390625
4107		-23.437500
4108		-25.390625
4109		-21.484375
4110		-25.390625
4111		-21.484375
4112		-23.437500
4113		-21.484375
4114		-23.437500
4115		-19.531250
4116		-21.484375
4117		-17.578125
4118		-19.531250
4119		-15.625000
4120		-17.578125
4121		-15.625000
4122		-17.578125
4123		-13.671875
4124		-15.625000
4125		-11.718750
4126		-13.671875
4127		-9.765625
4128		-11.718750
4129		-7.812500
4130		-11.718750
4131		-7.812500
4132		-7.812500
4133		-5.859375
4134		-7.812500
4135		-1.953125
4136		-5.859375
4137		-1.953125
4138		-3.906250
4139		0.000000
4140		-1.953125
4141		3.906250
4142		1.953125
4143		3.906250
4144		1.953125
4145		7.812500
4146		5.859375
4147		9.765625
4148		7.812500
4149		11.718750
4150		9.765625
4151		13.671875
4152		11.718750
4153		15.625000
4154		13.671875
4155		17.578125
4156		15.625000
4157		19.531250
4158		17.578125
4159		21.484375
4160		19.531250
4161		23.437500
4162		21.484375
4163		25.390625
4164		25.390625
4165		29.296875
4166		27.343750
4167		31.250000
4168		27.343750
4169		33.203125
4170		29.296875
4171		35.156250
4172		33.203125
4173		37.109375
4174		35.156250
4175		39.062500
4176		35.156250
4177		41.015625
4178		39.062500
4179		42.968750
4180		41.015625
4181		44.921875
4182		42.968750
4183		46.875000
4184		42.968750
4185		48.828125
4186		44.921875
4187		48.828125
4188		46.875000
4189		50.781250
4190		48.828125
4191		52.734375
4192		50.781250
4193		54.687500
4194		52.734375
4195		56.640625
4196		52.734375
4197		56.640625
4198		54.687500
4199		58.593750
4200		56.640625
4201		60.546875
4202		56.640625
4203		62.500000
4204		58.593750
4205		62.500000
4206		60.546875
4207		62.500000
4208		60.546875
4209		64.453125
4210		60.546875
4211		66.406250
4212		62.500000
4213		66.406250
4214		62.500000
4215		66.406250
4216		64.453125
4217		68.359375
4218		64.453125
4219		68.359375
4220		64.453125
4221		68.359375
4222		66.406250
4223		68.359375
4224		66.406250
4225		70.312500
4226		64.453125
4227		70.312500
4228		66.406250
4229		70.312500
4230		66.406250
4231		70.312500
4232		66.406250
4233		70.312500
4234		66.406250
4235		70.312500
4236		66.406250
4237		70.312500
4238		66.406250
4239		68.359375
4240		66.406250
4241		68.359375
4242		64.453125
4243		70.312500
4244		64.453125
4245		68.359375
4246		62.500000
4247		68.359375
4248		62.500000
4249		68.359375
4250		60.546875
4251		66.406250
4252		60.546875
4253		66.406250
4254		60.546875
4255		64.453125
4256		60.546875
4257		62.500000
4258		58.593750
4259		62.500000
4260		56.640625
4261		62.500000
4262		54.687500
4263		60.546875
4264		54.687500
4265		58.593750
4266		52.734375
4267		58.593750
4268		50.781250
4269		56.640625
4270		50.781250
4271		54.687500
4272		48.828125
4273		52.734375
4274		44.921875
4275		50.781250
4276		42.968750
4277		50.781250
4278		42.968750
4279		48.828125
4280		41.015625
4281		46.875000
4282		37.109375
4283		44.921875
4284		37.109375
4285		42.968750
4286		35.156250
4287		41.015625
4288		33.203125
4289		37.109375
4290		31.250000
4291		35.156250
4292		29.296875
4293		33.203125
4294		27.343750
4295		31.250000
4296		25.390625
4297		29.296875
4298		23.437500
4299		27.343750
4300		21.484375
4301		23.437500
4302		17.578125
4303		21.484375
4304		15.625000
4305		19.531250
4306		13.671875
4307		17.578125
4308		11.718750
4309		15.625000
4310		9.765625
4311		13.671875
4312		7.812500
4313		11.718750
4314		5.859375
4315		9.765625
4316		1.953125
4317		7.812500
4318		1.953125
4319		5.859375
4320		-1.953125
4321		1.953125
4322		-1.953125
4323		0.000000
4324		-3.906250
4325		-1.953125
4326		-7.812500
4327		-3.906250
4328		-7.812500
4329		-3.906250
4330		-9.765625
4331		-7.812500
4332		-11.718750
4333		-9.765625
4334		-13.671875
4335		-9.765625
4336		-15.625000
4337		-11.718750
4338		-17.578125
4339		-13.671875
4340		-19.531250
4341		-15.625000
4342		-19.531250
4343		-17.578125
4344		-21.484375
4345		-17.578125
4346		-23.437500
4347		-19.531250
4348		-23.437500
4349		-19.531250
4350		-25.390625
4351		-21.484375
4352		-25.390625
4353		-23.437500
4354		-27.343750
4355		-23.437500
4356		-27.343750
4357		-25.390625
4358		-27.343750
4359		-25.390625
4360		-29.296875
4361		-25.390625
4362		-29.296875
4363		-27.343750
4364		-29.296875
4365		-27.343750
4366		-29.296875
4367		-27.343750
4368		-31.250000
4369		-27.343750
4370		-31.250000
4371		-27.343750
4372		-31.250000
4373		-27.343750
4374		-31.250000
4375		-27.343750
4376		-29.296875
4377		-27.343750
4378		-29.296875
4379		-27.343750
4380		-29.296875
4381		-27.343750
4382		-29.296875
4383		-27.343750
4384		-27.343750
4385		-25.390625
4386		-27.343750
4387		-25.390625
4388		-27.343750
4389		-23.437500
4390		-25.390625
4391		-23.437500
4392		-27.343750
4393		-19.531250
4394		-27.343750
4395		-17.578125
4396		-25.390625
4397		-17.578125
4398		-25.390625
4399		-15.625000
4400		-19.531250
4401		-17.578125
4402		-19.531250
4403		-15.625000
4404		-17.578125
4405		-13.671875
4406		-15.625000
4407		-13.671875
4408		-13.671875
4409		-11.718750
4410		-15.625000
4411		-7.812500
4412		-13.671875
4413		-3.906250
4414		-13.671875
4415		-3.906250
4416		-7.812500
4417		-3.906250
4418		-5.859375
4419		-1.953125
4420		-3.906250
4421		0.000000
4422		-1.953125
4423		1.953125
4424		0.000000
4425		3.906250
4426		0.000000
4427		9.765625
4428		1.953125
4429		11.718750
4430		3.906250
4431		13.671875
4432		9.765625
4433		13.671875
4434		11.718750
4435		15.625000
4436		13.671875
4437		17.578125
4438		15.625000
4439		19.531250
4440		17.578125
4441		21.484375
4442		19.531250
4443		25.390625
4444		19.531250
4445		29.296875
4446		19.531250
4447		31.250000
4448		23.437500
4449		33.203125
4450		29.296875
4451		31.250000
4452		31.250000
4453		33.203125
4454		33.203125
4455		35.156250
4456		35.156250
4457		39.062500
4458		37.109375
4459		41.015625
4460		35.156250
4461		44.921875
4462		37.109375
4463		46.875000
4464		39.062500
4465		48.828125
4466		44.921875
4467		46.875000
4468		44.921875
4469		48.828125
4470		46.875000
4471		50.781250
4472		48.828125
4473		52.734375
4474		50.781250
4475		54.687500
4476		50.781250
4477		58.593750
4478		50.781250
4479		60.546875
4480		52.734375
4481		62.500000
4482		52.734375
4483		62.500000
4484		58.593750
4485		60.546875
4486		58.593750
4487		62.500000
4488		60.546875
4489		62.500000
4490		60.546875
4491		64.453125
4492		62.500000
4493		64.453125
4494		58.593750
4495		68.359375
4496		60.546875
4497		70.312500
4498		62.500000
4499		70.312500
4500		64.453125
4501		68.359375
4502		66.406250
4503		68.359375
4504		66.406250
4505		68.359375
4506		66.406250
4507		68.359375
4508		66.406250
4509		70.312500
4510		62.500000
4511		74.218750
4512		64.453125
4513		72.265625
4514		64.453125
4515		72.265625
4516		66.406250
4517		70.312500
4518		66.406250
4519		68.359375
4520		66.406250
4521		68.359375
4522		66.406250
4523		68.359375
4524		66.406250
4525		68.359375
4526		64.453125
4527		68.359375
4528		60.546875
4529		70.312500
4530		60.546875
4531		70.312500
4532		60.546875
4533		70.312500
4534		62.500000
4535		64.453125
4536		60.546875
4537		64.453125
4538		60.546875
4539		62.500000
4540		58.593750
4541		62.500000
4542		58.593750
4543		60.546875
4544		52.734375
4545		62.500000
4546		50.781250
4547		60.546875
4548		50.781250
4549		60.546875
4550		52.734375
4551		54.687500
4552		50.781250
4553		54.687500
4554		48.828125
4555		52.734375
4556		46.875000
4557		50.781250
4558		44.921875
4559		48.828125
4560		41.015625
4561		48.828125
4562		39.062500
4563		48.828125
4564		37.109375
4565		46.875000
4566		35.156250
4567		44.921875
4568		37.109375
4569		39.062500
4570		35.156250
4571		37.109375
4572		31.250000
4573		35.156250
4574		29.296875
4575		33.203125
4576		27.343750
4577		31.250000
4578		25.390625
4579		29.296875
4580		21.484375
4581		29.296875
4582		19.531250
4583		27.343750
4584		19.531250
4585		23.437500
4586		17.578125
4587		19.531250
4588		15.625000
4589		17.578125
4590		11.718750
4591		15.625000
4592		9.765625
4593		13.671875
4594		7.812500
4595		11.718750
4596		3.906250
4597		11.718750
4598		1.953125
4599		9.765625
4600		1.953125
4601		5.859375
4602		0.000000
4603		3.906250
4604		-1.953125
4605		1.953125
4606		-3.906250
4607		0.000000
4608		-5.859375
4609		-1.953125
4610		-9.765625
4611		-3.906250
4612		-11.718750
4613		-5.859375
4614		-11.718750
4615		-7.812500
4616		-13.671875
4617		-7.812500
4618		-15.625000
4619		-11.718750
4620		-17.578125
4621		-13.671875
4622		-17.578125
4623		-13.671875
4624		-19.531250
4625		-15.625000
4626		-21.484375
4627		-17.578125
4628		-21.484375
4629		-19.531250
4630		-23.437500
4631		-19.531250
4632		-23.437500
4633		-21.484375
4634		-25.390625
4635		-23.437500
4636		-25.390625
4637		-23.437500
4638		-27.343750
4639		-25.390625
4640		-27.343750
4641		-25.390625
4642		-29.296875
4643		-25.390625
4644		-29.296875
4645		-25.390625
4646		-29.296875
4647		-27.343750
4648		-29.296875
4649		-27.343750
4650		-29.296875
4651		-27.343750
4652		-29.296875
4653		-27.343750
4654		-29.296875
4655		-27.343750
4656		-29.296875
4657		-27.343750
4658		-29.296875
4659		-27.343750
4660		-29.296875
4661		-27.343750
4662		-29.296875
4663		-27.343750
4664		-29.296875
4665		-25.390625
4666		-27.343750
4667		-25.390625
4668		-27.343750
4669		-25.390625
4670		-27.343750
4671		-23.437500
4672		-25.390625
4673		-23.437500
4674		-25.390625
4675		-21.484375
4676		-23.437500
4677		-21.484375
4678		-23.437500
4679		-19.531250
4680		-21.484375
4681		-17.578125
4682		-19.531250
4683		-17.578125
4684		-19.531250
4685		-15.625000
4686		-17.578125
4687		-13.671875
4688		-15.625000
4689		-13.671875
4690		-15.625000
4691		-11.718750
4692		-11.718750
4693		-9.765625
4694		-11.718750
4695		-5.859375
4696		-9.765625
4697		-5.859375
4698		-7.812500
4699		-3.906250
4700		-5.859375
4701		-1.953125
4702		-3.906250
4703		0.000000
4704		-1.953125
4705		1.953125
4706		0.000000
4707		3.906250
4708		1.953125
4709		5.859375
4710		3.906250
4711		7.812500
4712		5.859375
4713		11.718750
4714		9.765625
4715		11.718750
4716		11.718750
4717		15.625000
4718		13.671875
4719		17.578125
4720		13.671875
4721		19.531250
4722		17.578125
4723		21.484375
4724		19.531250
4725		23.437500
4726		21.484375
4727		25.390625
4728		23.437500
4729		29.296875
4730		25.390625
4731		31.250000
4732		27.343750
4733		31.250000
4734		31.250000
4735		35.156250
4736		31.250000
4737		37.109375
4738		33.203125
4739		37.109375
4740		37.109375
4741		39.062500
4742		39.062500
4743		41.015625
4744		41.015625
4745		44.921875
4746		41.015625
4747		44.921875
4748		42.968750
4749		46.875000
4750		44.921875
4751		48.828125
4752		46.875000
4753		50.781250
4754		48.828125
4755		52.734375
4756		50.781250
4757		54.687500
4758		52.734375
4759		54.687500
4760		52.734375
4761		56.640625
4762		54.687500
4763		60.546875
4764		54.687500
4765		60.546875
4766		58.593750
4767		60.546875
4768		58.593750
4769		62.500000
4770		58.593750
4771		64.453125
4772		60.546875
4773		64.453125
4774		62.500000
4775		64.453125
4776		62.500000
4777		64.453125
4778		62.500000
4779		68.359375
4780		64.453125
4781		68.359375
4782		64.453125
4783		68.359375
4784		66.406250
4785		68.359375
4786		66.406250
4787		68.359375
4788		66.406250
4789		70.312500
4790		66.406250
4791		70.312500
4792		66.406250
4793		68.359375
4794		66.406250
4795		70.312500
4796		64.453125
4797		70.312500
4798		66.406250
4799		70.312500
4800		66.406250
4801		68.359375
4802		66.406250
4803		70.312500
4804		66.406250
4805		68.359375
4806		66.406250
4807		68.359375
4808		64.453125
4809		68.359375
4810		64.453125
4811		66.406250
4812		62.500000
4813		66.406250
4814		62.500000
4815		66.406250
4816		62.500000
4817		66.406250
4818		60.546875
4819		64.453125
4820		58.593750
4821		62.500000
4822		58.593750
4823		62.500000
4824		58.593750
4825		60.546875
4826		56.640625
4827		58.593750
4828		54.687500
4829		58.593750
4830		52.734375
4831		58.593750
4832		52.734375
4833		56.640625
4834		50.781250
4835		54.687500
4836		48.828125
4837		52.734375
4838		46.875000
4839		50.781250
4840		44.921875
4841		48.828125
4842		42.968750
4843		46.875000
4844		41.015625
4845		44.921875
4846		39.062500
4847		42.968750
4848		37.109375
4849		42.968750
4850		35.156250
4851		39.062500
4852		33.203125
4853		37.109375
4854		31.250000
4855		35.156250
4856		29.296875
4857		33.203125
4858		27.343750
4859		31.250000
4860		25.390625
4861		29.296875
4862		23.437500
4863		27.343750
4864		21.484375
4865		25.390625
4866		19.531250
4867		23.437500
4868		17.578125
4869		21.484375
4870		13.671875
4871		17.578125
4872		11.718750
4873		15.625000
4874		9.765625
4875		13.671875
4876		7.812500
4877		11.718750
4878		5.859375
4879		9.765625
4880		3.906250
4881		7.812500
4882		1.953125
4883		5.859375
4884		0.000000
4885		3.906250
4886		-1.953125
4887		1.953125
4888		-3.906250
4889		0.000000
4890		-5.859375
4891		-1.953125
4892		-7.812500
4893		-3.906250
4894		-9.765625
4895		-5.859375
4896		-11.718750
4897		-7.812500
4898		-13.671875
4899		-9.765625
4900		-15.625000
4901		-11.718750
4902		-17.578125
4903		-13.671875
4904		-17.578125
4905		-15.625000
4906		-19.531250
4907		-15.625000
4908		-21.484375
4909		-17.578125
4910		-21.484375
4911		-19.531250
4912		-23.437500
4913		-21.484375
4914		-25.390625
4915		-21.484375
4916		-25.390625
4917		-23.437500
4918		-27.343750
4919		-23.437500
4920		-27.343750
4921		-25.390625
4922		-27.343750
4923		-25.390625
4924		-29.296875
4925		-25.390625
4926		-29.296875
4927		-27.343750
4928		-29.296875
4929		-27.343750
4930		-29.296875
4931		-27.343750
4932		-31.250000
4933		-27.343750
4934		-31.250000
4935		-27.343750
4936		-31.250000
4937		-27.343750
4938		-31.250000
4939		-27.343750
4940		-31.250000
4941		-27.343750
4942		-29.296875
4943		-27.343750
4944		-29.296875
4945		-27.343750
4946		-29.296875
4947		-27.343750
4948		-29.296875
4949		-25.390625
4950		-27.343750
4951		-25.390625
4952		-27.343750
4953		-25.390625
4954		-27.343750
4955		-23.437500
4956		-25.390625
4957		-23.437500
4958		-23.437500
4959		-21.484375
4960		-23.437500
4961		-19.531250
4962		-23.437500
4963		-19.531250
4964		-21.484375
4965		-17.578125
4966		-19.531250
4967		-15.625000
4968		-17.578125
4969		-15.625000
4970		-15.625000
4971		-13.671875
4972		-15.625000
4973		-11.718750
4974		-13.671875
4975		-9.765625
4976		-11.718750
4977		-7.812500
4978		-9.765625
4979		-5.859375
4980		-7.812500
4981		-1.953125
4982		-5.859375
4983		-1.953125
4984		-3.906250
4985		0.000000
4986		-1.953125
4987		1.953125
4988		0.000000
4989		3.906250
4990		1.953125
4991		5.859375
4992		3.906250
4993		7.812500
4994		5.859375
4995		9.765625
4996		7.812500
4997		11.718750
4998		7.812500
4999		13.671875
5000		11.718750
5001		17.578125
5002		15.625000
5003		19.531250
5004		17.578125
5005		21.484375
5006		19.531250
5007		23.437500
5008		21.484375
5009		25.390625
5010		23.437500
5011		27.343750
5012		25.390625
5013		29.296875
5014		27.343750
5015		33.203125
5016		29.296875
5017		35.156250
5018		31.250000
5019		35.156250
5020		33.203125
5021		37.109375
5022		35.156250
5023		39.062500
5024		37.109375
5025		41.015625
5026		39.062500
5027		42.968750
5028		41.015625
5029		44.921875
5030		42.968750
5031		46.875000
5032		44.921875
5033		50.781250
5034		44.921875
5035		50.781250
5036		48.828125
5037		52.734375
5038		50.781250
5039		52.734375
5040		52.734375
5041		56.640625
5042		52.734375
5043		56.640625
5044		54.687500
5045		58.593750
5046		56.640625
5047		58.593750
5048		54.687500
5049		62.500000
5050		58.593750
5051		62.500000
5052		60.546875
5053		62.500000
5054		60.546875
5055		64.453125
5056		62.500000
5057		64.453125
5058		62.500000
5059		66.406250
5060		64.453125
5061		66.406250
5062		64.453125
5063		66.406250
5064		64.453125
5065		70.312500
5066		64.453125
5067		70.312500
5068		64.453125
5069		70.312500
5070		66.406250
5071		68.359375
5072		66.406250
5073		68.359375
5074		66.406250
5075		68.359375
5076		66.406250
5077		68.359375
5078		66.406250
5079		70.312500
5080		66.406250
5081		68.359375
5082		64.453125
5083		70.312500
5084		64.453125
5085		70.312500
5086		66.406250
5087		68.359375
5088		66.406250
5089		68.359375
5090		64.453125
5091		68.359375
5092		64.453125
5093		66.406250
5094		64.453125
5095		66.406250
5096		62.500000
5097		66.406250
5098		60.546875
5099		66.406250
5100		60.546875
5101		66.406250
5102		60.546875
5103		62.500000
5104		58.593750
5105		62.500000
5106		58.593750
5107		60.546875
5108		56.640625
5109		60.546875
5110		54.687500
5111		58.593750
5112		52.734375
5113		56.640625
5114		52.734375
5115		54.687500
5116		48.828125
5117		54.687500
5118		48.828125
5119		54.687500
5120		46.875000
5121		50.781250
5122		44.921875
5123		48.828125
5124		44.921875
5125		46.875000
5126		42.968750
5127		44.921875
5128		41.015625
5129		42.968750
5130		37.109375
5131		41.015625
5132		35.156250
5133		41.015625
5134		33.203125
5135		39.062500
5136		33.203125
5137		35.156250
5138		29.296875
5139		33.203125
5140		27.343750
5141		31.250000
5142		25.390625
5143		29.296875
5144		23.437500
5145		27.343750
5146		21.484375
5147		25.390625
5148		17.578125
5149		23.437500
5150		15.625000
5151		23.437500
5152		15.625000
5153		19.531250
5154		13.671875
5155		17.578125
5156		9.765625
5157		13.671875
5158		7.812500
5159		11.718750
5160		5.859375
5161		9.765625
5162		3.906250
5163		7.812500
5164		1.953125
5165		5.859375
5166		-1.953125
5167		5.859375
5168		-3.906250
5169		1.953125
5170		-3.906250
5171		0.000000
5172		-5.859375
5173		-1.953125
5174		-7.812500
5175		-3.906250
5176		-9.765625
5177		-5.859375
5178		-11.718750
5179		-7.812500
5180		-13.671875
5181		-9.765625
5182		-15.625000
5183		-11.718750
5184		-17.578125
5185		-11.718750
5186		-17.578125
5187		-15.625000
5188		-19.531250
5189		-15.625000
5190		-21.484375
5191		-17.578125
5192		-23.437500
5193		-19.531250
5194		-23.437500
5195		-19.531250
5196		-25.390625
5197		-21.484375
5198		-25.390625
5199		-23.437500
5200		-27.343750
5201		-23.437500
5202		-27.343750
5203		-25.390625
5204		-27.343750
5205		-25.390625
5206		-29.296875
5207		-25.390625
5208		-29.296875
5209		-27.343750
5210		-29.296875
5211		-27.343750
5212		-29.296875
5213		-27.343750
5214		-29.296875
5215		-27.343750
5216		-31.250000
5217		-27.343750
5218		-31.250000
5219		-27.343750
5220		-31.250000
5221		-27.343750
5222		-31.250000
5223		-27.343750
5224		-29.296875
5225		-27.343750
5226		-29.296875
5227		-27.343750
5228		-29.296875
5229		-27.343750
5230		-29.296875
5231		-25.390625
5232		-27.343750
5233		-25.390625
5234		-27.343750
5235		-23.437500
5236		-25.390625
5237		-23.437500
5238		-25.390625
5239		-23.437500
5240		-23.437500
5241		-21.484375
5242		-23.437500
5243		-19.531250
5244		-21.484375
5245		-19.531250
5246		-21.484375
5247		-17.578125
5248		-19.531250
5249		-15.625000
5250		-17.578125
5251		-13.671875
5252		-15.625000
5253		-13.671875
5254		-15.625000
5255		-11.718750
5256		-13.671875
5257		-9.765625
5258		-11.718750
5259		-7.812500
5260		-9.765625
5261		-5.859375
5262		-7.812500
5263		-3.906250
5264		-5.859375
5265		-1.953125
5266		-3.906250
5267		0.000000
5268		-1.953125
5269		1.953125
5270		0.000000
5271		3.906250
5272		1.953125
5273		5.859375
5274		3.906250
5275		7.812500
5276		5.859375
5277		9.765625
5278		7.812500
5279		11.718750
5280		9.765625
5281		13.671875
5282		11.718750
5283		15.625000
5284		13.671875
5285		17.578125
5286		17.578125
5287		19.531250
5288		19.531250
5289		21.484375
5290		21.484375
5291		25.390625
5292		23.437500
5293		27.343750
5294		25.390625
5295		29.296875
5296		27.343750
5297		31.250000
5298		29.296875
5299		33.203125
5300		31.250000
5301		35.156250
5302		33.203125
5303		37.109375
5304		35.156250
5305		39.062500
5306		37.109375
5307		41.015625
5308		39.062500
5309		42.968750
5310		41.015625
5311		44.921875
5312		42.968750
5313		46.875000
5314		44.921875
5315		48.828125
5316		46.875000
5317		50.781250
5318		46.875000
5319		50.781250
5320		50.781250
5321		52.734375
5322		50.781250
5323		54.687500
5324		52.734375
5325		56.640625
5326		54.687500
5327		56.640625
5328		56.640625
5329		58.593750
5330		56.640625
5331		60.546875
5332		58.593750
5333		60.546875
5334		58.593750
5335		62.500000
5336		60.546875
5337		64.453125
5338		62.500000
5339		64.453125
5340		62.500000
5341		64.453125
5342		62.500000
5343		66.406250
5344		64.453125
5345		66.406250
5346		64.453125
5347		66.406250
5348		64.453125
5349		68.359375
5350		66.406250
5351		68.359375
5352		66.406250
5353		68.359375
5354		66.406250
5355		68.359375
5356		66.406250
5357		68.359375
5358		66.406250
5359		68.359375
5360		66.406250
5361		68.359375
5362		66.406250
5363		68.359375
5364		66.406250
5365		68.359375
5366		66.406250
5367		68.359375
5368		66.406250
5369		68.359375
5370		66.406250
5371		68.359375
5372		64.453125
5373		68.359375
5374		64.453125
5375		66.406250
5376		62.500000
5377		66.406250
5378		62.500000
5379		64.453125
5380		62.500000
5381		64.453125
5382		60.546875
5383		64.453125
5384		60.546875
5385		62.500000
5386		58.593750
5387		62.500000
5388		56.640625
5389		60.546875
5390		56.640625
5391		58.593750
5392		54.687500
5393		58.593750
5394		52.734375
5395		56.640625
5396		52.734375
5397		54.687500
5398		50.781250
5399		54.687500
5400		48.828125
5401		52.734375
5402		46.875000
5403		50.781250
5404		44.921875
5405		48.828125
5406		42.968750
5407		46.875000
5408		41.015625
5409		44.921875
5410		41.015625
5411		42.968750
5412		37.109375
5413		41.015625
5414		37.109375
5415		39.062500
5416		35.156250
5417		37.109375
5418		33.203125
5419		35.156250
5420		29.296875
5421		33.203125
5422		27.343750
5423		31.250000
5424		25.390625
5425		29.296875
5426		23.437500
5427		27.343750
5428		21.484375
5429		25.390625
5430		19.531250
5431		23.437500
5432		17.578125
5433		21.484375
5434		15.625000
5435		17.578125
5436		11.718750
5437		15.625000
5438		9.765625
5439		13.671875
5440		7.812500
5441		11.718750
5442		5.859375
5443		9.765625
5444		3.906250
5445		7.812500
5446		1.953125
5447		5.859375
5448		0.000000
5449		3.906250
5450		-1.953125
5451		1.953125
5452		-3.906250
5453		0.000000
5454		-5.859375
5455		-1.953125
5456		-7.812500
5457		-3.906250
5458		-9.765625
5459		-5.859375
5460		-11.718750
5461		-7.812500
5462		-13.671875
5463		-9.765625
5464		-15.625000
5465		-11.718750
5466		-15.625000
5467		-13.671875
5468		-17.578125
5469		-15.625000
5470		-19.531250
5471		-15.625000
5472		-21.484375
5473		-17.578125
5474		-21.484375
5475		-19.531250
5476		-23.437500
5477		-21.484375
5478		-23.437500
5479		-21.484375
5480		-25.390625
5481		-23.437500
5482		-27.343750
5483		-23.437500
5484		-27.343750
5485		-25.390625
5486		-27.343750
5487		-25.390625
5488		-29.296875
5489		-25.390625
5490		-29.296875
5491		-27.343750
5492		-29.296875
5493		-27.343750
5494		-29.296875
5495		-27.343750
5496		-31.250000
5497		-27.343750
5498		-31.250000
5499		-27.343750
5500		-31.250000
5501		-29.296875
5502		-31.250000
5503		-29.296875
5504		-31.250000
5505		-29.296875
5506		-29.296875
5507		-27.343750
5508		-29.296875
5509		-27.343750
5510		-29.296875
5511		-27.343750
5512		-29.296875
5513		-27.343750
5514		-29.296875
5515		-25.390625
5516		-27.343750
5517		-25.390625
5518		-27.343750
5519		-23.437500
5520		-27.343750
5521		-23.437500
5522		-25.390625
5523		-21.484375
5524		-23.437500
5525		-21.484375
5526		-21.484375
5527		-19.531250
5528		-21.484375
5529		-17.578125
5530		-19.531250
5531		-17.578125
5532		-19.531250
5533		-15.625000
5534		-17.578125
5535		-13.671875
5536		-15.625000
5537		-11.718750
5538		-13.671875
5539		-9.765625
5540		-11.718750
5541		-7.812500
5542		-9.765625
5543		-5.859375
5544		-7.812500
5545		-5.859375
5546		-5.859375
5547		-1.953125
5548		-5.859375
5549		-1.953125
5550		-1.953125
5551		1.953125
5552		0.000000
5553		1.953125
5554		1.953125
5555		5.859375
5556		3.906250
5557		7.812500
5558		5.859375
5559		9.765625
5560		7.812500
5561		11.718750
5562		9.765625
5563		13.671875
5564		11.718750
5565		15.625000
5566		13.671875
5567		17.578125
5568		15.625000
5569		19.531250
5570		17.578125
5571		21.484375
5572		21.484375
5573		25.390625
5574		23.437500
5575		27.343750
5576		25.390625
5577		29.296875
5578		27.343750
5579		31.250000
5580		29.296875
5581		33.203125
5582		31.250000
5583		35.156250
5584		33.203125
5585		37.109375
5586		35.156250
5587		39.062500
5588		37.109375
5589		41.015625
5590		39.062500
5591		42.968750
5592		41.015625
5593		44.921875
5594		42.968750
5595		46.875000
5596		44.921875
5597		48.828125
5598		46.875000
5599		48.828125
5600		48.828125
5601		50.781250
5602		48.828125
5603		52.734375
5604		50.781250
5605		54.687500
5606		52.734375
5607		56.640625
5608		54.687500
5609		56.640625
5610		56.640625
5611		58.593750
5612		56.640625
5613		60.546875
5614		58.593750
5615		60.546875
5616		58.593750
5617		62.500000
5618		60.546875
5619		62.500000
5620		62.500000
5621		64.453125
5622		62.500000
5623		64.453125
5624		62.500000
5625		66.406250
5626		64.453125
5627		66.406250
5628		64.453125
5629		66.406250
5630		64.453125
5631		68.359375
5632		66.406250
5633		68.359375
5634		66.406250
5635		68.359375
5636		66.406250
5637		68.359375
5638		66.406250
5639		68.359375
5640		66.406250
5641		68.359375
5642		66.406250
5643		70.312500
5644		66.406250
5645		68.359375
5646		66.406250
5647		68.359375
5648		66.406250
5649		68.359375
5650		66.406250
5651		68.359375
5652		66.406250
5653		68.359375
5654		64.453125
5655		68.359375
5656		64.453125
5657		66.406250
5658		64.453125
5659		66.406250
5660		62.500000
5661		66.406250
5662		62.500000
5663		64.453125
5664		60.546875
5665		64.453125
5666		60.546875
5667		62.500000
5668		58.593750
5669		62.500000
5670		58.593750
5671		60.546875
5672		56.640625
5673		60.546875
5674		54.687500
5675		58.593750
5676		54.687500
5677		56.640625
5678		52.734375
5679		56.640625
5680		50.781250
5681		54.687500
5682		48.828125
5683		52.734375
5684		46.875000
5685		50.781250
5686		46.875000
5687		48.828125
5688		44.921875
5689		46.875000
5690		42.968750
5691		44.921875
5692		41.015625
5693		42.968750
5694		39.062500
5695		41.015625
5696		35.156250
5697		39.062500
5698		35.156250
5699		39.062500
5700		33.203125
5701		35.156250
5702		31.250000
5703		33.203125
5704		27.343750
5705		31.250000
5706		25.390625
5707		29.296875
5708		23.437500
5709		27.343750
5710		21.484375
5711		25.390625
5712		19.531250
5713		23.437500
5714		17.578125
5715		21.484375
5716		15.625000
5717		19.531250
5718		13.671875
5719		17.578125
5720		11.718750
5721		15.625000
5722		7.812500
5723		11.718750
5724		5.859375
5725		9.765625
5726		3.906250
5727		7.812500
5728		1.953125
5729		5.859375
5730		0.000000
5731		3.906250
5732		-1.953125
5733		1.953125
5734		-3.906250
5735		0.000000
5736		-5.859375
5737		-1.953125
5738		-7.812500
5739		-3.906250
5740		-9.765625
5741		-5.859375
5742		-11.718750
5743		-7.812500
5744		-13.671875
5745		-9.765625
5746		-15.625000
5747		-11.718750
5748		-15.625000
5749		-13.671875
5750		-17.578125
5751		-15.625000
5752		-19.531250
5753		-15.625000
5754		-21.484375
5755		-17.578125
5756		-21.484375
5757		-19.531250
5758		-23.437500
5759		-21.484375
5760		-25.390625
5761		-21.484375
5762		-25.390625
5763		-23.437500
5764		-27.343750
5765		-23.437500
5766		-27.343750
5767		-25.390625
5768		-29.296875
5769		-25.390625
5770		-29.296875
5771		-27.343750
5772		-29.296875
5773		-27.343750
5774		-29.296875
5775		-27.343750
5776		-29.296875
5777		-27.343750
5778		-31.250000
5779		-29.296875
5780		-31.250000
5781		-29.296875
5782		-31.250000
5783		-29.296875
5784		-31.250000
5785		-29.296875
5786		-31.250000
5787		-29.296875
5788		-31.250000
5789		-27.343750
5790		-31.250000
5791		-27.343750
5792		-29.296875
5793		-27.343750
5794		-29.296875
5795		-27.343750
5796		-29.296875
5797		-25.390625
5798		-27.343750
5799		-25.390625
5800		-27.343750
5801		-25.390625
5802		-27.343750
5803		-23.437500
5804		-25.390625
5805		-21.484375
5806		-23.437500
5807		-21.484375
5808		-23.437500
5809		-19.531250
5810		-21.484375
5811		-19.531250
5812		-19.531250
5813		-17.578125
5814		-19.531250
5815		-15.625000
5816		-17.578125
5817		-13.671875
5818		-15.625000
5819		-13.671875
5820		-13.671875
5821		-9.765625
5822		-11.718750
5823		-9.765625
5824		-9.765625
5825		-7.812500
5826		-9.765625
5827		-5.859375
5828		-7.812500
5829		-3.906250
5830		-5.859375
5831		-1.953125
5832		-3.906250
5833		0.000000
5834		-1.953125
5835		1.953125
5836		0.000000
5837		3.906250
5838		1.953125
5839		5.859375
5840		5.859375
5841		7.812500
5842		7.812500
5843		11.718750
5844		9.765625
5845		13.671875
5846		11.718750
5847		15.625000
5848		13.671875
5849		17.578125
5850		15.625000
5851		19.531250
5852		17.578125
5853		21.484375
5854		19.531250
5855		23.437500
5856		21.484375
5857		25.390625
5858		23.437500
5859		27.343750
5860		27.343750
5861		29.296875
5862		29.296875
5863		31.250000
5864		29.296875
5865		35.156250
5866		33.203125
5867		37.109375
5868		35.156250
5869		39.062500
5870		37.109375
5871		41.015625
5872		39.062500
5873		41.015625
5874		41.015625
5875		42.968750
5876		42.968750
5877		44.921875
5878		44.921875
5879		46.875000
5880		44.921875
5881		48.828125
5882		46.875000
5883		50.781250
5884		48.828125
5885		52.734375
5886		50.781250
5887		54.687500
5888		52.734375
5889		54.687500
5890		52.734375
5891		56.640625
5892		54.687500
5893		58.593750
5894		56.640625
5895		58.593750
5896		58.593750
5897		60.546875
5898		58.593750
5899		62.500000
5900		60.546875
5901		62.500000
5902		60.546875
5903		64.453125
5904		62.500000
5905		64.453125
5906		62.500000
5907		66.406250
5908		62.500000
5909		66.406250
5910		64.453125
5911		66.406250
5912		64.453125
5913		66.406250
5914		64.453125
5915		68.359375
5916		64.453125
5917		68.359375
5918		66.406250
5919		68.359375
5920		66.406250
5921		68.359375
5922		66.406250
5923		68.359375
5924		66.406250
5925		68.359375
5926		66.406250
5927		68.359375
5928		66.406250
5929		68.359375
5930		66.406250
5931		68.359375
5932		66.406250
5933		68.359375
5934		66.406250
5935		68.359375
5936		64.453125
5937		68.359375
5938		64.453125
5939		66.406250
5940		64.453125
5941		66.406250
5942		62.500000
5943		64.453125
5944		62.500000
5945		64.453125
5946		60.546875
5947		64.453125
5948		60.546875
5949		62.500000
5950		58.593750
5951		62.500000
5952		58.593750
5953		60.546875
5954		56.640625
5955		58.593750
5956		54.687500
5957		58.593750
5958		54.687500
5959		56.640625
5960		52.734375
5961		54.687500
5962		50.781250
5963		54.687500
5964		48.828125
5965		52.734375
5966		46.875000
5967		50.781250
5968		46.875000
5969		48.828125
5970		42.968750
5971		46.875000
5972		41.015625
5973		46.875000
5974		41.015625
5975		42.968750
5976		39.062500
5977		41.015625
5978		35.156250
5979		41.015625
5980		35.156250
5981		37.109375
5982		31.250000
5983		35.156250
5984		31.250000
5985		35.156250
5986		27.343750
5987		31.250000
5988		25.390625
5989		29.296875
5990		23.437500
5991		27.343750
5992		21.484375
5993		25.390625
5994		19.531250
5995		23.437500
5996		17.578125
5997		21.484375
5998		15.625000
5999		19.531250
6000		13.671875
6001		17.578125
6002		9.765625
6003		13.671875
6004		7.812500
6005		11.718750
6006		5.859375
6007		9.765625
6008		3.906250
6009		7.812500
6010		1.953125
6011		5.859375
6012		0.000000
6013		3.906250
6014		-1.953125
6015		1.953125
6016		-3.906250
6017		0.000000
6018		-5.859375
6019		-1.953125
6020		-7.812500
6021		-3.906250
6022		-9.765625
6023		-5.859375
6024		-11.718750
6025		-7.812500
6026		-13.671875
6027		-9.765625
6028		-15.625000
6029		-11.718750
6030		-15.625000
6031		-13.671875
6032		-17.578125
6033		-15.625000
6034		-19.531250
6035		-15.625000
6036		-21.484375
6037		-17.578125
6038		-21.484375
6039		-19.531250
6040		-23.437500
6041		-19.531250
6042		-25.390625
6043		-21.484375
6044		-27.343750
6045		-21.484375
6046		-27.343750
6047		-23.437500
6048		-29.296875
6049		-23.437500
6050		-29.296875
6051		-25.390625
6052		-29.296875
6053		-27.343750
6054		-29.296875
6055		-27.343750
6056		-29.296875
6057		-27.343750
6058		-29.296875
6059		-27.343750
6060		-33.203125
6061		-27.343750
6062		-31.250000
6063		-27.343750
6064		-33.203125
6065		-27.343750
6066		-31.250000
6067		-27.343750
6068		-31.250000
6069		-27.343750
6070		-31.250000
6071		-29.296875
6072		-31.250000
6073		-27.343750
6074		-31.250000
6075		-27.343750
6076		-29.296875
6077		-27.343750
6078		-31.250000
6079		-25.390625
6080		-29.296875
6081		-25.390625
6082		-29.296875
6083		-23.437500
6084		-25.390625
6085		-23.437500
6086		-27.343750
6087		-21.484375
6088		-25.390625
6089		-21.484375
6090		-23.437500
6091		-19.531250
6092		-23.437500
6093		-17.578125
6094		-21.484375
6095		-15.625000
6096		-19.531250
6097		-15.625000
6098		-17.578125
6099		-11.718750
6100		-15.625000
6101		-13.671875
6102		-15.625000
6103		-7.812500
6104		-11.718750
6105		-9.765625
6106		-11.718750
6107		-7.812500
6108		-9.765625
6109		-5.859375
6110		-9.765625
6111		-1.953125
6112		-5.859375
6113		-1.953125
6114		-3.906250
6115		0.000000
6116		-1.953125
6117		1.953125
6118		0.000000
6119		7.812500
6120		1.953125
6121		5.859375
6122		5.859375
6123		7.812500
6124		5.859375
6125		11.718750
6126		7.812500
6127		15.625000
6128		11.718750
6129		15.625000
6130		13.671875
6131		17.578125
6132		13.671875
6133		23.437500
6134		15.625000
6135		21.484375
6136		17.578125
6137		25.390625
6138		21.484375
6139		25.390625
6140		23.437500
6141		27.343750
6142		25.390625
6143		33.203125
6144		27.343750
6145		33.203125
6146		29.296875
6147		35.156250
6148		33.203125
6149		37.109375
6150		31.250000
6151		41.015625
6152		33.203125
6153		42.968750
6154		39.062500
6155		41.015625
6156		41.015625
6157		42.968750
6158		41.015625
6159		46.875000
6160		41.015625
6161		50.781250
6162		42.968750
6163		50.781250
6164		46.875000
6165		50.781250
6166		46.875000
6167		56.640625
6168		50.781250
6169		54.687500
6170		48.828125
6171		58.593750
6172		52.734375
6173		56.640625
6174		54.687500
6175		58.593750
6176		54.687500
6177		62.500000
6178		56.640625
6179		62.500000
6180		58.593750
6181		62.500000
6182		58.593750
6183		64.453125
6184		58.593750
6185		66.406250
6186		58.593750
6187		68.359375
6188		62.500000
6189		64.453125
6190		64.453125
6191		66.406250
6192		62.500000
6193		68.359375
6194		62.500000
6195		70.312500
6196		64.453125
6197		68.359375
6198		66.406250
6199		68.359375
6200		62.500000
6201		72.265625
6202		64.453125
6203		72.265625
6204		66.406250
6205		68.359375
6206		66.406250
6207		68.359375
6208		64.453125
6209		70.312500
6210		64.453125
6211		72.265625
6212		64.453125
6213		70.312500
6214		66.406250
6215		68.359375
6216		62.500000
6217		70.312500
6218		62.500000
6219		70.312500
6220		60.546875
6221		68.359375
6222		64.453125
6223		66.406250
6224		62.500000
6225		66.406250
6226		60.546875
6227		66.406250
6228		58.593750
6229		66.406250
6230		58.593750
6231		64.453125
6232		58.593750
6233		62.500000
6234		54.687500
6235		64.453125
6236		54.687500
6237		62.500000
6238		54.687500
6239		58.593750
6240		54.687500
6241		56.640625
6242		52.734375
6243		56.640625
6244		48.828125
6245		56.640625
6246		48.828125
6247		54.687500
6248		46.875000
6249		50.781250
6250		41.015625
6251		50.781250
6252		42.968750
6253		50.781250
6254		41.015625
6255		48.828125
6256		41.015625
6257		42.968750
6258		37.109375
6259		42.968750
6260		33.203125
6261		41.015625
6262		33.203125
6263		39.062500
6264		33.203125
6265		35.156250
6266		29.296875
6267		35.156250
6268		25.390625
6269		35.156250
6270		25.390625
6271		31.250000
6272		23.437500
6273		27.343750
6274		21.484375
6275		25.390625
6276		17.578125
6277		23.437500
6278		15.625000
6279		23.437500
6280		15.625000
6281		19.531250
6282		13.671875
6283		17.578125
6284		7.812500
6285		17.578125
6286		7.812500
6287		13.671875
6288		5.859375
6289		9.765625
6290		3.906250
6291		7.812500
6292		1.953125
6293		5.859375
6294		-1.953125
6295		5.859375
6296		-3.906250
6297		1.953125
6298		-3.906250
6299		0.000000
6300		-7.812500
6301		0.000000
6302		-9.765625
6303		-1.953125
6304		-11.718750
6305		-3.906250
6306		-11.718750
6307		-7.812500
6308		-13.671875
6309		-9.765625
6310		-15.625000
6311		-11.718750
6312		-17.578125
6313		-9.765625
6314		-19.531250
6315		-13.671875
6316		-19.531250
6317		-17.578125
6318		-21.484375
6319		-15.625000
6320		-25.390625
6321		-17.578125
6322		-23.437500
6323		-19.531250
6324		-25.390625
6325		-21.484375
6326		-27.343750
6327		-23.437500
6328		-27.343750
6329		-21.484375
6330		-29.296875
6331		-23.437500
6332		-29.296875
6333		-25.390625
6334		-31.250000
6335		-25.390625
6336		-29.296875
6337		-27.343750
6338		-31.250000
6339		-27.343750
6340		-31.250000
6341		-29.296875
6342		-31.250000
6343		-29.296875
6344		-31.250000
6345		-29.296875
6346		-33.203125
6347		-27.343750
6348		-31.250000
6349		-29.296875
6350		-33.203125
6351		-27.343750
6352		-31.250000
6353		-29.296875
6354		-31.250000
6355		-29.296875
6356		-31.250000
6357		-27.343750
6358		-29.296875
6359		-27.343750
6360		-31.250000
6361		-25.390625
6362		-29.296875
6363		-25.390625
6364		-29.296875
6365		-25.390625
6366		-27.343750
6367		-23.437500
6368		-25.390625
6369		-23.437500
6370		-25.390625
6371		-21.484375
6372		-25.390625
6373		-21.484375
6374		-23.437500
6375		-19.531250
6376		-21.484375
6377		-17.578125
6378		-19.531250
6379		-17.578125
6380		-17.578125
6381		-15.625000
6382		-17.578125
6383		-13.671875
6384		-15.625000
6385		-11.718750
6386		-13.671875
6387		-9.765625
6388		-11.718750
6389		-7.812500
6390		-9.765625
6391		-5.859375
6392		-7.812500
6393		-3.906250
6394		-7.812500
6395		-1.953125
6396		-5.859375
6397		0.000000
6398		-3.906250
6399		1.953125
6400		-1.953125
6401		3.906250
6402		1.953125
6403		5.859375
6404		1.953125
6405		9.765625
6406		5.859375
6407		9.765625
6408		7.812500
6409		11.718750
6410		9.765625
6411		13.671875
6412		11.718750
6413		17.578125
6414		13.671875
6415		19.531250
6416		15.625000
6417		21.484375
6418		17.578125
6419		23.437500
6420		21.484375
6421		25.390625
6422		21.484375
6423		27.343750
6424		25.390625
6425		29.296875
6426		27.343750
6427		31.250000
6428		29.296875
6429		35.156250
6430		31.250000
6431		37.109375
6432		33.203125
6433		39.062500
6434		35.156250
6435		41.015625
6436		37.109375
6437		42.968750
6438		39.062500
6439		44.921875
6440		41.015625
6441		44.921875
6442		42.968750
6443		46.875000
6444		44.921875
6445		48.828125
6446		44.921875
6447		50.781250
6448		46.875000
6449		52.734375
6450		46.875000
6451		54.687500
6452		50.781250
6453		56.640625
6454		50.781250
6455		58.593750
6456		52.734375
6457		58.593750
6458		54.687500
6459		58.593750
6460		56.640625
6461		60.546875
6462		56.640625
6463		62.500000
6464		58.593750
6465		62.500000
6466		58.593750
6467		64.453125
6468		60.546875
6469		64.453125
6470		60.546875
6471		66.406250
6472		62.500000
6473		66.406250
6474		64.453125
6475		66.406250
6476		64.453125
6477		66.406250
6478		62.500000
6479		68.359375
6480		64.453125
6481		68.359375
6482		64.453125
6483		70.312500
6484		64.453125
6485		70.312500
6486		64.453125
6487		70.312500
6488		64.453125
6489		68.359375
6490		66.406250
6491		68.359375
6492		66.406250
6493		68.359375
6494		64.453125
6495		68.359375
6496		64.453125
6497		68.359375
6498		64.453125
6499		68.359375
6500		62.500000
6501		68.359375
6502		62.500000
6503		66.406250
6504		62.500000
6505		66.406250
6506		62.500000
6507		66.406250
6508		62.500000
6509		64.453125
6510		60.546875
6511		64.453125
6512		58.593750
6513		62.500000
6514		58.593750
6515		62.500000
6516		54.687500
6517		60.546875
6518		56.640625
6519		60.546875
6520		54.687500
6521		58.593750
6522		52.734375
6523		56.640625
6524		52.734375
6525		54.687500
6526		50.781250
6527		54.687500
6528		48.828125
6529		52.734375
6530		46.875000
6531		50.781250
6532		44.921875
6533		48.828125
6534		42.968750
6535		48.828125
6536		42.968750
6537		44.921875
6538		39.062500
6539		44.921875
6540		39.062500
6541		42.968750
6542		37.109375
6543		39.062500
6544		33.203125
6545		39.062500
6546		33.203125
6547		35.156250
6548		29.296875
6549		35.156250
6550		27.343750
6551		33.203125
6552		25.390625
6553		31.250000
6554		23.437500
6555		27.343750
6556		21.484375
6557		25.390625
6558		19.531250
6559		23.437500
6560		17.578125
6561		21.484375
6562		15.625000
6563		19.531250
6564		11.718750
6565		17.578125
6566		9.765625
6567		15.625000
6568		7.812500
6569		13.671875
6570		5.859375
6571		9.765625
6572		3.906250
6573		7.812500
6574		1.953125
6575		5.859375
6576		0.000000
6577		3.906250
6578		-1.953125
6579		1.953125
6580		-3.906250
6581		0.000000
6582		-5.859375
6583		-1.953125
6584		-7.812500
6585		-3.906250
6586		-9.765625
6587		-5.859375
6588		-11.718750
6589		-5.859375
6590		-13.671875
6591		-9.765625
6592		-15.625000
6593		-11.718750
6594		-17.578125
6595		-13.671875
6596		-17.578125
6597		-15.625000
6598		-19.531250
6599		-15.625000
6600		-23.437500
6601		-17.578125
6602		-23.437500
6603		-19.531250
6604		-25.390625
6605		-19.531250
6606		-25.390625
6607		-21.484375
6608		-25.390625
6609		-23.437500
6610		-27.343750
6611		-25.390625
6612		-29.296875
6613		-25.390625
6614		-29.296875
6615		-25.390625
6616		-29.296875
6617		-25.390625
6618		-31.250000
6619		-27.343750
6620		-31.250000
6621		-27.343750
6622		-31.250000
6623		-27.343750
6624		-31.250000
6625		-27.343750
6626		-31.250000
6627		-29.296875
6628		-31.250000
6629		-29.296875
6630		-31.250000
6631		-29.296875
6632		-31.250000
6633		-29.296875
6634		-33.203125
6635		-27.343750
6636		-31.250000
6637		-27.343750
6638		-31.250000
6639		-27.343750
6640		-31.250000
6641		-27.343750
6642		-29.296875
6643		-27.343750
6644		-29.296875
6645		-25.390625
6646		-29.296875
6647		-25.390625
6648		-27.343750
6649		-23.437500
6650		-27.343750
6651		-23.437500
6652		-25.390625
6653		-21.484375
6654		-23.437500
6655		-21.484375
6656		-23.437500
6657		-19.531250
6658		-23.437500
6659		-17.578125
6660		-19.531250
6661		-17.578125
6662		-19.531250
6663		-15.625000
6664		-17.578125
6665		-13.671875
6666		-15.625000
6667		-11.718750
6668		-13.671875
6669		-9.765625
6670		-13.671875
6671		-7.812500
6672		-9.765625
6673		-5.859375
6674		-7.812500
6675		-3.906250
6676		-5.859375
6677		-3.906250
6678		-3.906250
6679		0.000000
6680		-3.906250
6681		1.953125
6682		0.000000
6683		3.906250
6684		1.953125
6685		5.859375
6686		3.906250
6687		7.812500
6688		5.859375
6689		9.765625
6690		7.812500
6691		11.718750
6692		9.765625
6693		13.671875
6694		11.718750
6695		15.625000
6696		13.671875
6697		17.578125
6698		15.625000
6699		19.531250
6700		19.531250
6701		23.437500
6702		21.484375
6703		25.390625
6704		21.484375
6705		27.343750
6706		25.390625
6707		29.296875
6708		27.343750
6709		31.250000
6710		29.296875
6711		33.203125
6712		31.250000
6713		35.156250
6714		33.203125
6715		37.109375
6716		35.156250
6717		39.062500
6718		37.109375
6719		41.015625
6720		39.062500
6721		42.968750
6722		41.015625
6723		44.921875
6724		42.968750
6725		46.875000
6726		44.921875
6727		48.828125
6728		46.875000
6729		48.828125
6730		46.875000
6731		52.734375
6732		48.828125
6733		52.734375
6734		50.781250
6735		54.687500
6736		52.734375
6737		56.640625
6738		54.687500
6739		56.640625
6740		54.687500
6741		58.593750
6742		54.687500
6743		60.546875
6744		58.593750
6745		60.546875
6746		58.593750
6747		62.500000
6748		58.593750
6749		64.453125
6750		60.546875
6751		64.453125
6752		60.546875
6753		64.453125
6754		62.500000
6755		66.406250
6756		62.500000
6757		66.406250
6758		64.453125
6759		68.359375
6760		64.453125
6761		66.406250
6762		64.453125
6763		68.359375
6764		64.453125
6765		68.359375
6766		64.453125
6767		68.359375
6768		64.453125
6769		68.359375
6770		66.406250
6771		68.359375
6772		64.453125
6773		68.359375
6774		64.453125
6775		68.359375
6776		66.406250
6777		68.359375
6778		64.453125
6779		68.359375
6780		64.453125
6781		68.359375
6782		64.453125
6783		66.406250
6784		62.500000
6785		66.406250
6786		62.500000
6787		66.406250
6788		62.500000
6789		64.453125
6790		60.546875
6791		64.453125
6792		60.546875
6793		64.453125
6794		60.546875
6795		62.500000
6796		58.593750
6797		62.500000
6798		56.640625
6799		60.546875
6800		56.640625
6801		58.593750
6802		54.687500
6803		58.593750
6804		52.734375
6805		56.640625
6806		52.734375
6807		54.687500
6808		48.828125
6809		54.687500
6810		48.828125
6811		52.734375
6812		46.875000
6813		50.781250
6814		44.921875
6815		48.828125
6816		42.968750
6817		46.875000
6818		42.968750
6819		44.921875
6820		39.062500
6821		42.968750
6822		39.062500
6823		41.015625
6824		35.156250
6825		41.015625
6826		35.156250
6827		39.062500
6828		33.203125
6829		35.156250
6830		29.296875
6831		33.203125
6832		27.343750
6833		31.250000
6834		25.390625
6835		29.296875
6836		23.437500
6837		27.343750
6838		21.484375
6839		25.390625
6840		19.531250
6841		23.437500
6842		17.578125
6843		21.484375
6844		15.625000
6845		19.531250
6846		11.718750
6847		15.625000
6848		9.765625
6849		15.625000
6850		7.812500
6851		11.718750
6852		5.859375
6853		9.765625
6854		3.906250
6855		7.812500
6856		1.953125
6857		5.859375
6858		-1.953125
6859		3.906250
6860		-1.953125
6861		1.953125
6862		-3.906250
6863		0.000000
6864		-7.812500
6865		-1.953125
6866		-7.812500
6867		-3.906250
6868		-9.765625
6869		-5.859375
6870		-11.718750
6871		-7.812500
6872		-13.671875
6873		-9.765625
6874		-15.625000
6875		-11.718750
6876		-17.578125
6877		-13.671875
6878		-17.578125
6879		-15.625000
6880		-21.484375
6881		-17.578125
6882		-21.484375
6883		-17.578125
6884		-23.437500
6885		-19.531250
6886		-23.437500
6887		-21.484375
6888		-25.390625
6889		-21.484375
6890		-27.343750
6891		-23.437500
6892		-27.343750
6893		-23.437500
6894		-29.296875
6895		-25.390625
6896		-29.296875
6897		-27.343750
6898		-31.250000
6899		-27.343750
6900		-31.250000
6901		-27.343750
6902		-31.250000
6903		-27.343750
6904		-33.203125
6905		-27.343750
6906		-31.250000
6907		-29.296875
6908		-33.203125
6909		-29.296875
6910		-33.203125
6911		-29.296875
6912		-31.250000
6913		-29.296875
6914		-33.203125
6915		-29.296875
6916		-31.250000
6917		-29.296875
6918		-31.250000
6919		-29.296875
6920		-31.250000
6921		-29.296875
6922		-31.250000
6923		-27.343750
6924		-31.250000
6925		-27.343750
6926		-29.296875
6927		-27.343750
6928		-29.296875
6929		-25.390625
6930		-27.343750
6931		-23.437500
6932		-27.343750
6933		-23.437500
6934		-27.343750
6935		-23.437500
6936		-25.390625
6937		-21.484375
6938		-23.437500
6939		-19.531250
6940		-21.484375
6941		-19.531250
6942		-21.484375
6943		-17.578125
6944		-19.531250
6945		-15.625000
6946		-17.578125
6947		-15.625000
6948		-17.578125
6949		-13.671875
6950		-15.625000
6951		-11.718750
6952		-13.671875
6953		-9.765625
6954		-11.718750
6955		-7.812500
6956		-9.765625
6957		-5.859375
6958		-7.812500
6959		-3.906250
6960		-5.859375
6961		-1.953125
6962		-3.906250
6963		0.000000
6964		-1.953125
6965		3.906250
6966		0.000000
6967		5.859375
6968		1.953125
6969		7.812500
6970		3.906250
6971		7.812500
6972		7.812500
6973		11.718750
6974		9.765625
6975		13.671875
6976		11.718750
6977		15.625000
6978		13.671875
6979		17.578125
6980		15.625000
6981		19.531250
6982		17.578125
6983		21.484375
6984		19.531250
6985		23.437500
6986		21.484375
6987		25.390625
6988		23.437500
6989		29.296875
6990		25.390625
6991		31.250000
6992		27.343750
6993		33.203125
6994		29.296875
6995		35.156250
6996		33.203125
6997		35.156250
6998		35.156250
6999		39.062500
7000		37.109375
7001		41.015625
7002		39.062500
7003		42.968750
7004		41.015625
7005		44.921875
7006		42.968750
7007		44.921875
7008		42.968750
7009		48.828125
7010		44.921875
7011		48.828125
7012		46.875000
7013		50.781250
7014		48.828125
7015		52.734375
7016		48.828125
7017		54.687500
7018		50.781250
7019		54.687500
7020		52.734375
7021		56.640625
7022		54.687500
7023		58.593750
7024		56.640625
7025		60.546875
7026		56.640625
7027		60.546875
7028		58.593750
7029		60.546875
7030		60.546875
7031		62.500000
7032		60.546875
7033		62.500000
7034		60.546875
7035		64.453125
7036		62.500000
7037		64.453125
7038		62.500000
7039		66.406250
7040		62.500000
7041		66.406250
7042		64.453125
7043		66.406250
7044		64.453125
7045		68.359375
7046		64.453125
7047		66.406250
7048		64.453125
7049		68.359375
7050		64.453125
7051		68.359375
7052		64.453125
7053		68.359375
7054		66.406250
7055		68.359375
7056		64.453125
7057		68.359375
7058		64.453125
7059		68.359375
7060		64.453125
7061		68.359375
7062		64.453125
7063		66.406250
7064		64.453125
7065		66.406250
7066		62.500000
7067		66.406250
7068		62.500000
7069		66.406250
7070		62.500000
7071		64.453125
7072		60.546875
7073		64.453125
7074		60.546875
7075		64.453125
7076		58.593750
7077		62.500000
7078		58.593750
7079		62.500000
7080		56.640625
7081		60.546875
7082		56.640625
7083		58.593750
7084		54.687500
7085		58.593750
7086		52.734375
7087		56.640625
7088		52.734375
7089		54.687500
7090		50.781250
7091		54.687500
7092		48.828125
7093		52.734375
7094		46.875000
7095		50.781250
7096		44.921875
7097		48.828125
7098		42.968750
7099		46.875000
7100		41.015625
7101		46.875000
7102		41.015625
7103		44.921875
7104		37.109375
7105		42.968750
7106		37.109375
7107		39.062500
7108		33.203125
7109		39.062500
7110		31.250000
7111		35.156250
7112		29.296875
7113		35.156250
7114		27.343750
7115		31.250000
7116		25.390625
7117		29.296875
7118		23.437500
7119		27.343750
7120		21.484375
7121		25.390625
7122		19.531250
7123		23.437500
7124		17.578125
7125		21.484375
7126		15.625000
7127		19.531250
7128		13.671875
7129		17.578125
7130		11.718750
7131		13.671875
7132		7.812500
7133		11.718750
7134		5.859375
7135		9.765625
7136		3.906250
7137		7.812500
7138		1.953125
7139		5.859375
7140		0.000000
7141		3.906250
7142		-1.953125
7143		1.953125
7144		-5.859375
7145		0.000000
7146		-5.859375
7147		-1.953125
7148		-7.812500
7149		-3.906250
7150		-9.765625
7151		-5.859375
7152		-11.718750
7153		-7.812500
7154		-13.671875
7155		-9.765625
7156		-15.625000
7157		-11.718750
7158		-17.578125
7159		-11.718750
7160		-19.531250
7161		-13.671875
7162		-19.531250
7163		-15.625000
7164		-21.484375
7165		-17.578125
7166		-23.437500
7167		-19.531250
7168		-25.390625
7169		-21.484375
7170		-25.390625
7171		-21.484375
7172		-27.343750
7173		-23.437500
7174		-27.343750
7175		-23.437500
7176		-29.296875
7177		-25.390625
7178		-29.296875
7179		-25.390625
7180		-29.296875
7181		-27.343750
7182		-29.296875
7183		-27.343750
7184		-31.250000
7185		-27.343750
7186		-31.250000
7187		-27.343750
7188		-33.203125
7189		-29.296875
7190		-31.250000
7191		-29.296875
7192		-33.203125
7193		-29.296875
7194		-33.203125
7195		-29.296875
7196		-33.203125
7197		-29.296875
7198		-31.250000
7199		-29.296875
7200		-31.250000
7201		-29.296875
7202		-31.250000
7203		-27.343750
7204		-31.250000
7205		-27.343750
7206		-31.250000
7207		-27.343750
7208		-29.296875
7209		-27.343750
7210		-29.296875
7211		-25.390625
7212		-29.296875
7213		-25.390625
7214		-27.343750
7215		-23.437500
7216		-25.390625
7217		-23.437500
7218		-25.390625
7219		-21.484375
7220		-23.437500
7221		-19.531250
7222		-23.437500
7223		-19.531250
7224		-21.484375
7225		-17.578125
7226		-19.531250
7227		-15.625000
7228		-17.578125
7229		-13.671875
7230		-15.625000
7231		-13.671875
7232		-15.625000
7233		-11.718750
7234		-13.671875
7235		-9.765625
7236		-11.718750
7237		-7.812500
7238		-9.765625
7239		-5.859375
7240		-7.812500
7241		-3.906250
7242		-5.859375
7243		-1.953125
7244		-3.906250
7245		0.000000
7246		-1.953125
7247		1.953125
7248		0.000000
7249		3.906250
7250		1.953125
7251		7.812500
7252		3.906250
7253		7.812500
7254		5.859375
7255		9.765625
7256		9.765625
7257		11.718750
7258		11.718750
7259		15.625000
7260		13.671875
7261		17.578125
7262		13.671875
7263		19.531250
7264		17.578125
7265		21.484375
7266		19.531250
7267		23.437500
7268		19.531250
7269		25.390625
7270		23.437500
7271		27.343750
7272		25.390625
7273		29.296875
7274		27.343750
7275		31.250000
7276		29.296875
7277		33.203125
7278		31.250000
7279		35.156250
7280		33.203125
7281		37.109375
7282		37.109375
7283		39.062500
7284		39.062500
7285		42.968750
7286		39.062500
7287		42.968750
7288		41.015625
7289		44.921875
7290		42.968750
7291		46.875000
7292		44.921875
7293		48.828125
7294		46.875000
7295		50.781250
7296		48.828125
7297		52.734375
7298		50.781250
7299		52.734375
7300		50.781250
7301		54.687500
7302		52.734375
7303		56.640625
7304		54.687500
7305		56.640625
7306		54.687500
7307		58.593750
7308		56.640625
7309		60.546875
7310		56.640625
7311		60.546875
7312		58.593750
7313		62.500000
7314		60.546875
7315		62.500000
7316		60.546875
7317		64.453125
7318		60.546875
7319		64.453125
7320		62.500000
7321		66.406250
7322		62.500000
7323		66.406250
7324		64.453125
7325		66.406250
7326		64.453125
7327		66.406250
7328		64.453125
7329		66.406250
7330		64.453125
7331		68.359375
7332		64.453125
7333		68.359375
7334		64.453125
7335		68.359375
7336		64.453125
7337		68.359375
7338		64.453125
7339		68.359375
7340		64.453125
7341		66.406250
7342		64.453125
7343		66.406250
7344		64.453125
7345		66.406250
7346		62.500000
7347		66.406250
7348		62.500000
7349		66.406250
7350		62.500000
7351		64.453125
7352		60.546875
7353		64.453125
7354		60.546875
7355		64.453125
7356		60.546875
7357		62.500000
7358		58.593750
7359		62.500000
7360		58.593750
7361		60.546875
7362		56.640625
7363		60.546875
7364		54.687500
7365		60.546875
7366		54.687500
7367		56.640625
7368		52.734375
7369		56.640625
7370		50.781250
7371		54.687500
7372		50.781250
7373		52.734375
7374		48.828125
7375		52.734375
7376		46.875000
7377		50.781250
7378		44.921875
7379		48.828125
7380		42.968750
7381		46.875000
7382		41.015625
7383		44.921875
7384		37.109375
7385		42.968750
7386		37.109375
7387		41.015625
7388		35.156250
7389		39.062500
7390		33.203125
7391		37.109375
7392		31.250000
7393		35.156250
7394		29.296875
7395		35.156250
7396		27.343750
7397		31.250000
7398		25.390625
7399		29.296875
7400		23.437500
7401		27.343750
7402		21.484375
7403		25.390625
7404		19.531250
7405		23.437500
7406		17.578125
7407		21.484375
7408		15.625000
7409		19.531250
7410		11.718750
7411		17.578125
7412		9.765625
7413		13.671875
7414		7.812500
7415		11.718750
7416		5.859375
7417		9.765625
7418		3.906250
7419		7.812500
7420		1.953125
7421		5.859375
7422		0.000000
7423		3.906250
7424		-1.953125
7425		1.953125
7426		-3.906250
7427		0.000000
7428		-5.859375
7429		-1.953125
7430		-9.765625
7431		-3.906250
7432		-9.765625
7433		-5.859375
7434		-11.718750
7435		-9.765625
7436		-13.671875
7437		-9.765625
7438		-15.625000
7439		-11.718750
7440		-17.578125
7441		-13.671875
7442		-19.531250
7443		-15.625000
7444		-19.531250
7445		-17.578125
7446		-21.484375
7447		-19.531250
7448		-23.437500
7449		-19.531250
7450		-25.390625
7451		-21.484375
7452		-25.390625
7453		-23.437500
7454		-27.343750
7455		-23.437500
7456		-27.343750
7457		-25.390625
7458		-29.296875
7459		-25.390625
7460		-29.296875
7461		-27.343750
7462		-31.250000
7463		-27.343750
7464		-31.250000
7465		-27.343750
7466		-31.250000
7467		-29.296875
7468		-33.203125
7469		-29.296875
7470		-33.203125
7471		-29.296875
7472		-33.203125
7473		-29.296875
7474		-33.203125
7475		-29.296875
7476		-33.203125
7477		-29.296875
7478		-33.203125
7479		-29.296875
7480		-33.203125
7481		-29.296875
7482		-33.203125
7483		-29.296875
7484		-31.250000
7485		-29.296875
7486		-33.203125
7487		-29.296875
7488		-31.250000
7489		-27.343750
7490		-31.250000
7491		-27.343750
7492		-29.296875
7493		-27.343750
7494		-29.296875
7495		-25.390625
7496		-29.296875
7497		-25.390625
7498		-27.343750
7499		-23.437500
7500		-25.390625
7501		-23.437500
7502		-23.437500
7503		-21.484375
7504		-23.437500
7505		-19.531250
7506		-23.437500
7507		-17.578125
7508		-21.484375
7509		-17.578125
7510		-19.531250
7511		-15.625000
7512		-17.578125
7513		-13.671875
7514		-15.625000
7515		-11.718750
7516		-13.671875
7517		-9.765625
7518		-11.718750
7519		-9.765625
7520		-11.718750
7521		-7.812500
7522		-7.812500
7523		-3.906250
7524		-5.859375
7525		-1.953125
7526		-3.906250
7527		0.000000
7528		-1.953125
7529		0.000000
7530		-1.953125
7531		3.906250
7532		1.953125
7533		5.859375
7534		3.906250
7535		7.812500
7536		5.859375
7537		9.765625
7538		7.812500
7539		11.718750
7540		9.765625
7541		13.671875
7542		11.718750
7543		15.625000
7544		13.671875
7545		19.531250
7546		15.625000
7547		21.484375
7548		19.531250
7549		23.437500
7550		21.484375
7551		25.390625
7552		19.531250
7553		29.296875
7554		25.390625
7555		29.296875
7556		27.343750
7557		31.250000
7558		29.296875
7559		33.203125
7560		31.250000
7561		35.156250
7562		33.203125
7563		37.109375
7564		35.156250
7565		41.015625
7566		37.109375
7567		41.015625
7568		39.062500
7569		42.968750
7570		41.015625
7571		44.921875
7572		42.968750
7573		46.875000
7574		42.968750
7575		48.828125
7576		46.875000
7577		50.781250
7578		48.828125
7579		52.734375
7580		48.828125
7581		52.734375
7582		50.781250
7583		54.687500
7584		52.734375
7585		56.640625
7586		52.734375
7587		56.640625
7588		54.687500
7589		58.593750
7590		56.640625
7591		60.546875
7592		56.640625
7593		60.546875
7594		58.593750
7595		62.500000
7596		58.593750
7597		64.453125
7598		60.546875
7599		64.453125
7600		62.500000
7601		64.453125
7602		62.500000
7603		64.453125
7604		62.500000
7605		66.406250
7606		62.500000
7607		66.406250
7608		64.453125
7609		66.406250
7610		64.453125
7611		66.406250
7612		64.453125
7613		68.359375
7614		64.453125
7615		68.359375
7616		64.453125
7617		68.359375
7618		64.453125
7619		68.359375
7620		64.453125
7621		68.359375
7622		64.453125
7623		68.359375
7624		64.453125
7625		66.406250
7626		64.453125
7627		66.406250
7628		62.500000
7629		66.406250
7630		62.500000
7631		66.406250
7632		62.500000
7633		66.406250
7634		62.500000
7635		64.453125
7636		60.546875
7637		64.453125
7638		60.546875
7639		64.453125
7640		58.593750
7641		62.500000
7642		58.593750
7643		60.546875
7644		56.640625
7645		60.546875
7646		54.687500
7647		58.593750
7648		52.734375
7649		58.593750
7650		52.734375
7651		56.640625
7652		52.734375
7653		54.687500
7654		48.828125
7655		54.687500
7656		48.828125
7657		52.734375
7658		46.875000
7659		50.781250
7660		44.921875
7661		48.828125
7662		42.968750
7663		46.875000
7664		41.015625
7665		44.921875
7666		39.062500
7667		42.968750
7668		39.062500
7669		41.015625
7670		35.156250
7671		41.015625
7672		35.156250
7673		39.062500
7674		33.203125
7675		37.109375
7676		29.296875
7677		35.156250
7678		27.343750
7679		31.250000
7680		25.390625
7681		29.296875
7682		23.437500
7683		27.343750
7684		21.484375
7685		25.390625
7686		19.531250
7687		23.437500
7688		17.578125
7689		21.484375
7690		15.625000
7691		19.531250
7692		13.671875
7693		17.578125
7694		9.765625
7695		13.671875
7696		7.812500
7697		11.718750
7698		5.859375
7699		9.765625
7700		3.906250
7701		9.765625
7702		1.953125
7703		5.859375
7704		0.000000
7705		3.906250
7706		-1.953125
7707		1.953125
7708		-3.906250
7709		0.000000
7710		-5.859375
7711		-1.953125
7712		-7.812500
7713		-3.906250
7714		-9.765625
7715		-5.859375
7716		-11.718750
7717		-7.812500
7718		-13.671875
7719		-9.765625
7720		-15.625000
7721		-11.718750
7722		-17.578125
7723		-13.671875
7724		-19.531250
7725		-15.625000
7726		-19.531250
7727		-17.578125
7728		-21.484375
7729		-19.531250
7730		-23.437500
7731		-19.531250
7732		-25.390625
7733		-21.484375
7734		-25.390625
7735		-21.484375
7736		-27.343750
7737		-23.437500
7738		-27.343750
7739		-25.390625
7740		-29.296875
7741		-25.390625
7742		-29.296875
7743		-25.390625
7744		-31.250000
7745		-27.343750
7746		-31.250000
7747		-29.296875
7748		-31.250000
7749		-29.296875
7750		-33.203125
7751		-29.296875
7752		-33.203125
7753		-29.296875
7754		-33.203125
7755		-29.296875
7756		-33.203125
7757		-29.296875
7758		-33.203125
7759		-31.250000
7760		-33.203125
7761		-29.296875
7762		-33.203125
7763		-29.296875
7764		-33.203125
7765		-29.296875
7766		-33.203125
7767		-29.296875
7768		-31.250000
7769		-29.296875
7770		-31.250000
7771		-29.296875
7772		-31.250000
7773		-27.343750
7774		-31.250000
7775		-27.343750
7776		-29.296875
7777		-25.390625
7778		-29.296875
7779		-25.390625
7780		-27.343750
7781		-23.437500
7782		-25.390625
7783		-21.484375
7784		-25.390625
7785		-21.484375
7786		-23.437500
7787		-19.531250
7788		-23.437500
7789		-19.531250
7790		-21.484375
7791		-17.578125
7792		-19.531250
7793		-15.625000
7794		-17.578125
7795		-13.671875
7796		-15.625000
7797		-13.671875
7798		-15.625000
7799		-9.765625
7800		-11.718750
7801		-7.812500
7802		-11.718750
7803		-7.812500
7804		-7.812500
7805		-5.859375
7806		-7.812500
7807		-3.906250
7808		-5.859375
7809		0.000000
7810		-3.906250
7811		0.000000
7812		0.000000
7813		1.953125
7814		0.000000
7815		3.906250
7816		3.906250
7817		7.812500
7818		3.906250
7819		9.765625
7820		7.812500
7821		11.718750
7822		9.765625
7823		13.671875
7824		11.718750
7825		15.625000
7826		13.671875
7827		17.578125
7828		15.625000
7829		19.531250
7830		17.578125
7831		21.484375
7832		19.531250
7833		25.390625
7834		21.484375
7835		25.390625
7836		25.390625
7837		29.296875
7838		27.343750
7839		31.250000
7840		29.296875
7841		33.203125
7842		31.250000
7843		35.156250
7844		33.203125
7845		37.109375
7846		35.156250
7847		39.062500
7848		37.109375
7849		41.015625
7850		39.062500
7851		42.968750
7852		41.015625
7853		44.921875
7854		42.968750
7855		46.875000
7856		42.968750
7857		48.828125
7858		44.921875
7859		48.828125
7860		46.875000
7861		50.781250
7862		48.828125
7863		52.734375
7864		50.781250
7865		54.687500
7866		50.781250
7867		54.687500
7868		52.734375
7869		56.640625
7870		54.687500
7871		58.593750
7872		54.687500
7873		60.546875
7874		56.640625
7875		60.546875
7876		58.593750
7877		62.500000
7878		58.593750
7879		62.500000
7880		60.546875
7881		62.500000
7882		60.546875
7883		64.453125
7884		60.546875
7885		64.453125
7886		62.500000
7887		64.453125
7888		62.500000
7889		66.406250
7890		62.500000
7891		66.406250
7892		64.453125
7893		66.406250
7894		64.453125
7895		66.406250
7896		64.453125
7897		66.406250
7898		64.453125
7899		66.406250
7900		64.453125
7901		66.406250
7902		62.500000
7903		68.359375
7904		64.453125
7905		66.406250
7906		62.500000
7907		66.406250
7908		64.453125
7909		66.406250
7910		62.500000
7911		66.406250
7912		62.500000
7913		66.406250
7914		62.500000
7915		64.453125
7916		60.546875
7917		64.453125
7918		60.546875
7919		64.453125
7920		60.546875
7921		62.500000
7922		58.593750
7923		62.500000
7924		56.640625
7925		60.546875
7926		56.640625
7927		58.593750
7928		54.687500
7929		58.593750
7930		54.687500
7931		56.640625
7932		52.734375
7933		56.640625
7934		50.781250
7935		54.687500
7936		50.781250
7937		52.734375
7938		48.828125
7939		50.781250
7940		46.875000
7941		50.781250
7942		44.921875
7943		48.828125
7944		42.968750
7945		46.875000
7946		41.015625
7947		44.921875
7948		39.062500
7949		44.921875
7950		37.109375
7951		41.015625
7952		35.156250
7953		39.062500
7954		33.203125
7955		37.109375
7956		31.250000
7957		35.156250
7958		29.296875
7959		33.203125
7960		27.343750
7961		31.250000
7962		25.390625
7963		29.296875
7964		23.437500
7965		27.343750
7966		21.484375
7967		25.390625
7968		17.578125
7969		23.437500
7970		17.578125
7971		21.484375
7972		13.671875
7973		19.531250
7974		11.718750
7975		17.578125
7976		9.765625
7977		13.671875
7978		7.812500
7979		11.718750
7980		5.859375
7981		9.765625
7982		3.906250
7983		7.812500
7984		0.000000
7985		5.859375
7986		0.000000
7987		3.906250
7988		-1.953125
7989		0.000000
7990		-5.859375
7991		0.000000
7992		-7.812500
7993		-1.953125
7994		-9.765625
7995		-3.906250
7996		-11.718750
7997		-5.859375
7998		-11.718750
7999		-7.812500
8000		-13.671875
8001		-9.765625
8002		-15.625000
8003		-11.718750
8004		-17.578125
8005		-13.671875
8006		-19.531250
8007		-15.625000
8008		-21.484375
8009		-17.578125
8010		-21.484375
8011		-19.531250
8012		-23.437500
8013		-21.484375
8014		-25.390625
8015		-21.484375
8016		-27.343750
8017		-23.437500
8018		-27.343750
8019		-23.437500
8020		-27.343750
8021		-25.390625
8022		-29.296875
8023		-27.343750
8024		-31.250000
8025		-27.343750
8026		-31.250000
8027		-29.296875
8028		-31.250000
8029		-29.296875
8030		-31.250000
8031		-29.296875
8032		-33.203125
8033		-29.296875
8034		-33.203125
8035		-31.250000
8036		-35.156250
8037		-29.296875
8038		-33.203125
8039		-31.250000
8040		-33.203125
8041		-31.250000
8042		-33.203125
8043		-31.250000
8044		-33.203125
8045		-31.250000
8046		-33.203125
8047		-31.250000
8048		-33.203125
8049		-29.296875
8050		-33.203125
8051		-29.296875
8052		-33.203125
8053		-27.343750
8054		-31.250000
8055		-29.296875
8056		-31.250000
8057		-27.343750
8058		-31.250000
8059		-27.343750
8060		-29.296875
8061		-25.390625
8062		-27.343750
8063		-25.390625
8064		-27.343750
8065		-23.437500
8066		-25.390625
8067		-21.484375
8068		-25.390625
8069		-21.484375
8070		-23.437500
8071		-19.531250
8072		-21.484375
8073		-17.578125
8074		-19.531250
8075		-17.578125
8076		-17.578125
8077		-15.625000
8078		-15.625000
8079		-13.671875
8080		-15.625000
8081		-11.718750
8082		-13.671875
8083		-9.765625
8084		-11.718750
8085		-7.812500
8086		-9.765625
8087		-5.859375
8088		-7.812500
8089		-3.906250
8090		-5.859375
8091		0.000000
8092		-3.906250
8093		0.000000
8094		-1.953125
8095		1.953125
8096		0.000000
8097		5.859375
8098		1.953125
8099		5.859375
8100		3.906250
8101		7.812500
8102		7.812500
8103		11.718750
8104		9.765625
8105		13.671875
8106		11.718750
8107		15.625000
8108		13.671875
8109		17.578125
8110		15.625000
8111		19.531250
8112		17.578125
8113		21.484375
8114		19.531250
8115		23.437500
8116		21.484375
8117		27.343750
8118		23.437500
8119		27.343750
8120		25.390625
8121		29.296875
8122		29.296875
8123		33.203125
8124		31.250000
8125		33.203125
8126		33.203125
8127		37.109375
8128		35.156250
8129		39.062500
8130		37.109375
8131		41.015625
8132		37.109375
8133		42.968750
8134		41.015625
8135		44.921875
8136		41.015625
8137		46.875000
8138		42.968750
8139		46.875000
8140		44.921875
8141		48.828125
8142		46.875000
8143		50.781250
8144		48.828125
8145		52.734375
8146		50.781250
8147		54.687500
8148		52.734375
8149		54.687500
8150		52.734375
8151		56.640625
8152		54.687500
8153		58.593750
8154		54.687500
8155		58.593750
8156		56.640625
8157		58.593750
8158		56.640625
8159		62.500000
8160		58.593750
8161		62.500000
8162		60.546875
8163		62.500000
8164		60.546875
8165		64.453125
8166		60.546875
8167		64.453125
8168		60.546875
8169		64.453125
8170		62.500000
8171		66.406250
8172		64.453125
8173		66.406250
8174		64.453125
8175		68.359375
8176		64.453125
8177		66.406250
8178		64.453125
8179		66.406250
8180		64.453125
8181		68.359375
8182		64.453125
8183		66.406250
8184		64.453125
8185		66.406250
8186		64.453125
8187		68.359375
8188		64.453125
8189		66.406250
8190		64.453125
8191		66.406250
8192		62.500000
8193		66.406250
8194		62.500000
8195		66.406250
8196		62.500000
8197		66.406250
8198		62.500000
8199		64.453125
8200		60.546875
8201		64.453125
8202		60.546875
8203		62.500000
8204		58.593750
8205		62.500000
8206		58.593750
8207		60.546875
8208		54.687500
8209		60.546875
8210		54.687500
8211		58.593750
8212		54.687500
8213		58.593750
8214		52.734375
8215		56.640625
8216		50.781250
8217		56.640625
8218		50.781250
8219		52.734375
8220		48.828125
8221		52.734375
8222		46.875000
8223		50.781250
8224		44.921875
8225		48.828125
8226		42.968750
8227		46.875000
8228		41.015625
8229		44.921875
8230		39.062500
8231		42.968750
8232		37.109375
8233		41.015625
8234		35.156250
8235		39.062500
8236		33.203125
8237		37.109375
8238		31.250000
8239		37.109375
8240		29.296875
8241		35.156250
8242		27.343750
8243		31.250000
8244		25.390625
8245		29.296875
8246		23.437500
8247		27.343750
8248		19.531250
8249		25.390625
8250		19.531250
8251		23.437500
8252		17.578125
8253		21.484375
8254		13.671875
8255		19.531250
8256		13.671875
8257		15.625000
8258		11.718750
8259		13.671875
8260		7.812500
8261		13.671875
8262		5.859375
8263		9.765625
8264		3.906250
8265		7.812500
8266		1.953125
8267		5.859375
8268		-1.953125
8269		3.906250
8270		-3.906250
8271		1.953125
8272		-3.906250
8273		0.000000
8274		-5.859375
8275		-1.953125
8276		-7.812500
8277		-3.906250
8278		-9.765625
8279		-5.859375
8280		-11.718750
8281		-7.812500
8282		-13.671875
8283		-9.765625
8284		-15.625000
8285		-11.718750
8286		-17.578125
8287		-13.671875
8288		-19.531250
8289		-15.625000
8290		-21.484375
8291		-17.578125
8292		-23.437500
8293		-19.531250
8294		-23.437500
8295		-19.531250
8296		-25.390625
8297		-21.484375
8298		-25.390625
8299		-23.437500
8300		-27.343750
8301		-23.437500
8302		-29.296875
8303		-25.390625
8304		-31.250000
8305		-25.390625
8306		-29.296875
8307		-27.343750
8308		-31.250000
8309		-29.296875
8310		-33.203125
8311		-29.296875
8312		-31.250000
8313		-29.296875
8314		-33.203125
8315		-29.296875
8316		-33.203125
8317		-31.250000
8318		-33.203125
8319		-31.250000
8320		-33.203125
8321		-31.250000
8322		-35.156250
8323		-29.296875
8324		-33.203125
8325		-31.250000
8326		-33.203125
8327		-31.250000
8328		-33.203125
8329		-31.250000
8330		-33.203125
8331		-29.296875
8332		-33.203125
8333		-29.296875
8334		-33.203125
8335		-29.296875
8336		-31.250000
8337		-29.296875
8338		-31.250000
8339		-27.343750
8340		-29.296875
8341		-27.343750
8342		-29.296875
8343		-25.390625
8344		-29.296875
8345		-25.390625
8346		-27.343750
8347		-23.437500
8348		-25.390625
8349		-21.484375
8350		-23.437500
8351		-21.484375
8352		-23.437500
8353		-19.531250
8354		-21.484375
8355		-17.578125
8356		-21.484375
8357		-17.578125
8358		-19.531250
8359		-15.625000
8360		-17.578125
8361		-13.671875
8362		-15.625000
8363		-11.718750
8364		-13.671875
8365		-9.765625
8366		-11.718750
8367		-7.812500
8368		-9.765625
8369		-5.859375
8370		-7.812500
8371		-3.906250
8372		-5.859375
8373		-1.953125
8374		-3.906250
8375		0.000000
8376		-1.953125
8377		1.953125
8378		0.000000
8379		3.906250
8380		1.953125
8381		5.859375
8382		3.906250
8383		7.812500
8384		5.859375
8385		9.765625
8386		7.812500
8387		11.718750
8388		9.765625
8389		15.625000
8390		13.671875
8391		17.578125
8392		15.625000
8393		19.531250
8394		17.578125
8395		21.484375
8396		19.531250
8397		23.437500
8398		21.484375
8399		25.390625
8400		23.437500
8401		27.343750
8402		25.390625
8403		31.250000
8404		27.343750
8405		33.203125
8406		29.296875
8407		35.156250
8408		33.203125
8409		35.156250
8410		33.203125
8411		39.062500
8412		37.109375
8413		39.062500
8414		37.109375
8415		42.968750
8416		39.062500
8417		44.921875
8418		41.015625
8419		46.875000
8420		42.968750
8421		46.875000
8422		44.921875
8423		48.828125
8424		46.875000
8425		50.781250
8426		48.828125
8427		50.781250
8428		48.828125
8429		52.734375
8430		50.781250
8431		54.687500
8432		52.734375
8433		56.640625
8434		54.687500
8435		56.640625
8436		54.687500
8437		58.593750
8438		56.640625
8439		58.593750
8440		56.640625
8441		60.546875
8442		58.593750
8443		62.500000
8444		58.593750
8445		62.500000
8446		60.546875
8447		62.500000
8448		60.546875
8449		64.453125
8450		62.500000
8451		64.453125
8452		62.500000
8453		66.406250
8454		62.500000
8455		66.406250
8456		62.500000
8457		66.406250
8458		64.453125
8459		66.406250
8460		64.453125
8461		66.406250
8462		64.453125
8463		66.406250
8464		64.453125
8465		66.406250
8466		64.453125
8467		68.359375
8468		64.453125
8469		66.406250
8470		64.453125
8471		66.406250
8472		62.500000
8473		66.406250
8474		62.500000
8475		64.453125
8476		62.500000
8477		64.453125
8478		60.546875
8479		64.453125
8480		60.546875
8481		64.453125
8482		60.546875
8483		64.453125
8484		60.546875
8485		62.500000
8486		58.593750
8487		62.500000
8488		56.640625
8489		60.546875
8490		56.640625
8491		60.546875
8492		56.640625
8493		58.593750
8494		52.734375
8495		58.593750
8496		52.734375
8497		56.640625
8498		50.781250
8499		54.687500
8500		50.781250
8501		52.734375
8502		48.828125
8503		52.734375
8504		46.875000
8505		50.781250
8506		44.921875
8507		48.828125
8508		42.968750
8509		46.875000
8510		41.015625
8511		44.921875
8512		39.062500
8513		44.921875
8514		37.109375
8515		42.968750
8516		35.156250
8517		39.062500
8518		33.203125
8519		37.109375
8520		33.203125
8521		37.109375
8522		29.296875
8523		33.203125
8524		27.343750
8525		33.203125
8526		25.390625
8527		29.296875
8528		23.437500
8529		27.343750
8530		21.484375
8531		25.390625
8532		19.531250
8533		23.437500
8534		17.578125
8535		21.484375
8536		15.625000
8537		19.531250
8538		13.671875
8539		17.578125
8540		9.765625
8541		13.671875
8542		7.812500
8543		11.718750
8544		5.859375
8545		9.765625
8546		3.906250
8547		7.812500
8548		1.953125
8549		5.859375
8550		0.000000
8551		3.906250
8552		-1.953125
8553		1.953125
8554		-3.906250
8555		0.000000
8556		-5.859375
8557		-1.953125
8558		-7.812500
8559		-3.906250
8560		-11.718750
8561		-5.859375
8562		-13.671875
8563		-5.859375
8564		-15.625000
8565		-7.812500
8566		-15.625000
8567		-11.718750
8568		-17.578125
8569		-13.671875
8570		-19.531250
8571		-13.671875
8572		-21.484375
8573		-15.625000
8574		-21.484375
8575		-17.578125
8576		-23.437500
8577		-21.484375
8578		-27.343750
8579		-21.484375
8580		-29.296875
8581		-21.484375
8582		-29.296875
8583		-21.484375
8584		-29.296875
8585		-25.390625
8586		-31.250000
8587		-25.390625
8588		-31.250000
8589		-25.390625
8590		-31.250000
8591		-27.343750
8592		-31.250000
8593		-29.296875
8594		-31.250000
8595		-29.296875
8596		-35.156250
8597		-27.343750
8598		-35.156250
8599		-27.343750
8600		-35.156250
8601		-29.296875
8602		-35.156250
8603		-29.296875
8604		-35.156250
8605		-29.296875
8606		-35.156250
8607		-29.296875
8608		-35.156250
8609		-29.296875
8610		-33.203125
8611		-31.250000
8612		-33.203125
8613		-27.343750
8614		-35.156250
8615		-27.343750
8616		-35.156250
8617		-27.343750
8618		-33.203125
8619		-27.343750
8620		-33.203125
8621		-25.390625
8622		-31.250000
8623		-25.390625
8624		-31.250000
8625		-25.390625
8626		-27.343750
8627		-25.390625
8628		-27.343750
8629		-23.437500
8630		-27.343750
8631		-21.484375
8632		-27.343750
8633		-19.531250
8634		-25.390625
8635		-17.578125
8636		-23.437500
8637		-17.578125
8638		-21.484375
8639		-13.671875
8640		-19.531250
8641		-13.671875
8642		-17.578125
8643		-13.671875
8644		-15.625000
8645		-11.718750
8646		-15.625000
8647		-7.812500
8648		-13.671875
8649		-5.859375
8650		-11.718750
8651		-3.906250
8652		-9.765625
8653		-1.953125
8654		-7.812500
8655		0.000000
8656		-5.859375
8657		1.953125
8658		-3.906250
8659		1.953125
8660		0.000000
8661		3.906250
8662		1.953125
8663		7.812500
8664		1.953125
8665		9.765625
8666		3.906250
8667		11.718750
8668		7.812500
8669		15.625000
8670		9.765625
8671		17.578125
8672		11.718750
8673		19.531250
8674		13.671875
8675		19.531250
8676		17.578125
8677		21.484375
8678		19.531250
8679		23.437500
8680		19.531250
8681		27.343750
8682		21.484375
8683		29.296875
8684		23.437500
8685		31.250000
8686		27.343750
8687		33.203125
8688		27.343750
8689		37.109375
8690		29.296875
8691		37.109375
8692		31.250000
8693		39.062500
8694		37.109375
8695		39.062500
8696		37.109375
8697		42.968750
8698		39.062500
8699		44.921875
8700		39.062500
8701		46.875000
8702		41.015625
8703		48.828125
8704		42.968750
8705		50.781250
8706		44.921875
8707		52.734375
8708		46.875000
8709		52.734375
8710		50.781250
8711		52.734375
8712		50.781250
8713		56.640625
8714		50.781250
8715		58.593750
8716		50.781250
8717		58.593750
8718		52.734375
8719		60.546875
8720		54.687500
8721		62.500000
8722		54.687500
8723		62.500000
8724		56.640625
8725		64.453125
8726		60.546875
8727		62.500000
8728		60.546875
8729		64.453125
8730		60.546875
8731		66.406250
8732		60.546875
8733		66.406250
8734		60.546875
8735		66.406250
8736		60.546875
8737		68.359375
8738		62.500000
8739		68.359375
8740		62.500000
8741		68.359375
8742		62.500000
8743		68.359375
8744		64.453125
8745		66.406250
8746		60.546875
8747		68.359375
8748		62.500000
8749		68.359375
8750		62.500000
8751		68.359375
8752		62.500000
8753		68.359375
8754		60.546875
8755		68.359375
8756		60.546875
8757		68.359375
8758		60.546875
8759		68.359375
8760		62.500000
8761		64.453125
8762		62.500000
8763		64.453125
8764		58.593750
8765		64.453125
8766		58.593750
8767		64.453125
8768		56.640625
8769		64.453125
8770		56.640625
8771		62.500000
8772		54.687500
8773		62.500000
8774		52.734375
8775		60.546875
8776		52.734375
8777		60.546875
8778		52.734375
8779		56.640625
8780		50.781250
8781		56.640625
8782		48.828125
8783		56.640625
8784		46.875000
8785		54.687500
8786		44.921875
8787		52.734375
8788		42.968750
8789		50.781250
8790		41.015625
8791		48.828125
8792		41.015625
8793		48.828125
8794		41.015625
8795		42.968750
8796		39.062500
8797		42.968750
8798		35.156250
8799		42.968750
8800		31.250000
8801		41.015625
8802		31.250000
8803		37.109375
8804		27.343750
8805		37.109375
8806		25.390625
8807		33.203125
8808		23.437500
8809		31.250000
8810		25.390625
8811		27.343750
8812		21.484375
8813		25.390625
8814		17.578125
8815		23.437500
8816		15.625000
8817		23.437500
8818		13.671875
8819		21.484375
8820		11.718750
8821		19.531250
8822		7.812500
8823		17.578125
8824		7.812500
8825		13.671875
8826		5.859375
8827		13.671875
8828		3.906250
8829		7.812500
8830		0.000000
8831		5.859375
8832		-1.953125
8833		5.859375
8834		-3.906250
8835		3.906250
8836		-5.859375
8837		1.953125
8838		-7.812500
8839		0.000000
8840		-9.765625
8841		-1.953125
8842		-11.718750
8843		-3.906250
8844		-11.718750
8845		-7.812500
8846		-13.671875
8847		-9.765625
8848		-17.578125
8849		-9.765625
8850		-19.531250
8851		-11.718750
8852		-21.484375
8853		-13.671875
8854		-23.437500
8855		-15.625000
8856		-23.437500
8857		-17.578125
8858		-25.390625
8859		-17.578125
8860		-25.390625
8861		-19.531250
8862		-25.390625
8863		-23.437500
8864		-29.296875
8865		-23.437500
8866		-31.250000
8867		-23.437500
8868		-31.250000
8869		-25.390625
8870		-33.203125
8871		-25.390625
8872		-33.203125
8873		-25.390625
8874		-33.203125
8875		-27.343750
8876		-35.156250
8877		-27.343750
8878		-33.203125
8879		-29.296875
8880		-33.203125
8881		-31.250000
8882		-35.156250
8883		-29.296875
8884		-35.156250
8885		-29.296875
8886		-35.156250
8887		-29.296875
8888		-35.156250
8889		-29.296875
8890		-35.156250
8891		-29.296875
8892		-35.156250
8893		-29.296875
8894		-33.203125
8895		-31.250000
8896		-33.203125
8897		-29.296875
8898		-35.156250
8899		-27.343750
8900		-33.203125
8901		-27.343750
8902		-33.203125
8903		-25.390625
8904		-31.250000
8905		-25.390625
8906		-31.250000
8907		-23.437500
8908		-31.250000
8909		-23.437500
8910		-29.296875
8911		-23.437500
8912		-25.390625
8913		-23.437500
8914		-25.390625
8915		-19.531250
8916		-25.390625
8917		-19.531250
8918		-23.437500
8919		-17.578125
8920		-21.484375
8921		-15.625000
8922		-21.484375
8923		-15.625000
8924		-19.531250
8925		-13.671875
8926		-17.578125
8927		-11.718750
8928		-13.671875
8929		-9.765625
8930		-11.718750
8931		-7.812500
8932		-11.718750
8933		-3.906250
8934		-11.718750
8935		-1.953125
8936		-9.765625
8937		-1.953125
8938		-5.859375
8939		1.953125
8940		-3.906250
8941		3.906250
8942		-1.953125
8943		5.859375
8944		0.000000
8945		5.859375
8946		3.906250
8947		7.812500
8948		5.859375
8949		11.718750
8950		5.859375
8951		13.671875
8952		7.812500
8953		15.625000
8954		11.718750
8955		17.578125
8956		11.718750
8957		19.531250
8958		15.625000
8959		23.437500
8960		15.625000
8961		23.437500
8962		21.484375
8963		25.390625
8964		23.437500
8965		27.343750
8966		23.437500
8967		31.250000
8968		25.390625
8969		33.203125
8970		27.343750
8971		35.156250
8972		29.296875
8973		37.109375
8974		31.250000
8975		39.062500
8976		33.203125
8977		41.015625
8978		37.109375
8979		41.015625
8980		39.062500
8981		42.968750
8982		41.015625
8983		46.875000
8984		41.015625
8985		48.828125
8986		42.968750
8987		50.781250
8988		44.921875
8989		50.781250
8990		44.921875
8991		52.734375
8992		46.875000
8993		54.687500
8994		48.828125
8995		54.687500
8996		52.734375
8997		54.687500
8998		52.734375
8999		58.593750
9000		52.734375
9001		60.546875
9002		54.687500
9003		62.500000
9004		54.687500
9005		62.500000
9006		54.687500
9007		62.500000
9008		56.640625
9009		64.453125
9010		58.593750
9011		64.453125
9012		60.546875
9013		62.500000
9014		62.500000
9015		64.453125
9016		60.546875
9017		66.406250
9018		60.546875
9019		66.406250
9020		60.546875
9021		68.359375
9022		60.546875
9023		68.359375
9024		62.500000
9025		68.359375
9026		62.500000
9027		68.359375
9028		62.500000
9029		68.359375
9030		64.453125
9031		66.406250
9032		62.500000
9033		68.359375
9034		62.500000
9035		68.359375
9036		60.546875
9037		68.359375
9038		60.546875
9039		68.359375
9040		60.546875
9041		66.406250
9042		60.546875
9043		66.406250
9044		60.546875
9045		66.406250
9046		60.546875
9047		62.500000
9048		58.593750
9049		62.500000
9050		56.640625
9051		64.453125
9052		54.687500
9053		62.500000
9054		54.687500
9055		62.500000
9056		52.734375
9057		60.546875
9058		52.734375
9059		60.546875
9060		50.781250
9061		58.593750
9062		50.781250
9063		56.640625
9064		50.781250
9065		52.734375
9066		46.875000
9067		52.734375
9068		44.921875
9069		52.734375
9070		42.968750
9071		50.781250
9072		41.015625
9073		48.828125
9074		39.062500
9075		46.875000
9076		39.062500
9077		44.921875
9078		37.109375
9079		44.921875
9080		37.109375
9081		41.015625
9082		33.203125
9083		39.062500
9084		31.250000
9085		39.062500
9086		27.343750
9087		37.109375
9088		27.343750
9089		35.156250
9090		23.437500
9091		33.203125
9092		23.437500
9093		29.296875
9094		19.531250
9095		29.296875
9096		19.531250
9097		23.437500
9098		17.578125
9099		21.484375
9100		13.671875
9101		21.484375
9102		11.718750
9103		19.531250
9104		9.765625
9105		17.578125
9106		5.859375
9107		13.671875
9108		5.859375
9109		11.718750
9110		1.953125
9111		9.765625
9112		1.953125
9113		7.812500
9114		0.000000
9115		3.906250
9116		-1.953125
9117		1.953125
9118		-5.859375
9119		1.953125
9120		-7.812500
9121		0.000000
9122		-9.765625
9123		-1.953125
9124		-11.718750
9125		-3.906250
9126		-13.671875
9127		-5.859375
9128		-15.625000
9129		-7.812500
9130		-15.625000
9131		-11.718750
9132		-17.578125
9133		-13.671875
9134		-21.484375
9135		-13.671875
9136		-23.437500
9137		-15.625000
9138		-23.437500
9139		-15.625000
9140		-25.390625
9141		-17.578125
9142		-27.343750
9143		-19.531250
9144		-27.343750
9145		-21.484375
9146		-27.343750
9147		-21.484375
9148		-29.296875
9149		-25.390625
9150		-31.250000
9151		-25.390625
9152		-33.203125
9153		-25.390625
9154		-33.203125
9155		-25.390625
9156		-33.203125
9157		-27.343750
9158		-33.203125
9159		-27.343750
9160		-35.156250
9161		-27.343750
9162		-35.156250
9163		-27.343750
9164		-33.203125
9165		-31.250000
9166		-33.203125
9167		-31.250000
9168		-35.156250
9169		-29.296875
9170		-35.156250
9171		-29.296875
9172		-35.156250
9173		-29.296875
9174		-35.156250
9175		-29.296875
9176		-35.156250
9177		-27.343750
9178		-35.156250
9179		-27.343750
9180		-31.250000
9181		-29.296875
9182		-31.250000
9183		-29.296875
9184		-33.203125
9185		-25.390625
9186		-31.250000
9187		-25.390625
9188		-31.250000
9189		-23.437500
9190		-29.296875
9191		-23.437500
9192		-29.296875
9193		-21.484375
9194		-29.296875
9195		-21.484375
9196		-27.343750
9197		-21.484375
9198		-23.437500
9199		-19.531250
9200		-23.437500
9201		-17.578125
9202		-21.484375
9203		-15.625000
9204		-21.484375
9205		-13.671875
9206		-19.531250
9207		-11.718750
9208		-17.578125
9209		-9.765625
9210		-15.625000
9211		-7.812500
9212		-15.625000
9213		-7.812500
9214		-9.765625
9215		-5.859375
9216		-7.812500
9217		-5.859375
9218		-7.812500
9219		0.000000
9220		-5.859375
9221		1.953125
9222		-5.859375
9223		3.906250
9224		-1.953125
9225		5.859375
9226		0.000000
9227		5.859375
9228		1.953125
9229		9.765625
9230		3.906250
9231		9.765625
9232		7.812500
9233		11.718750
9234		9.765625
9235		15.625000
9236		11.718750
9237		19.531250
9238		11.718750
9239		19.531250
9240		15.625000
9241		23.437500
9242		17.578125
9243		23.437500
9244		19.531250
9245		27.343750
9246		21.484375
9247		27.343750
9248		25.390625
9249		29.296875
9250		27.343750
9251		33.203125
9252		27.343750
9253		35.156250
9254		29.296875
9255		37.109375
9256		31.250000
9257		39.062500
9258		33.203125
9259		41.015625
9260		35.156250
9261		42.968750
9262		37.109375
9263		44.921875
9264		41.015625
9265		44.921875
9266		42.968750
9267		46.875000
9268		42.968750
9269		50.781250
9270		44.921875
9271		50.781250
9272		44.921875
9273		52.734375
9274		46.875000
9275		54.687500
9276		48.828125
9277		56.640625
9278		50.781250
9279		56.640625
9280		52.734375
9281		58.593750
9282		54.687500
9283		58.593750
9284		54.687500
9285		60.546875
9286		54.687500
9287		62.500000
9288		56.640625
9289		62.500000
9290		56.640625
9291		64.453125
9292		58.593750
9293		64.453125
9294		58.593750
9295		66.406250
9296		60.546875
9297		66.406250
9298		62.500000
9299		64.453125
9300		62.500000
9301		66.406250
9302		60.546875
9303		68.359375
9304		60.546875
9305		68.359375
9306		62.500000
9307		68.359375
9308		62.500000
9309		68.359375
9310		62.500000
9311		68.359375
9312		62.500000
9313		68.359375
9314		62.500000
9315		68.359375
9316		64.453125
9317		66.406250
9318		60.546875
9319		68.359375
9320		60.546875
9321		68.359375
9322		60.546875
9323		66.406250
9324		60.546875
9325		66.406250
9326		58.593750
9327		66.406250
9328		58.593750
9329		64.453125
9330		58.593750
9331		64.453125
9332		58.593750
9333		62.500000
9334		56.640625
9335		60.546875
9336		54.687500
9337		62.500000
9338		52.734375
9339		60.546875
9340		52.734375
9341		60.546875
9342		50.781250
9343		58.593750
9344		48.828125
9345		56.640625
9346		48.828125
9347		56.640625
9348		48.828125
9349		52.734375
9350		46.875000
9351		50.781250
9352		44.921875
9353		50.781250
9354		41.015625
9355		50.781250
9356		41.015625
9357		48.828125
9358		39.062500
9359		46.875000
9360		37.109375
9361		44.921875
9362		35.156250
9363		42.968750
9364		35.156250
9365		41.015625
9366		33.203125
9367		37.109375
9368		29.296875
9369		35.156250
9370		27.343750
9371		35.156250
9372		23.437500
9373		31.250000
9374		21.484375
9375		29.296875
9376		19.531250
9377		27.343750
9378		17.578125
9379		25.390625
9380		15.625000
9381		23.437500
9382		15.625000
9383		19.531250
9384		13.671875
9385		17.578125
9386		9.765625
9387		17.578125
9388		5.859375
9389		15.625000
9390		5.859375
9391		13.671875
9392		1.953125
9393		11.718750
9394		0.000000
9395		9.765625
9396		-1.953125
9397		5.859375
9398		-1.953125
9399		3.906250
9400		-3.906250
9401		0.000000
9402		-7.812500
9403		-1.953125
9404		-9.765625
9405		-1.953125
9406		-11.718750
9407		-3.906250
9408		-13.671875
9409		-5.859375
9410		-15.625000
9411		-7.812500
9412		-17.578125
9413		-7.812500
9414		-17.578125
9415		-11.718750
9416		-17.578125
9417		-15.625000
9418		-19.531250
9419		-17.578125
9420		-23.437500
9421		-15.625000
9422		-25.390625
9423		-17.578125
9424		-27.343750
9425		-19.531250
9426		-27.343750
9427		-21.484375
9428		-29.296875
9429		-21.484375
9430		-29.296875
9431		-23.437500
9432		-29.296875
9433		-25.390625
9434		-29.296875
9435		-27.343750
9436		-33.203125
9437		-27.343750
9438		-35.156250
9439		-27.343750
9440		-35.156250
9441		-27.343750
9442		-35.156250
9443		-27.343750
9444		-35.156250
9445		-29.296875
9446		-35.156250
9447		-29.296875
9448		-35.156250
9449		-29.296875
9450		-33.203125
9451		-31.250000
9452		-37.109375
9453		-29.296875
9454		-37.109375
9455		-29.296875
9456		-35.156250
9457		-29.296875
9458		-35.156250
9459		-29.296875
9460		-35.156250
9461		-27.343750
9462		-35.156250
9463		-27.343750
9464		-35.156250
9465		-27.343750
9466		-31.250000
9467		-29.296875
9468		-31.250000
9469		-27.343750
9470		-31.250000
9471		-25.390625
9472		-31.250000
9473		-23.437500
9474		-29.296875
9475		-23.437500
9476		-29.296875
9477		-21.484375
9478		-27.343750
9479		-19.531250
9480		-25.390625
9481		-19.531250
9482		-23.437500
9483		-17.578125
9484		-21.484375
9485		-17.578125
9486		-21.484375
9487		-15.625000
9488		-19.531250
9489		-13.671875
9490		-19.531250
9491		-9.765625
9492		-17.578125
9493		-9.765625
9494		-15.625000
9495		-7.812500
9496		-13.671875
9497		-5.859375
9498		-9.765625
9499		-3.906250
9500		-7.812500
9501		-3.906250
9502		-5.859375
9503		-1.953125
9504		-5.859375
9505		1.953125
9506		-3.906250
9507		3.906250
9508		0.000000
9509		7.812500
9510		0.000000
9511		7.812500
9512		1.953125
9513		11.718750
9514		5.859375
9515		11.718750
9516		9.765625
9517		13.671875
9518		11.718750
9519		15.625000
9520		11.718750
9521		19.531250
9522		13.671875
9523		21.484375
9524		15.625000
9525		23.437500
9526		17.578125
9527		25.390625
9528		21.484375
9529		29.296875
9530		23.437500
9531		29.296875
9532		25.390625
9533		31.250000
9534		29.296875
9535		31.250000
9536		31.250000
9537		37.109375
9538		31.250000
9539		39.062500
9540		33.203125
9541		41.015625
9542		35.156250
9543		42.968750
9544		37.109375
9545		44.921875
9546		37.109375
9547		46.875000
9548		39.062500
9549		46.875000
9550		44.921875
9551		46.875000
9552		44.921875
9553		48.828125
9554		44.921875
9555		52.734375
9556		46.875000
9557		54.687500
9558		48.828125
9559		54.687500
9560		48.828125
9561		56.640625
9562		50.781250
9563		58.593750
9564		52.734375
9565		60.546875
9566		54.687500
9567		60.546875
9568		56.640625
9569		60.546875
9570		56.640625
9571		62.500000
9572		56.640625
9573		64.453125
9574		58.593750
9575		64.453125
9576		58.593750
9577		64.453125
9578		58.593750
9579		66.406250
9580		60.546875
9581		66.406250
9582		60.546875
9583		66.406250
9584		62.500000
9585		64.453125
9586		64.453125
9587		66.406250
9588		62.500000
9589		68.359375
9590		62.500000
9591		68.359375
9592		62.500000
9593		68.359375
9594		62.500000
9595		68.359375
9596		62.500000
9597		68.359375
9598		60.546875
9599		68.359375
9600		64.453125
9601		66.406250
9602		62.500000
9603		66.406250
9604		60.546875
9605		66.406250
9606		60.546875
9607		66.406250
9608		58.593750
9609		66.406250
9610		58.593750
9611		66.406250
9612		56.640625
9613		64.453125
9614		56.640625
9615		64.453125
9616		56.640625
9617		62.500000
9618		56.640625
9619		60.546875
9620		54.687500
9621		60.546875
9622		52.734375
9623		58.593750
9624		50.781250
9625		58.593750
9626		50.781250
9627		56.640625
9628		48.828125
9629		56.640625
9630		46.875000
9631		54.687500
9632		44.921875
9633		52.734375
9634		46.875000
9635		48.828125
9636		44.921875
9637		46.875000
9638		41.015625
9639		46.875000
9640		39.062500
9641		46.875000
9642		37.109375
9643		44.921875
9644		35.156250
9645		42.968750
9646		33.203125
9647		41.015625
9648		31.250000
9649		39.062500
9650		31.250000
9651		35.156250
9652		29.296875
9653		33.203125
9654		25.390625
9655		31.250000
9656		23.437500
9657		29.296875
9658		19.531250
9659		27.343750
9660		17.578125
9661		25.390625
9662		15.625000
9663		23.437500
9664		13.671875
9665		21.484375
9666		11.718750
9667		19.531250
9668		11.718750
9669		15.625000
9670		9.765625
9671		13.671875
9672		5.859375
9673		11.718750
9674		1.953125
9675		9.765625
9676		0.000000
9677		7.812500
9678		-1.953125
9679		5.859375
9680		-3.906250
9681		3.906250
9682		-5.859375
9683		1.953125
9684		-5.859375
9685		-1.953125
9686		-7.812500
9687		-3.906250
9688		-11.718750
9689		-3.906250
9690		-13.671875
9691		-5.859375
9692		-15.625000
9693		-7.812500
9694		-17.578125
9695		-9.765625
9696		-17.578125
9697		-11.718750
9698		-21.484375
9699		-13.671875
9700		-21.484375
9701		-13.671875
9702		-21.484375
9703		-17.578125
9704		-23.437500
9705		-19.531250
9706		-25.390625
9707		-19.531250
9708		-27.343750
9709		-21.484375
9710		-29.296875
9711		-21.484375
9712		-29.296875
9713		-23.437500
9714		-31.250000
9715		-23.437500
9716		-31.250000
9717		-25.390625
9718		-31.250000
9719		-27.343750
9720		-31.250000
9721		-29.296875
9722		-33.203125
9723		-27.343750
9724		-35.156250
9725		-27.343750
9726		-35.156250
9727		-27.343750
9728		-35.156250
9729		-29.296875
9730		-35.156250
9731		-29.296875
9732		-35.156250
9733		-29.296875
9734		-35.156250
9735		-29.296875
9736		-33.203125
9737		-31.250000
9738		-35.156250
9739		-29.296875
9740		-35.156250
9741		-27.343750
9742		-35.156250
9743		-27.343750
9744		-35.156250
9745		-27.343750
9746		-33.203125
9747		-27.343750
9748		-33.203125
9749		-27.343750
9750		-33.203125
9751		-25.390625
9752		-29.296875
9753		-27.343750
9754		-29.296875
9755		-25.390625
9756		-29.296875
9757		-23.437500
9758		-29.296875
9759		-21.484375
9760		-27.343750
9761		-19.531250
9762		-25.390625
9763		-19.531250
9764		-25.390625
9765		-17.578125
9766		-23.437500
9767		-15.625000
9768		-21.484375
9769		-15.625000
9770		-17.578125
9771		-15.625000
9772		-17.578125
9773		-9.765625
9774		-17.578125
9775		-9.765625
9776		-15.625000
9777		-7.812500
9778		-13.671875
9779		-5.859375
9780		-11.718750
9781		-3.906250
9782		-9.765625
9783		-1.953125
9784		-7.812500
9785		0.000000
9786		-3.906250
9787		0.000000
9788		-1.953125
9789		3.906250
9790		-1.953125
9791		5.859375
9792		0.000000
9793		9.765625
9794		3.906250
9795		11.718750
9796		5.859375
9797		13.671875
9798		7.812500
9799		15.625000
9800		9.765625
9801		17.578125
9802		13.671875
9803		17.578125
9804		15.625000
9805		19.531250
9806		17.578125
9807		23.437500
9808		17.578125
9809		25.390625
9810		21.484375
9811		27.343750
9812		21.484375
9813		29.296875
9814		23.437500
9815		33.203125
9816		25.390625
9817		35.156250
9818		29.296875
9819		35.156250
9820		33.203125
9821		37.109375
9822		35.156250
9823		41.015625
9824		35.156250
9825		42.968750
9826		37.109375
9827		44.921875
9828		37.109375
9829		44.921875
9830		41.015625
9831		48.828125
9832		41.015625
9833		48.828125
9834		42.968750
9835		50.781250
9836		46.875000
9837		50.781250
9838		48.828125
9839		52.734375
9840		48.828125
9841		54.687500
9842		48.828125
9843		56.640625
9844		50.781250
9845		58.593750
9846		52.734375
9847		58.593750
9848		54.687500
9849		60.546875
9850		54.687500
9851		62.500000
9852		56.640625
9853		60.546875
9854		58.593750
9855		62.500000
9856		58.593750
9857		64.453125
9858		58.593750
9859		66.406250
9860		58.593750
9861		66.406250
9862		60.546875
9863		66.406250
9864		60.546875
9865		66.406250
9866		60.546875
9867		68.359375
9868		60.546875
9869		68.359375
9870		64.453125
9871		66.406250
9872		62.500000
9873		68.359375
9874		62.500000
9875		68.359375
9876		62.500000
9877		68.359375
9878		62.500000
9879		68.359375
9880		62.500000
9881		68.359375
9882		60.546875
9883		68.359375
9884		60.546875
9885		68.359375
9886		62.500000
9887		64.453125
9888		62.500000
9889		64.453125
9890		58.593750
9891		66.406250
9892		58.593750
9893		66.406250
9894		58.593750
9895		64.453125
9896		56.640625
9897		64.453125
9898		56.640625
9899		64.453125
9900		54.687500
9901		62.500000
9902		54.687500
9903		60.546875
9904		54.687500
9905		58.593750
9906		50.781250
9907		58.593750
9908		50.781250
9909		58.593750
9910		48.828125
9911		56.640625
9912		46.875000
9913		54.687500
9914		44.921875
9915		52.734375
9916		42.968750
9917		50.781250
9918		42.968750
9919		50.781250
9920		42.968750
9921		46.875000
9922		41.015625
9923		44.921875
9924		37.109375
9925		42.968750
9926		35.156250
9927		42.968750
9928		33.203125
9929		41.015625
9930		31.250000
9931		39.062500
9932		29.296875
9933		37.109375
9934		27.343750
9935		35.156250
9936		27.343750
9937		33.203125
9938		25.390625
9939		27.343750
9940		21.484375
9941		27.343750
9942		17.578125
9943		25.390625
9944		17.578125
9945		23.437500
9946		13.671875
9947		21.484375
9948		11.718750
9949		19.531250
9950		9.765625
9951		17.578125
9952		7.812500
9953		15.625000
9954		7.812500
9955		11.718750
9956		3.906250
9957		9.765625
9958		0.000000
9959		9.765625
9960		-1.953125
9961		5.859375
9962		-3.906250
9963		3.906250
9964		-5.859375
9965		1.953125
9966		-7.812500
9967		0.000000
9968		-9.765625
9969		-1.953125
9970		-9.765625
9971		-5.859375
9972		-11.718750
9973		-7.812500
9974		-15.625000
9975		-7.812500
9976		-15.625000
9977		-9.765625
9978		-17.578125
9979		-11.718750
9980		-19.531250
9981		-11.718750
9982		-21.484375
9983		-15.625000
9984		-23.437500
9985		-15.625000
9986		-23.437500
9987		-17.578125
9988		-23.437500
9989		-21.484375
9990		-27.343750
9991		-21.484375
9992		-29.296875
9993		-21.484375
9994		-29.296875
9995		-23.437500
9996		-31.250000
9997		-25.390625
9998		-31.250000
9999		-25.390625
10000		-33.203125
