Channel              :		CH1
Frequency            :		1.061kHz
Period               :		0.942ms
PK-PK                :		337.9mV
Probe attenuation    :		1X
Voltage per ADC value:		0.122070mV
Time interval        :		2.00000us

index		CH1_Voltage(mV)
1		109.375000
2		109.375000
3		101.562500
4		105.468750
5		97.656250
6		103.515625
7		93.750000
8		99.609375
9		89.843750
10		97.656250
11		85.937500
12		95.703125
13		83.984375
14		91.796875
15		80.078125
16		89.843750
17		76.171875
18		85.937500
19		74.218750
20		80.078125
21		70.312500
22		76.171875
23		66.406250
24		72.265625
25		62.500000
26		70.312500
27		58.593750
28		66.406250
29		54.687500
30		64.453125
31		50.781250
32		60.546875
33		46.875000
34		56.640625
35		44.921875
36		50.781250
37		41.015625
38		46.875000
39		35.156250
40		42.968750
41		29.296875
42		39.062500
43		25.390625
44		35.156250
45		23.437500
46		31.250000
47		17.578125
48		27.343750
49		11.718750
50		21.484375
51		9.765625
52		17.578125
53		5.859375
54		13.671875
55		1.953125
56		7.812500
57		-3.906250
58		3.906250
59		-7.812500
60		0.000000
61		-11.718750
62		-3.906250
63		-17.578125
64		-7.812500
65		-23.437500
66		-13.671875
67		-25.390625
68		-15.625000
69		-29.296875
70		-21.484375
71		-33.203125
72		-27.343750
73		-39.062500
74		-31.250000
75		-42.968750
76		-35.156250
77		-48.828125
78		-39.062500
79		-52.734375
80		-42.968750
81		-56.640625
82		-48.828125
83		-60.546875
84		-50.781250
85		-64.453125
86		-56.640625
87		-68.359375
88		-62.500000
89		-72.265625
90		-66.406250
91		-78.125000
92		-70.312500
93		-83.984375
94		-74.218750
95		-85.937500
96		-78.125000
97		-89.843750
98		-82.031250
99		-93.750000
100		-85.937500
101		-99.609375
102		-89.843750
103		-101.562500
104		-95.703125
105		-105.468750
106		-99.609375
107		-111.328125
108		-103.515625
109		-115.234375
110		-105.468750
111		-117.187500
112		-109.375000
113		-121.093750
114		-113.281250
115		-125.000000
116		-115.234375
117		-128.906250
118		-119.140625
119		-130.859375
120		-123.046875
121		-132.812500
122		-126.953125
123		-136.718750
124		-130.859375
125		-140.625000
126		-132.812500
127		-142.578125
128		-136.718750
129		-146.484375
130		-138.671875
131		-150.390625
132		-140.625000
133		-152.343750
134		-144.531250
135		-154.296875
136		-146.484375
137		-154.296875
138		-148.437500
139		-158.203125
140		-152.343750
141		-162.109375
142		-154.296875
143		-162.109375
144		-156.250000
145		-166.015625
146		-158.203125
147		-167.968750
148		-160.156250
149		-167.968750
150		-162.109375
151		-169.921875
152		-162.109375
153		-171.875000
154		-166.015625
155		-171.875000
156		-167.968750
157		-173.828125
158		-167.968750
159		-175.781250
160		-167.968750
161		-175.781250
162		-169.921875
163		-177.734375
164		-169.921875
165		-177.734375
166		-169.921875
167		-179.687500
168		-171.875000
169		-179.687500
170		-171.875000
171		-177.734375
172		-173.828125
173		-177.734375
174		-173.828125
175		-179.687500
176		-171.875000
177		-179.687500
178		-171.875000
179		-179.687500
180		-171.875000
181		-179.687500
182		-171.875000
183		-177.734375
184		-171.875000
185		-177.734375
186		-171.875000
187		-175.781250
188		-171.875000
189		-173.828125
190		-171.875000
191		-175.781250
192		-167.968750
193		-173.828125
194		-166.015625
195		-171.875000
196		-166.015625
197		-171.875000
198		-164.062500
199		-169.921875
200		-164.062500
201		-167.968750
202		-160.156250
203		-166.015625
204		-160.156250
205		-162.109375
206		-158.203125
207		-160.156250
208		-156.250000
209		-160.156250
210		-152.343750
211		-158.203125
212		-150.390625
213		-156.250000
214		-148.437500
215		-152.343750
216		-144.531250
217		-150.390625
218		-142.578125
219		-146.484375
220		-138.671875
221		-144.531250
222		-138.671875
223		-140.625000
224		-134.765625
225		-136.718750
226		-130.859375
227		-134.765625
228		-126.953125
229		-132.812500
230		-123.046875
231		-128.906250
232		-119.140625
233		-125.000000
234		-117.187500
235		-121.093750
236		-113.281250
237		-117.187500
238		-111.328125
239		-111.328125
240		-107.421875
241		-109.375000
242		-101.562500
243		-107.421875
244		-97.656250
245		-101.562500
246		-93.750000
247		-97.656250
248		-89.843750
249		-95.703125
250		-85.937500
251		-89.843750
252		-82.031250
253		-85.937500
254		-78.125000
255		-80.078125
256		-74.218750
257		-76.171875
258		-70.312500
259		-72.265625
260		-64.453125
261		-68.359375
262		-58.593750
263		-64.453125
264		-54.687500
265		-60.546875
266		-50.781250
267		-54.687500
268		-46.875000
269		-50.781250
270		-41.015625
271		-44.921875
272		-39.062500
273		-39.062500
274		-33.203125
275		-35.156250
276		-27.343750
277		-31.250000
278		-23.437500
279		-27.343750
280		-19.531250
281		-25.390625
282		-15.625000
283		-19.531250
284		-9.765625
285		-13.671875
286		-3.906250
287		-9.765625
288		-1.953125
289		-3.906250
290		1.953125
291		0.000000
292		5.859375
293		3.906250
294		11.718750
295		5.859375
296		15.625000
297		13.671875
298		21.484375
299		15.625000
300		25.390625
301		19.531250
302		29.296875
303		23.437500
304		33.203125
305		29.296875
306		37.109375
307		35.156250
308		41.015625
309		39.062500
310		44.921875
311		41.015625
312		50.781250
313		44.921875
314		54.687500
315		50.781250
316		58.593750
317		52.734375
318		60.546875
319		56.640625
320		64.453125
321		60.546875
322		68.359375
323		66.406250
324		70.312500
325		70.312500
326		76.171875
327		70.312500
328		80.078125
329		74.218750
330		83.984375
331		80.078125
332		85.937500
333		82.031250
334		89.843750
335		85.937500
336		93.750000
337		87.890625
338		95.703125
339		93.750000
340		97.656250
341		95.703125
342		101.562500
343		97.656250
344		105.468750
345		99.609375
346		107.421875
347		103.515625
348		111.328125
349		105.468750
350		113.281250
351		109.375000
352		117.187500
353		111.328125
354		119.140625
355		113.281250
356		119.140625
357		117.187500
358		121.093750
359		119.140625
360		125.000000
361		119.140625
362		126.953125
363		123.046875
364		130.859375
365		123.046875
366		130.859375
367		126.953125
368		134.765625
369		128.906250
370		134.765625
371		130.859375
372		136.718750
373		132.812500
374		136.718750
375		134.765625
376		138.671875
377		134.765625
378		142.578125
379		136.718750
380		144.531250
381		136.718750
382		144.531250
383		138.671875
384		146.484375
385		140.625000
386		146.484375
387		140.625000
388		148.437500
389		142.578125
390		146.484375
391		144.531250
392		148.437500
393		144.531250
394		150.390625
395		144.531250
396		150.390625
397		144.531250
398		152.343750
399		144.531250
400		152.343750
401		146.484375
402		152.343750
403		146.484375
404		154.296875
405		146.484375
406		154.296875
407		148.437500
408		150.390625
409		146.484375
410		152.343750
411		146.484375
412		154.296875
413		146.484375
414		154.296875
415		146.484375
416		152.343750
417		146.484375
418		152.343750
419		146.484375
420		152.343750
421		146.484375
422		152.343750
423		146.484375
424		150.390625
425		146.484375
426		150.390625
427		142.578125
428		150.390625
429		142.578125
430		150.390625
431		142.578125
432		148.437500
433		140.625000
434		148.437500
435		140.625000
436		146.484375
437		138.671875
438		146.484375
439		138.671875
440		144.531250
441		138.671875
442		142.578125
443		134.765625
444		140.625000
445		132.812500
446		140.625000
447		130.859375
448		138.671875
449		130.859375
450		136.718750
451		128.906250
452		134.765625
453		126.953125
454		134.765625
455		125.000000
456		132.812500
457		125.000000
458		128.906250
459		121.093750
460		125.000000
461		117.187500
462		125.000000
463		117.187500
464		123.046875
465		113.281250
466		121.093750
467		109.375000
468		117.187500
469		107.421875
470		115.234375
471		105.468750
472		113.281250
473		103.515625
474		109.375000
475		101.562500
476		105.468750
477		97.656250
478		103.515625
479		93.750000
480		103.515625
481		89.843750
482		99.609375
483		87.890625
484		95.703125
485		83.984375
486		93.750000
487		80.078125
488		89.843750
489		78.125000
490		85.937500
491		76.171875
492		80.078125
493		72.265625
494		76.171875
495		66.406250
496		74.218750
497		62.500000
498		72.265625
499		58.593750
500		68.359375
501		56.640625
502		64.453125
503		50.781250
504		60.546875
505		46.875000
506		56.640625
507		44.921875
508		50.781250
509		41.015625
510		46.875000
511		33.203125
512		42.968750
513		29.296875
514		39.062500
515		27.343750
516		35.156250
517		23.437500
518		31.250000
519		17.578125
520		27.343750
521		15.625000
522		23.437500
523		11.718750
524		19.531250
525		7.812500
526		11.718750
527		0.000000
528		7.812500
529		-3.906250
530		5.859375
531		-7.812500
532		1.953125
533		-13.671875
534		-3.906250
535		-15.625000
536		-7.812500
537		-19.531250
538		-11.718750
539		-23.437500
540		-15.625000
541		-27.343750
542		-23.437500
543		-33.203125
544		-27.343750
545		-37.109375
546		-31.250000
547		-42.968750
548		-33.203125
549		-48.828125
550		-39.062500
551		-52.734375
552		-44.921875
553		-54.687500
554		-48.828125
555		-60.546875
556		-50.781250
557		-62.500000
558		-56.640625
559		-68.359375
560		-62.500000
561		-74.218750
562		-66.406250
563		-76.171875
564		-68.359375
565		-82.031250
566		-72.265625
567		-85.937500
568		-76.171875
569		-89.843750
570		-80.078125
571		-93.750000
572		-85.937500
573		-95.703125
574		-89.843750
575		-99.609375
576		-93.750000
577		-103.515625
578		-97.656250
579		-109.375000
580		-101.562500
581		-113.281250
582		-105.468750
583		-115.234375
584		-107.421875
585		-119.140625
586		-111.328125
587		-125.000000
588		-115.234375
589		-126.953125
590		-119.140625
591		-126.953125
592		-123.046875
593		-130.859375
594		-126.953125
595		-136.718750
596		-128.906250
597		-138.671875
598		-130.859375
599		-142.578125
600		-132.812500
601		-144.531250
602		-136.718750
603		-148.437500
604		-138.671875
605		-148.437500
606		-140.625000
607		-150.390625
608		-144.531250
609		-152.343750
610		-148.437500
611		-156.250000
612		-150.390625
613		-160.156250
614		-150.390625
615		-162.109375
616		-154.296875
617		-164.062500
618		-156.250000
619		-166.015625
620		-158.203125
621		-166.015625
622		-160.156250
623		-167.968750
624		-162.109375
625		-167.968750
626		-164.062500
627		-169.921875
628		-166.015625
629		-171.875000
630		-166.015625
631		-173.828125
632		-166.015625
633		-175.781250
634		-167.968750
635		-175.781250
636		-167.968750
637		-175.781250
638		-169.921875
639		-175.781250
640		-169.921875
641		-175.781250
642		-171.875000
643		-175.781250
644		-171.875000
645		-177.734375
646		-171.875000
647		-177.734375
648		-169.921875
649		-177.734375
650		-169.921875
651		-177.734375
652		-169.921875
653		-177.734375
654		-169.921875
655		-175.781250
656		-167.968750
657		-173.828125
658		-167.968750
659		-171.875000
660		-167.968750
661		-171.875000
662		-167.968750
663		-171.875000
664		-166.015625
665		-169.921875
666		-164.062500
667		-169.921875
668		-162.109375
669		-167.968750
670		-160.156250
671		-166.015625
672		-160.156250
673		-164.062500
674		-158.203125
675		-162.109375
676		-158.203125
677		-158.203125
678		-154.296875
679		-158.203125
680		-150.390625
681		-156.250000
682		-148.437500
683		-154.296875
684		-146.484375
685		-152.343750
686		-144.531250
687		-150.390625
688		-140.625000
689		-146.484375
690		-138.671875
691		-144.531250
692		-136.718750
693		-138.671875
694		-134.765625
695		-136.718750
696		-130.859375
697		-134.765625
698		-126.953125
699		-130.859375
700		-123.046875
701		-126.953125
702		-119.140625
703		-123.046875
704		-117.187500
705		-121.093750
706		-113.281250
707		-117.187500
708		-109.375000
709		-111.328125
710		-107.421875
711		-109.375000
712		-103.515625
713		-105.468750
714		-97.656250
715		-103.515625
716		-93.750000
717		-97.656250
718		-89.843750
719		-93.750000
720		-85.937500
721		-89.843750
722		-82.031250
723		-85.937500
724		-76.171875
725		-82.031250
726		-74.218750
727		-76.171875
728		-70.312500
729		-72.265625
730		-64.453125
731		-70.312500
732		-58.593750
733		-64.453125
734		-54.687500
735		-60.546875
736		-50.781250
737		-56.640625
738		-46.875000
739		-50.781250
740		-42.968750
741		-46.875000
742		-39.062500
743		-41.015625
744		-35.156250
745		-35.156250
746		-29.296875
747		-33.203125
748		-23.437500
749		-31.250000
750		-19.531250
751		-25.390625
752		-15.625000
753		-19.531250
754		-9.765625
755		-13.671875
756		-5.859375
757		-11.718750
758		-1.953125
759		-5.859375
760		1.953125
761		0.000000
762		5.859375
763		3.906250
764		11.718750
765		5.859375
766		15.625000
767		11.718750
768		19.531250
769		15.625000
770		25.390625
771		21.484375
772		29.296875
773		25.390625
774		33.203125
775		27.343750
776		35.156250
777		33.203125
778		39.062500
779		39.062500
780		44.921875
781		41.015625
782		48.828125
783		44.921875
784		52.734375
785		48.828125
786		56.640625
787		50.781250
788		60.546875
789		54.687500
790		64.453125
791		60.546875
792		68.359375
793		64.453125
794		70.312500
795		68.359375
796		74.218750
797		72.265625
798		80.078125
799		74.218750
800		82.031250
801		78.125000
802		85.937500
803		82.031250
804		89.843750
805		83.984375
806		91.796875
807		87.890625
808		95.703125
809		91.796875
810		97.656250
811		95.703125
812		101.562500
813		99.609375
814		105.468750
815		99.609375
816		109.375000
817		103.515625
818		111.328125
819		105.468750
820		113.281250
821		107.421875
822		115.234375
823		111.328125
824		119.140625
825		113.281250
826		119.140625
827		117.187500
828		121.093750
829		119.140625
830		123.046875
831		119.140625
832		126.953125
833		121.093750
834		128.906250
835		125.000000
836		132.812500
837		126.953125
838		134.765625
839		128.906250
840		136.718750
841		128.906250
842		136.718750
843		132.812500
844		136.718750
845		134.765625
846		138.671875
847		136.718750
848		142.578125
849		136.718750
850		144.531250
851		136.718750
852		144.531250
853		138.671875
854		146.484375
855		140.625000
856		148.437500
857		142.578125
858		148.437500
859		142.578125
860		148.437500
861		144.531250
862		148.437500
863		144.531250
864		150.390625
865		144.531250
866		152.343750
867		144.531250
868		152.343750
869		146.484375
870		152.343750
871		146.484375
872		152.343750
873		146.484375
874		154.296875
875		148.437500
876		154.296875
877		150.390625
878		152.343750
879		150.390625
880		152.343750
881		148.437500
882		154.296875
883		148.437500
884		154.296875
885		146.484375
886		154.296875
887		148.437500
888		154.296875
889		146.484375
890		154.296875
891		146.484375
892		152.343750
893		148.437500
894		152.343750
895		148.437500
896		150.390625
897		144.531250
898		150.390625
899		144.531250
900		150.390625
901		144.531250
902		150.390625
903		142.578125
904		150.390625
905		142.578125
906		148.437500
907		140.625000
908		146.484375
909		140.625000
910		146.484375
911		140.625000
912		142.578125
913		138.671875
914		142.578125
915		134.765625
916		142.578125
917		132.812500
918		140.625000
919		132.812500
920		138.671875
921		130.859375
922		136.718750
923		128.906250
924		136.718750
925		126.953125
926		134.765625
927		126.953125
928		130.859375
929		125.000000
930		128.906250
931		119.140625
932		126.953125
933		117.187500
934		125.000000
935		115.234375
936		123.046875
937		113.281250
938		121.093750
939		111.328125
940		119.140625
941		107.421875
942		115.234375
943		105.468750
944		113.281250
945		103.515625
946		109.375000
947		99.609375
948		105.468750
949		97.656250
950		105.468750
951		91.796875
952		101.562500
953		89.843750
954		97.656250
955		87.890625
956		95.703125
957		83.984375
958		91.796875
959		80.078125
960		87.890625
961		78.125000
962		83.984375
963		74.218750
964		80.078125
965		70.312500
966		76.171875
967		66.406250
968		74.218750
969		62.500000
970		72.265625
971		58.593750
972		68.359375
973		52.734375
974		64.453125
975		50.781250
976		58.593750
977		48.828125
978		54.687500
979		44.921875
980		50.781250
981		39.062500
982		46.875000
983		35.156250
984		42.968750
985		31.250000
986		39.062500
987		25.390625
988		35.156250
989		21.484375
990		31.250000
991		17.578125
992		27.343750
993		15.625000
994		21.484375
995		9.765625
996		17.578125
997		5.859375
998		13.671875
999		0.000000
1000		7.812500
1001		-3.906250
1002		5.859375
1003		-7.812500
1004		1.953125
1005		-11.718750
1006		-3.906250
1007		-17.578125
1008		-7.812500
1009		-21.484375
1010		-11.718750
1011		-25.390625
1012		-17.578125
1013		-29.296875
1014		-23.437500
1015		-35.156250
1016		-27.343750
1017		-39.062500
1018		-29.296875
1019		-42.968750
1020		-35.156250
1021		-46.875000
1022		-41.015625
1023		-52.734375
1024		-42.968750
1025		-56.640625
1026		-48.828125
1027		-60.546875
1028		-52.734375
1029		-64.453125
1030		-58.593750
1031		-68.359375
1032		-62.500000
1033		-74.218750
1034		-64.453125
1035		-78.125000
1036		-70.312500
1037		-82.031250
1038		-72.265625
1039		-85.937500
1040		-78.125000
1041		-89.843750
1042		-80.078125
1043		-93.750000
1044		-85.937500
1045		-95.703125
1046		-91.796875
1047		-99.609375
1048		-95.703125
1049		-105.468750
1050		-97.656250
1051		-109.375000
1052		-101.562500
1053		-113.281250
1054		-103.515625
1055		-117.187500
1056		-107.421875
1057		-121.093750
1058		-111.328125
1059		-123.046875
1060		-115.234375
1061		-125.000000
1062		-119.140625
1063		-128.906250
1064		-123.046875
1065		-132.812500
1066		-126.953125
1067		-136.718750
1068		-128.906250
1069		-138.671875
1070		-130.859375
1071		-142.578125
1072		-132.812500
1073		-144.531250
1074		-136.718750
1075		-146.484375
1076		-138.671875
1077		-148.437500
1078		-142.578125
1079		-150.390625
1080		-146.484375
1081		-152.343750
1082		-148.437500
1083		-156.250000
1084		-150.390625
1085		-158.203125
1086		-152.343750
1087		-162.109375
1088		-154.296875
1089		-162.109375
1090		-154.296875
1091		-164.062500
1092		-158.203125
1093		-166.015625
1094		-158.203125
1095		-166.015625
1096		-162.109375
1097		-167.968750
1098		-164.062500
1099		-169.921875
1100		-164.062500
1101		-171.875000
1102		-164.062500
1103		-171.875000
1104		-166.015625
1105		-173.828125
1106		-166.015625
1107		-173.828125
1108		-166.015625
1109		-173.828125
1110		-167.968750
1111		-173.828125
1112		-167.968750
1113		-173.828125
1114		-171.875000
1115		-173.828125
1116		-171.875000
1117		-175.781250
1118		-169.921875
1119		-175.781250
1120		-167.968750
1121		-175.781250
1122		-169.921875
1123		-175.781250
1124		-167.968750
1125		-175.781250
1126		-167.968750
1127		-173.828125
1128		-167.968750
1129		-171.875000
1130		-167.968750
1131		-169.921875
1132		-167.968750
1133		-171.875000
1134		-164.062500
1135		-169.921875
1136		-164.062500
1137		-169.921875
1138		-162.109375
1139		-167.968750
1140		-160.156250
1141		-166.015625
1142		-160.156250
1143		-166.015625
1144		-156.250000
1145		-164.062500
1146		-158.203125
1147		-160.156250
1148		-156.250000
1149		-158.203125
1150		-152.343750
1151		-158.203125
1152		-150.390625
1153		-154.296875
1154		-148.437500
1155		-152.343750
1156		-144.531250
1157		-150.390625
1158		-142.578125
1159		-148.437500
1160		-138.671875
1161		-144.531250
1162		-136.718750
1163		-140.625000
1164		-136.718750
1165		-136.718750
1166		-132.812500
1167		-134.765625
1168		-128.906250
1169		-132.812500
1170		-125.000000
1171		-130.859375
1172		-121.093750
1173		-125.000000
1174		-117.187500
1175		-123.046875
1176		-115.234375
1177		-119.140625
1178		-111.328125
1179		-115.234375
1180		-109.375000
1181		-111.328125
1182		-105.468750
1183		-107.421875
1184		-99.609375
1185		-103.515625
1186		-95.703125
1187		-99.609375
1188		-91.796875
1189		-97.656250
1190		-87.890625
1191		-93.750000
1192		-83.984375
1193		-87.890625
1194		-80.078125
1195		-83.984375
1196		-76.171875
1197		-78.125000
1198		-72.265625
1199		-74.218750
1200		-68.359375
1201		-72.265625
1202		-62.500000
1203		-66.406250
1204		-58.593750
1205		-62.500000
1206		-54.687500
1207		-58.593750
1208		-48.828125
1209		-54.687500
1210		-44.921875
1211		-48.828125
1212		-41.015625
1213		-44.921875
1214		-37.109375
1215		-39.062500
1216		-33.203125
1217		-35.156250
1218		-27.343750
1219		-31.250000
1220		-21.484375
1221		-25.390625
1222		-17.578125
1223		-21.484375
1224		-13.671875
1225		-17.578125
1226		-7.812500
1227		-13.671875
1228		-3.906250
1229		-9.765625
1230		-1.953125
1231		-1.953125
1232		3.906250
1233		1.953125
1234		9.765625
1235		3.906250
1236		13.671875
1237		7.812500
1238		17.578125
1239		11.718750
1240		23.437500
1241		17.578125
1242		27.343750
1243		21.484375
1244		29.296875
1245		25.390625
1246		33.203125
1247		31.250000
1248		37.109375
1249		35.156250
1250		42.968750
1251		39.062500
1252		46.875000
1253		42.968750
1254		50.781250
1255		44.921875
1256		54.687500
1257		50.781250
1258		60.546875
1259		54.687500
1260		62.500000
1261		58.593750
1262		68.359375
1263		62.500000
1264		68.359375
1265		66.406250
1266		72.265625
1267		70.312500
1268		78.125000
1269		72.265625
1270		82.031250
1271		76.171875
1272		83.984375
1273		80.078125
1274		87.890625
1275		82.031250
1276		91.796875
1277		85.937500
1278		93.750000
1279		89.843750
1280		95.703125
1281		93.750000
1282		99.609375
1283		97.656250
1284		101.562500
1285		97.656250
1286		105.468750
1287		101.562500
1288		109.375000
1289		103.515625
1290		111.328125
1291		107.421875
1292		115.234375
1293		109.375000
1294		117.187500
1295		113.281250
1296		119.140625
1297		115.234375
1298		121.093750
1299		119.140625
1300		123.046875
1301		121.093750
1302		126.953125
1303		121.093750
1304		128.906250
1305		123.046875
1306		130.859375
1307		125.000000
1308		132.812500
1309		126.953125
1310		134.765625
1311		128.906250
1312		136.718750
1313		130.859375
1314		136.718750
1315		134.765625
1316		136.718750
1317		134.765625
1318		140.625000
1319		136.718750
1320		142.578125
1321		136.718750
1322		144.531250
1323		138.671875
1324		144.531250
1325		138.671875
1326		146.484375
1327		140.625000
1328		148.437500
1329		140.625000
1330		148.437500
1331		144.531250
1332		148.437500
1333		146.484375
1334		148.437500
1335		144.531250
1336		152.343750
1337		144.531250
1338		152.343750
1339		146.484375
1340		152.343750
1341		146.484375
1342		152.343750
1343		146.484375
1344		154.296875
1345		148.437500
1346		154.296875
1347		148.437500
1348		154.296875
1349		150.390625
1350		152.343750
1351		148.437500
1352		154.296875
1353		148.437500
1354		154.296875
1355		148.437500
1356		154.296875
1357		146.484375
1358		154.296875
1359		148.437500
1360		154.296875
1361		148.437500
1362		154.296875
1363		146.484375
1364		154.296875
1365		148.437500
1366		150.390625
1367		148.437500
1368		150.390625
1369		144.531250
1370		152.343750
1371		144.531250
1372		150.390625
1373		144.531250
1374		150.390625
1375		142.578125
1376		150.390625
1377		142.578125
1378		148.437500
1379		140.625000
1380		148.437500
1381		140.625000
1382		146.484375
1383		140.625000
1384		142.578125
1385		136.718750
1386		142.578125
1387		134.765625
1388		142.578125
1389		132.812500
1390		140.625000
1391		132.812500
1392		138.671875
1393		128.906250
1394		136.718750
1395		128.906250
1396		134.765625
1397		126.953125
1398		132.812500
1399		125.000000
1400		130.859375
1401		121.093750
1402		128.906250
1403		119.140625
1404		126.953125
1405		117.187500
1406		125.000000
1407		115.234375
1408		123.046875
1409		113.281250
1410		121.093750
1411		111.328125
1412		117.187500
1413		107.421875
1414		115.234375
1415		105.468750
1416		111.328125
1417		103.515625
1418		107.421875
1419		99.609375
1420		107.421875
1421		93.750000
1422		103.515625
1423		93.750000
1424		101.562500
1425		89.843750
1426		97.656250
1427		85.937500
1428		93.750000
1429		82.031250
1430		91.796875
1431		80.078125
1432		87.890625
1433		78.125000
1434		82.031250
1435		72.265625
1436		80.078125
1437		68.359375
1438		78.125000
1439		64.453125
1440		74.218750
1441		62.500000
1442		68.359375
1443		56.640625
1444		66.406250
1445		54.687500
1446		62.500000
1447		50.781250
1448		58.593750
1449		46.875000
1450		52.734375
1451		42.968750
1452		48.828125
1453		37.109375
1454		44.921875
1455		35.156250
1456		42.968750
1457		29.296875
1458		39.062500
1459		23.437500
1460		33.203125
1461		21.484375
1462		29.296875
1463		17.578125
1464		25.390625
1465		13.671875
1466		19.531250
1467		9.765625
1468		15.625000
1469		3.906250
1470		11.718750
1471		0.000000
1472		7.812500
1473		-3.906250
1474		3.906250
1475		-9.765625
1476		-1.953125
1477		-13.671875
1478		-3.906250
1479		-17.578125
1480		-9.765625
1481		-21.484375
1482		-13.671875
1483		-25.390625
1484		-19.531250
1485		-33.203125
1486		-23.437500
1487		-37.109375
1488		-27.343750
1489		-41.015625
1490		-31.250000
1491		-44.921875
1492		-35.156250
1493		-48.828125
1494		-39.062500
1495		-52.734375
1496		-44.921875
1497		-58.593750
1498		-48.828125
1499		-60.546875
1500		-54.687500
1501		-64.453125
1502		-58.593750
1503		-70.312500
1504		-62.500000
1505		-74.218750
1506		-66.406250
1507		-78.125000
1508		-70.312500
1509		-83.984375
1510		-74.218750
1511		-87.890625
1512		-78.125000
1513		-91.796875
1514		-82.031250
1515		-93.750000
1516		-85.937500
1517		-97.656250
1518		-91.796875
1519		-101.562500
1520		-95.703125
1521		-107.421875
1522		-97.656250
1523		-111.328125
1524		-101.562500
1525		-115.234375
1526		-105.468750
1527		-117.187500
1528		-109.375000
1529		-121.093750
1530		-113.281250
1531		-123.046875
1532		-115.234375
1533		-125.000000
1534		-121.093750
1535		-128.906250
1536		-123.046875
1537		-132.812500
1538		-126.953125
1539		-134.765625
1540		-128.906250
1541		-138.671875
1542		-132.812500
1543		-142.578125
1544		-134.765625
1545		-144.531250
1546		-138.671875
1547		-146.484375
1548		-140.625000
1549		-148.437500
1550		-142.578125
1551		-150.390625
1552		-146.484375
1553		-154.296875
1554		-148.437500
1555		-158.203125
1556		-150.390625
1557		-160.156250
1558		-152.343750
1559		-162.109375
1560		-154.296875
1561		-162.109375
1562		-156.250000
1563		-164.062500
1564		-156.250000
1565		-166.015625
1566		-158.203125
1567		-166.015625
1568		-162.109375
1569		-167.968750
1570		-164.062500
1571		-169.921875
1572		-164.062500
1573		-171.875000
1574		-164.062500
1575		-173.828125
1576		-166.015625
1577		-173.828125
1578		-166.015625
1579		-173.828125
1580		-166.015625
1581		-173.828125
1582		-167.968750
1583		-173.828125
1584		-169.921875
1585		-173.828125
1586		-169.921875
1587		-175.781250
1588		-167.968750
1589		-175.781250
1590		-167.968750
1591		-175.781250
1592		-167.968750
1593		-175.781250
1594		-167.968750
1595		-175.781250
1596		-167.968750
1597		-173.828125
1598		-167.968750
1599		-173.828125
1600		-167.968750
1601		-169.921875
1602		-167.968750
1603		-171.875000
1604		-164.062500
1605		-171.875000
1606		-164.062500
1607		-169.921875
1608		-162.109375
1609		-169.921875
1610		-162.109375
1611		-166.015625
1612		-160.156250
1613		-166.015625
1614		-158.203125
1615		-164.062500
1616		-158.203125
1617		-160.156250
1618		-156.250000
1619		-158.203125
1620		-154.296875
1621		-158.203125
1622		-150.390625
1623		-156.250000
1624		-148.437500
1625		-154.296875
1626		-144.531250
1627		-150.390625
1628		-142.578125
1629		-148.437500
1630		-140.625000
1631		-146.484375
1632		-136.718750
1633		-142.578125
1634		-136.718750
1635		-138.671875
1636		-134.765625
1637		-136.718750
1638		-128.906250
1639		-134.765625
1640		-125.000000
1641		-130.859375
1642		-123.046875
1643		-128.906250
1644		-119.140625
1645		-125.000000
1646		-115.234375
1647		-121.093750
1648		-111.328125
1649		-115.234375
1650		-109.375000
1651		-111.328125
1652		-107.421875
1653		-107.421875
1654		-101.562500
1655		-105.468750
1656		-97.656250
1657		-101.562500
1658		-93.750000
1659		-97.656250
1660		-87.890625
1661		-93.750000
1662		-85.937500
1663		-89.843750
1664		-80.078125
1665		-83.984375
1666		-76.171875
1667		-80.078125
1668		-74.218750
1669		-76.171875
1670		-70.312500
1671		-72.265625
1672		-64.453125
1673		-68.359375
1674		-58.593750
1675		-62.500000
1676		-54.687500
1677		-60.546875
1678		-50.781250
1679		-56.640625
1680		-46.875000
1681		-50.781250
1682		-41.015625
1683		-46.875000
1684		-39.062500
1685		-41.015625
1686		-35.156250
1687		-35.156250
1688		-27.343750
1689		-33.203125
1690		-23.437500
1691		-29.296875
1692		-19.531250
1693		-23.437500
1694		-13.671875
1695		-19.531250
1696		-9.765625
1697		-15.625000
1698		-5.859375
1699		-11.718750
1700		-1.953125
1701		-3.906250
1702		1.953125
1703		0.000000
1704		5.859375
1705		3.906250
1706		11.718750
1707		5.859375
1708		15.625000
1709		11.718750
1710		21.484375
1711		15.625000
1712		25.390625
1713		19.531250
1714		27.343750
1715		23.437500
1716		33.203125
1717		29.296875
1718		35.156250
1719		33.203125
1720		39.062500
1721		39.062500
1722		44.921875
1723		39.062500
1724		48.828125
1725		44.921875
1726		52.734375
1727		46.875000
1728		56.640625
1729		52.734375
1730		60.546875
1731		56.640625
1732		66.406250
1733		60.546875
1734		68.359375
1735		66.406250
1736		70.312500
1737		68.359375
1738		74.218750
1739		70.312500
1740		80.078125
1741		74.218750
1742		82.031250
1743		78.125000
1744		85.937500
1745		80.078125
1746		89.843750
1747		85.937500
1748		93.750000
1749		87.890625
1750		95.703125
1751		91.796875
1752		97.656250
1753		95.703125
1754		101.562500
1755		97.656250
1756		105.468750
1757		99.609375
1758		107.421875
1759		103.515625
1760		109.375000
1761		105.468750
1762		113.281250
1763		109.375000
1764		115.234375
1765		111.328125
1766		119.140625
1767		115.234375
1768		119.140625
1769		117.187500
1770		121.093750
1771		119.140625
1772		125.000000
1773		121.093750
1774		128.906250
1775		123.046875
1776		130.859375
1777		125.000000
1778		132.812500
1779		126.953125
1780		134.765625
1781		128.906250
1782		136.718750
1783		130.859375
1784		138.671875
1785		134.765625
1786		136.718750
1787		134.765625
1788		138.671875
1789		136.718750
1790		142.578125
1791		136.718750
1792		144.531250
1793		138.671875
1794		146.484375
1795		138.671875
1796		146.484375
1797		140.625000
1798		148.437500
1799		142.578125
1800		150.390625
1801		144.531250
1802		148.437500
1803		146.484375
1804		148.437500
1805		146.484375
1806		150.390625
1807		144.531250
1808		152.343750
1809		146.484375
1810		152.343750
1811		146.484375
1812		152.343750
1813		148.437500
1814		154.296875
1815		148.437500
1816		154.296875
1817		148.437500
1818		154.296875
1819		150.390625
1820		152.343750
1821		150.390625
1822		154.296875
1823		148.437500
1824		156.250000
1825		148.437500
1826		156.250000
1827		148.437500
1828		156.250000
1829		148.437500
1830		156.250000
1831		148.437500
1832		154.296875
1833		148.437500
1834		154.296875
1835		148.437500
1836		152.343750
1837		148.437500
1838		152.343750
1839		146.484375
1840		152.343750
1841		144.531250
1842		152.343750
1843		144.531250
1844		152.343750
1845		144.531250
1846		150.390625
1847		142.578125
1848		150.390625
1849		142.578125
1850		148.437500
1851		142.578125
1852		148.437500
1853		142.578125
1854		144.531250
1855		138.671875
1856		144.531250
1857		136.718750
1858		144.531250
1859		134.765625
1860		142.578125
1861		132.812500
1862		142.578125
1863		130.859375
1864		138.671875
1865		128.906250
1866		136.718750
1867		128.906250
1868		134.765625
1869		128.906250
1870		132.812500
1871		126.953125
1872		130.859375
1873		121.093750
1874		128.906250
1875		121.093750
1876		126.953125
1877		117.187500
1878		125.000000
1879		113.281250
1880		123.046875
1881		111.328125
1882		119.140625
1883		109.375000
1884		119.140625
1885		109.375000
1886		115.234375
1887		105.468750
1888		111.328125
1889		101.562500
1890		107.421875
1891		97.656250
1892		107.421875
1893		95.703125
1894		103.515625
1895		93.750000
1896		101.562500
1897		89.843750
1898		97.656250
1899		85.937500
1900		93.750000
1901		83.984375
1902		91.796875
1903		80.078125
1904		85.937500
1905		76.171875
1906		82.031250
1907		70.312500
1908		80.078125
1909		68.359375
1910		76.171875
1911		64.453125
1912		72.265625
1913		60.546875
1914		70.312500
1915		56.640625
1916		66.406250
1917		52.734375
1918		62.500000
1919		50.781250
1920		58.593750
1921		46.875000
1922		52.734375
1923		41.015625
1924		48.828125
1925		37.109375
1926		44.921875
1927		33.203125
1928		41.015625
1929		29.296875
1930		37.109375
1931		23.437500
1932		33.203125
1933		21.484375
1934		29.296875
1935		17.578125
1936		25.390625
1937		13.671875
1938		19.531250
1939		7.812500
1940		15.625000
1941		3.906250
1942		11.718750
1943		-1.953125
1944		7.812500
1945		-5.859375
1946		3.906250
1947		-9.765625
1948		-1.953125
1949		-15.625000
1950		-5.859375
1951		-19.531250
1952		-9.765625
1953		-21.484375
1954		-15.625000
1955		-27.343750
1956		-21.484375
1957		-33.203125
1958		-23.437500
1959		-35.156250
1960		-27.343750
1961		-41.015625
1962		-33.203125
1963		-44.921875
1964		-37.109375
1965		-50.781250
1966		-41.015625
1967		-52.734375
1968		-44.921875
1969		-56.640625
1970		-48.828125
1971		-60.546875
1972		-54.687500
1973		-66.406250
1974		-60.546875
1975		-70.312500
1976		-62.500000
1977		-76.171875
1978		-66.406250
1979		-78.125000
1980		-70.312500
1981		-83.984375
1982		-74.218750
1983		-87.890625
1984		-80.078125
1985		-89.843750
1986		-82.031250
1987		-93.750000
1988		-87.890625
1989		-97.656250
1990		-91.796875
1991		-103.515625
1992		-95.703125
1993		-107.421875
1994		-97.656250
1995		-109.375000
1996		-101.562500
1997		-113.281250
1998		-105.468750
1999		-117.187500
2000		-109.375000
2001		-121.093750
2002		-113.281250
2003		-123.046875
2004		-115.234375
2005		-125.000000
2006		-121.093750
2007		-130.859375
2008		-123.046875
2009		-134.765625
2010		-125.000000
2011		-136.718750
2012		-128.906250
2013		-138.671875
2014		-130.859375
2015		-142.578125
2016		-132.812500
2017		-144.531250
2018		-136.718750
2019		-146.484375
2020		-138.671875
2021		-148.437500
2022		-144.531250
2023		-152.343750
2024		-146.484375
2025		-154.296875
2026		-146.484375
2027		-156.250000
2028		-148.437500
2029		-160.156250
2030		-152.343750
2031		-162.109375
2032		-152.343750
2033		-162.109375
2034		-156.250000
2035		-166.015625
2036		-156.250000
2037		-164.062500
2038		-160.156250
2039		-166.015625
2040		-162.109375
2041		-169.921875
2042		-162.109375
2043		-169.921875
2044		-162.109375
2045		-171.875000
2046		-164.062500
2047		-171.875000
2048		-166.015625
2049		-173.828125
2050		-166.015625
2051		-173.828125
2052		-166.015625
2053		-171.875000
2054		-166.015625
2055		-171.875000
2056		-169.921875
2057		-173.828125
2058		-167.968750
2059		-175.781250
2060		-167.968750
2061		-173.828125
2062		-167.968750
2063		-173.828125
2064		-167.968750
2065		-173.828125
2066		-167.968750
2067		-173.828125
2068		-167.968750
2069		-173.828125
2070		-166.015625
2071		-169.921875
2072		-167.968750
2073		-169.921875
2074		-166.015625
2075		-169.921875
2076		-164.062500
2077		-169.921875
2078		-162.109375
2079		-167.968750
2080		-162.109375
2081		-167.968750
2082		-160.156250
2083		-166.015625
2084		-158.203125
2085		-164.062500
2086		-156.250000
2087		-162.109375
2088		-156.250000
2089		-158.203125
2090		-154.296875
2091		-156.250000
2092		-150.390625
2093		-156.250000
2094		-148.437500
2095		-154.296875
2096		-146.484375
2097		-150.390625
2098		-142.578125
2099		-148.437500
2100		-140.625000
2101		-146.484375
2102		-138.671875
2103		-142.578125
2104		-136.718750
2105		-138.671875
2106		-134.765625
2107		-136.718750
2108		-128.906250
2109		-134.765625
2110		-126.953125
2111		-132.812500
2112		-123.046875
2113		-126.953125
2114		-119.140625
2115		-125.000000
2116		-117.187500
2117		-121.093750
2118		-113.281250
2119		-117.187500
2120		-109.375000
2121		-113.281250
2122		-107.421875
2123		-109.375000
2124		-103.515625
2125		-105.468750
2126		-97.656250
2127		-103.515625
2128		-93.750000
2129		-99.609375
2130		-89.843750
2131		-93.750000
2132		-85.937500
2133		-89.843750
2134		-82.031250
2135		-87.890625
2136		-78.125000
2137		-83.984375
2138		-74.218750
2139		-76.171875
2140		-70.312500
2141		-72.265625
2142		-64.453125
2143		-70.312500
2144		-60.546875
2145		-64.453125
2146		-54.687500
2147		-60.546875
2148		-50.781250
2149		-56.640625
2150		-48.828125
2151		-52.734375
2152		-42.968750
2153		-46.875000
2154		-39.062500
2155		-41.015625
2156		-35.156250
2157		-37.109375
2158		-31.250000
2159		-33.203125
2160		-25.390625
2161		-29.296875
2162		-21.484375
2163		-25.390625
2164		-15.625000
2165		-21.484375
2166		-11.718750
2167		-17.578125
2168		-7.812500
2169		-11.718750
2170		-1.953125
2171		-7.812500
2172		0.000000
2173		-1.953125
2174		3.906250
2175		3.906250
2176		11.718750
2177		5.859375
2178		13.671875
2179		9.765625
2180		19.531250
2181		13.671875
2182		23.437500
2183		19.531250
2184		27.343750
2185		21.484375
2186		33.203125
2187		29.296875
2188		35.156250
2189		33.203125
2190		39.062500
2191		37.109375
2192		44.921875
2193		39.062500
2194		48.828125
2195		44.921875
2196		52.734375
2197		48.828125
2198		56.640625
2199		50.781250
2200		58.593750
2201		54.687500
2202		64.453125
2203		58.593750
2204		68.359375
2205		64.453125
2206		70.312500
2207		68.359375
2208		74.218750
2209		72.265625
2210		78.125000
2211		74.218750
2212		82.031250
2213		76.171875
2214		85.937500
2215		82.031250
2216		89.843750
2217		83.984375
2218		91.796875
2219		87.890625
2220		95.703125
2221		87.890625
2222		97.656250
2223		95.703125
2224		99.609375
2225		97.656250
2226		103.515625
2227		99.609375
2228		107.421875
2229		101.562500
2230		109.375000
2231		105.468750
2232		113.281250
2233		107.421875
2234		115.234375
2235		109.375000
2236		117.187500
2237		113.281250
2238		121.093750
2239		117.187500
2240		121.093750
2241		119.140625
2242		123.046875
2243		119.140625
2244		126.953125
2245		121.093750
2246		128.906250
2247		123.046875
2248		132.812500
2249		126.953125
2250		132.812500
2251		126.953125
2252		136.718750
2253		128.906250
2254		136.718750
2255		130.859375
2256		136.718750
2257		134.765625
2258		138.671875
2259		134.765625
2260		142.578125
2261		134.765625
2262		142.578125
2263		136.718750
2264		144.531250
2265		136.718750
2266		146.484375
2267		140.625000
2268		146.484375
2269		140.625000
2270		148.437500
2271		142.578125
2272		148.437500
2273		144.531250
2274		148.437500
2275		146.484375
2276		150.390625
2277		144.531250
2278		152.343750
2279		146.484375
2280		152.343750
2281		146.484375
2282		152.343750
2283		146.484375
2284		154.296875
2285		148.437500
2286		154.296875
2287		146.484375
2288		154.296875
2289		150.390625
2290		152.343750
2291		150.390625
2292		152.343750
2293		148.437500
2294		154.296875
2295		148.437500
2296		154.296875
2297		148.437500
2298		154.296875
2299		148.437500
2300		154.296875
2301		148.437500
2302		154.296875
2303		146.484375
2304		154.296875
2305		148.437500
2306		152.343750
2307		148.437500
2308		150.390625
2309		146.484375
2310		152.343750
2311		144.531250
2312		152.343750
2313		144.531250
2314		150.390625
2315		142.578125
2316		150.390625
2317		142.578125
2318		148.437500
2319		140.625000
2320		148.437500
2321		140.625000
2322		148.437500
2323		140.625000
2324		144.531250
2325		140.625000
2326		142.578125
2327		136.718750
2328		144.531250
2329		134.765625
2330		142.578125
2331		132.812500
2332		140.625000
2333		130.859375
2334		140.625000
2335		130.859375
2336		136.718750
2337		128.906250
2338		134.765625
2339		126.953125
2340		134.765625
2341		125.000000
2342		128.906250
2343		123.046875
2344		128.906250
2345		119.140625
2346		126.953125
2347		117.187500
2348		125.000000
2349		115.234375
2350		123.046875
2351		113.281250
2352		119.140625
2353		109.375000
2354		117.187500
2355		109.375000
2356		115.234375
2357		105.468750
2358		111.328125
2359		103.515625
2360		107.421875
2361		99.609375
2362		107.421875
2363		95.703125
2364		103.515625
2365		91.796875
2366		101.562500
2367		89.843750
2368		97.656250
2369		85.937500
2370		93.750000
2371		82.031250
2372		91.796875
2373		82.031250
2374		85.937500
2375		78.125000
2376		82.031250
2377		72.265625
2378		78.125000
2379		68.359375
2380		78.125000
2381		64.453125
2382		74.218750
2383		60.546875
2384		70.312500
2385		56.640625
2386		66.406250
2387		52.734375
2388		62.500000
2389		50.781250
2390		58.593750
2391		46.875000
2392		52.734375
2393		41.015625
2394		48.828125
2395		37.109375
2396		46.875000
2397		33.203125
2398		42.968750
2399		29.296875
2400		39.062500
2401		25.390625
2402		33.203125
2403		21.484375
2404		29.296875
2405		17.578125
2406		25.390625
2407		13.671875
2408		19.531250
2409		9.765625
2410		15.625000
2411		1.953125
2412		11.718750
2413		-1.953125
2414		7.812500
2415		-5.859375
2416		3.906250
2417		-9.765625
2418		0.000000
2419		-13.671875
2420		-5.859375
2421		-19.531250
2422		-9.765625
2423		-21.484375
2424		-13.671875
2425		-25.390625
2426		-19.531250
2427		-31.250000
2428		-23.437500
2429		-37.109375
2430		-27.343750
2431		-41.015625
2432		-31.250000
2433		-44.921875
2434		-35.156250
2435		-48.828125
2436		-41.015625
2437		-52.734375
2438		-44.921875
2439		-56.640625
2440		-48.828125
2441		-60.546875
2442		-54.687500
2443		-64.453125
2444		-58.593750
2445		-70.312500
2446		-60.546875
2447		-76.171875
2448		-66.406250
2449		-80.078125
2450		-70.312500
2451		-83.984375
2452		-74.218750
2453		-87.890625
2454		-78.125000
2455		-91.796875
2456		-82.031250
2457		-93.750000
2458		-87.890625
2459		-97.656250
2460		-91.796875
2461		-101.562500
2462		-95.703125
2463		-105.468750
2464		-97.656250
2465		-109.375000
2466		-101.562500
2467		-115.234375
2468		-103.515625
2469		-117.187500
2470		-109.375000
2471		-121.093750
2472		-111.328125
2473		-121.093750
2474		-115.234375
2475		-125.000000
2476		-121.093750
2477		-130.859375
2478		-123.046875
2479		-132.812500
2480		-125.000000
2481		-136.718750
2482		-128.906250
2483		-138.671875
2484		-130.859375
2485		-142.578125
2486		-132.812500
2487		-144.531250
2488		-136.718750
2489		-146.484375
2490		-138.671875
2491		-148.437500
2492		-144.531250
2493		-150.390625
2494		-146.484375
2495		-154.296875
2496		-146.484375
2497		-156.250000
2498		-148.437500
2499		-158.203125
2500		-150.390625
2501		-160.156250
2502		-152.343750
2503		-162.109375
2504		-154.296875
2505		-164.062500
2506		-156.250000
2507		-164.062500
2508		-158.203125
2509		-164.062500
2510		-162.109375
2511		-167.968750
2512		-162.109375
2513		-169.921875
2514		-162.109375
2515		-171.875000
2516		-164.062500
2517		-169.921875
2518		-164.062500
2519		-171.875000
2520		-166.015625
2521		-171.875000
2522		-166.015625
2523		-173.828125
2524		-166.015625
2525		-171.875000
2526		-169.921875
2527		-171.875000
2528		-169.921875
2529		-173.828125
2530		-167.968750
2531		-173.828125
2532		-167.968750
2533		-173.828125
2534		-167.968750
2535		-173.828125
2536		-167.968750
2537		-173.828125
2538		-167.968750
2539		-173.828125
2540		-166.015625
2541		-171.875000
2542		-166.015625
2543		-169.921875
2544		-167.968750
2545		-169.921875
2546		-164.062500
2547		-169.921875
2548		-162.109375
2549		-169.921875
2550		-162.109375
2551		-167.968750
2552		-160.156250
2553		-166.015625
2554		-158.203125
2555		-164.062500
2556		-158.203125
2557		-162.109375
2558		-156.250000
2559		-160.156250
2560		-156.250000
2561		-158.203125
2562		-152.343750
2563		-156.250000
2564		-150.390625
2565		-154.296875
2566		-148.437500
2567		-154.296875
2568		-144.531250
2569		-150.390625
2570		-142.578125
2571		-146.484375
2572		-140.625000
2573		-144.531250
2574		-136.718750
2575		-140.625000
2576		-136.718750
2577		-138.671875
2578		-132.812500
2579		-136.718750
2580		-128.906250
2581		-132.812500
2582		-125.000000
2583		-130.859375
2584		-123.046875
2585		-126.953125
2586		-119.140625
2587		-125.000000
2588		-115.234375
2589		-121.093750
2590		-111.328125
2591		-117.187500
2592		-109.375000
2593		-111.328125
2594		-107.421875
2595		-107.421875
2596		-101.562500
2597		-105.468750
2598		-97.656250
2599		-101.562500
2600		-93.750000
2601		-97.656250
2602		-89.843750
2603		-93.750000
2604		-83.984375
2605		-89.843750
2606		-82.031250
2607		-85.937500
2608		-78.125000
2609		-80.078125
2610		-74.218750
2611		-76.171875
2612		-70.312500
2613		-74.218750
2614		-64.453125
2615		-68.359375
2616		-58.593750
2617		-64.453125
2618		-56.640625
2619		-60.546875
2620		-50.781250
2621		-56.640625
2622		-46.875000
2623		-52.734375
2624		-41.015625
2625		-46.875000
2626		-39.062500
2627		-41.015625
2628		-35.156250
2629		-35.156250
2630		-29.296875
2631		-33.203125
2632		-23.437500
2633		-29.296875
2634		-19.531250
2635		-23.437500
2636		-15.625000
2637		-19.531250
2638		-9.765625
2639		-15.625000
2640		-7.812500
2641		-11.718750
2642		-3.906250
2643		-5.859375
2644		0.000000
2645		0.000000
2646		5.859375
2647		1.953125
2648		11.718750
2649		5.859375
2650		15.625000
2651		11.718750
2652		19.531250
2653		15.625000
2654		25.390625
2655		19.531250
2656		27.343750
2657		25.390625
2658		33.203125
2659		29.296875
2660		35.156250
2661		33.203125
2662		39.062500
2663		37.109375
2664		44.921875
2665		41.015625
2666		48.828125
2667		44.921875
2668		52.734375
2669		48.828125
2670		56.640625
2671		50.781250
2672		60.546875
2673		56.640625
2674		64.453125
2675		60.546875
2676		66.406250
2677		64.453125
2678		70.312500
2679		68.359375
2680		76.171875
2681		72.265625
2682		80.078125
2683		74.218750
2684		83.984375
2685		78.125000
2686		85.937500
2687		82.031250
2688		91.796875
2689		85.937500
2690		93.750000
2691		89.843750
2692		95.703125
2693		93.750000
2694		97.656250
2695		95.703125
2696		101.562500
2697		95.703125
2698		105.468750
2699		101.562500
2700		109.375000
2701		103.515625
2702		111.328125
2703		105.468750
2704		113.281250
2705		109.375000
2706		117.187500
2707		111.328125
2708		119.140625
2709		113.281250
2710		119.140625
2711		117.187500
2712		123.046875
2713		119.140625
2714		126.953125
2715		121.093750
2716		128.906250
2717		123.046875
2718		130.859375
2719		125.000000
2720		132.812500
2721		126.953125
2722		134.765625
2723		128.906250
2724		136.718750
2725		130.859375
2726		138.671875
2727		134.765625
2728		138.671875
2729		134.765625
2730		142.578125
2731		136.718750
2732		142.578125
2733		136.718750
2734		144.531250
2735		138.671875
2736		146.484375
2737		140.625000
2738		146.484375
2739		142.578125
2740		148.437500
2741		142.578125
2742		150.390625
2743		144.531250
2744		148.437500
2745		146.484375
2746		150.390625
2747		146.484375
2748		152.343750
2749		146.484375
2750		154.296875
2751		148.437500
2752		154.296875
2753		148.437500
2754		154.296875
2755		148.437500
2756		156.250000
2757		148.437500
2758		156.250000
2759		148.437500
2760		156.250000
2761		152.343750
2762		154.296875
2763		150.390625
2764		156.250000
2765		150.390625
2766		156.250000
2767		148.437500
2768		156.250000
2769		150.390625
2770		156.250000
2771		150.390625
2772		156.250000
2773		150.390625
2774		156.250000
2775		148.437500
2776		156.250000
2777		150.390625
2778		154.296875
2779		150.390625
2780		154.296875
2781		148.437500
2782		154.296875
2783		148.437500
2784		154.296875
2785		146.484375
2786		152.343750
2787		146.484375
2788		152.343750
2789		144.531250
2790		152.343750
2791		142.578125
2792		150.390625
2793		144.531250
2794		150.390625
2795		142.578125
2796		146.484375
2797		138.671875
2798		146.484375
2799		138.671875
2800		146.484375
2801		138.671875
2802		144.531250
2803		136.718750
2804		142.578125
2805		132.812500
2806		140.625000
2807		132.812500
2808		140.625000
2809		132.812500
2810		138.671875
2811		128.906250
2812		134.765625
2813		126.953125
2814		132.812500
2815		125.000000
2816		132.812500
2817		123.046875
2818		130.859375
2819		121.093750
2820		126.953125
2821		117.187500
2822		125.000000
2823		115.234375
2824		123.046875
2825		111.328125
2826		119.140625
2827		111.328125
2828		115.234375
2829		109.375000
2830		113.281250
2831		103.515625
2832		111.328125
2833		99.609375
2834		109.375000
2835		97.656250
2836		105.468750
2837		95.703125
2838		103.515625
2839		93.750000
2840		101.562500
2841		87.890625
2842		97.656250
2843		85.937500
2844		93.750000
2845		83.984375
2846		87.890625
2847		80.078125
2848		85.937500
2849		74.218750
2850		83.984375
2851		70.312500
2852		80.078125
2853		68.359375
2854		76.171875
2855		64.453125
2856		72.265625
2857		60.546875
2858		70.312500
2859		56.640625
2860		64.453125
2861		54.687500
2862		60.546875
2863		48.828125
2864		54.687500
2865		44.921875
2866		52.734375
2867		41.015625
2868		50.781250
2869		35.156250
2870		44.921875
2871		31.250000
2872		41.015625
2873		27.343750
2874		37.109375
2875		23.437500
2876		33.203125
2877		21.484375
2878		27.343750
2879		15.625000
2880		23.437500
2881		9.765625
2882		17.578125
2883		5.859375
2884		15.625000
2885		3.906250
2886		11.718750
2887		-3.906250
2888		7.812500
2889		-5.859375
2890		1.953125
2891		-11.718750
2892		-1.953125
2893		-13.671875
2894		-7.812500
2895		-17.578125
2896		-11.718750
2897		-23.437500
2898		-15.625000
2899		-29.296875
2900		-19.531250
2901		-31.250000
2902		-23.437500
2903		-37.109375
2904		-27.343750
2905		-42.968750
2906		-33.203125
2907		-46.875000
2908		-37.109375
2909		-50.781250
2910		-41.015625
2911		-52.734375
2912		-46.875000
2913		-56.640625
2914		-50.781250
2915		-62.500000
2916		-56.640625
2917		-68.359375
2918		-58.593750
2919		-70.312500
2920		-62.500000
2921		-76.171875
2922		-66.406250
2923		-80.078125
2924		-70.312500
2925		-83.984375
2926		-74.218750
2927		-85.937500
2928		-80.078125
2929		-89.843750
2930		-83.984375
2931		-93.750000
2932		-87.890625
2933		-99.609375
2934		-89.843750
2935		-103.515625
2936		-95.703125
2937		-105.468750
2938		-97.656250
2939		-109.375000
2940		-101.562500
2941		-113.281250
2942		-105.468750
2943		-115.234375
2944		-109.375000
2945		-119.140625
2946		-113.281250
2947		-121.093750
2948		-117.187500
2949		-126.953125
2950		-119.140625
2951		-130.859375
2952		-121.093750
2953		-132.812500
2954		-125.000000
2955		-136.718750
2956		-126.953125
2957		-138.671875
2958		-130.859375
2959		-142.578125
2960		-132.812500
2961		-142.578125
2962		-136.718750
2963		-144.531250
2964		-140.625000
2965		-148.437500
2966		-142.578125
2967		-150.390625
2968		-142.578125
2969		-152.343750
2970		-144.531250
2971		-156.250000
2972		-148.437500
2973		-156.250000
2974		-150.390625
2975		-158.203125
2976		-152.343750
2977		-160.156250
2978		-152.343750
2979		-160.156250
2980		-156.250000
2981		-162.109375
2982		-158.203125
2983		-164.062500
2984		-158.203125
2985		-166.015625
2986		-158.203125
2987		-166.015625
2988		-160.156250
2989		-167.968750
2990		-160.156250
2991		-167.968750
2992		-160.156250
2993		-167.968750
2994		-162.109375
2995		-167.968750
2996		-164.062500
2997		-167.968750
2998		-166.015625
2999		-169.921875
3000		-164.062500
3001		-169.921875
3002		-164.062500
3003		-169.921875
3004		-164.062500
3005		-169.921875
3006		-164.062500
3007		-169.921875
3008		-164.062500
3009		-169.921875
3010		-162.109375
3011		-167.968750
3012		-162.109375
3013		-166.015625
3014		-164.062500
3015		-166.015625
3016		-160.156250
3017		-166.015625
3018		-160.156250
3019		-166.015625
3020		-158.203125
3021		-164.062500
3022		-158.203125
3023		-164.062500
3024		-156.250000
3025		-162.109375
3026		-154.296875
3027		-160.156250
3028		-152.343750
3029		-156.250000
3030		-152.343750
3031		-154.296875
3032		-150.390625
3033		-154.296875
3034		-146.484375
3035		-152.343750
3036		-144.531250
3037		-150.390625
3038		-142.578125
3039		-146.484375
3040		-140.625000
3041		-144.531250
3042		-136.718750
3043		-142.578125
3044		-134.765625
3045		-140.625000
3046		-132.812500
3047		-134.765625
3048		-130.859375
3049		-132.812500
3050		-125.000000
3051		-130.859375
3052		-123.046875
3053		-128.906250
3054		-119.140625
3055		-125.000000
3056		-115.234375
3057		-121.093750
3058		-113.281250
3059		-117.187500
3060		-109.375000
3061		-115.234375
3062		-107.421875
3063		-109.375000
3064		-103.515625
3065		-105.468750
3066		-99.609375
3067		-103.515625
3068		-95.703125
3069		-99.609375
3070		-91.796875
3071		-95.703125
3072		-85.937500
3073		-93.750000
3074		-82.031250
3075		-87.890625
3076		-78.125000
3077		-82.031250
3078		-74.218750
3079		-78.125000
3080		-72.265625
3081		-74.218750
3082		-68.359375
3083		-68.359375
3084		-62.500000
3085		-66.406250
3086		-58.593750
3087		-62.500000
3088		-52.734375
3089		-58.593750
3090		-48.828125
3091		-54.687500
3092		-44.921875
3093		-48.828125
3094		-41.015625
3095		-44.921875
3096		-37.109375
3097		-39.062500
3098		-33.203125
3099		-35.156250
3100		-27.343750
3101		-31.250000
3102		-21.484375
3103		-27.343750
3104		-17.578125
3105		-21.484375
3106		-13.671875
3107		-19.531250
3108		-7.812500
3109		-13.671875
3110		-5.859375
3111		-9.765625
3112		0.000000
3113		-3.906250
3114		1.953125
3115		1.953125
3116		7.812500
3117		5.859375
3118		13.671875
3119		7.812500
3120		17.578125
3121		13.671875
3122		21.484375
3123		17.578125
3124		25.390625
3125		21.484375
3126		31.250000
3127		25.390625
3128		35.156250
3129		29.296875
3130		37.109375
3131		35.156250
3132		41.015625
3133		39.062500
3134		46.875000
3135		41.015625
3136		50.781250
3137		44.921875
3138		54.687500
3139		48.828125
3140		58.593750
3141		54.687500
3142		62.500000
3143		58.593750
3144		66.406250
3145		62.500000
3146		70.312500
3147		66.406250
3148		72.265625
3149		70.312500
3150		76.171875
3151		72.265625
3152		80.078125
3153		76.171875
3154		83.984375
3155		80.078125
3156		87.890625
3157		82.031250
3158		91.796875
3159		85.937500
3160		95.703125
3161		89.843750
3162		97.656250
3163		93.750000
3164		99.609375
3165		97.656250
3166		101.562500
3167		99.609375
3168		107.421875
3169		101.562500
3170		109.375000
3171		105.468750
3172		113.281250
3173		107.421875
3174		115.234375
3175		109.375000
3176		117.187500
3177		113.281250
3178		121.093750
3179		115.234375
3180		121.093750
3181		119.140625
3182		123.046875
3183		121.093750
3184		126.953125
3185		121.093750
3186		128.906250
3187		125.000000
3188		132.812500
3189		126.953125
3190		134.765625
3191		128.906250
3192		136.718750
3193		130.859375
3194		138.671875
3195		132.812500
3196		140.625000
3197		136.718750
3198		140.625000
3199		138.671875
3200		142.578125
3201		138.671875
3202		144.531250
3203		138.671875
3204		146.484375
3205		140.625000
3206		148.437500
3207		142.578125
3208		150.390625
3209		142.578125
3210		150.390625
3211		144.531250
3212		152.343750
3213		146.484375
3214		150.390625
3215		148.437500
3216		152.343750
3217		150.390625
3218		154.296875
3219		148.437500
3220		154.296875
3221		150.390625
3222		156.250000
3223		150.390625
3224		156.250000
3225		150.390625
3226		156.250000
3227		150.390625
3228		156.250000
3229		152.343750
3230		158.203125
3231		154.296875
3232		156.250000
3233		154.296875
3234		156.250000
3235		152.343750
3236		158.203125
3237		152.343750
3238		158.203125
3239		152.343750
3240		158.203125
3241		152.343750
3242		158.203125
3243		152.343750
3244		158.203125
3245		152.343750
3246		158.203125
3247		150.390625
3248		158.203125
3249		152.343750
3250		156.250000
3251		150.390625
3252		156.250000
3253		150.390625
3254		156.250000
3255		148.437500
3256		156.250000
3257		148.437500
3258		156.250000
3259		146.484375
3260		154.296875
3261		146.484375
3262		154.296875
3263		146.484375
3264		152.343750
3265		146.484375
3266		150.390625
3267		144.531250
3268		148.437500
3269		140.625000
3270		148.437500
3271		140.625000
3272		146.484375
3273		138.671875
3274		146.484375
3275		136.718750
3276		144.531250
3277		136.718750
3278		142.578125
3279		132.812500
3280		140.625000
3281		132.812500
3282		136.718750
3283		130.859375
3284		134.765625
3285		126.953125
3286		134.765625
3287		125.000000
3288		132.812500
3289		123.046875
3290		130.859375
3291		121.093750
3292		128.906250
3293		119.140625
3294		126.953125
3295		115.234375
3296		123.046875
3297		115.234375
3298		121.093750
3299		113.281250
3300		117.187500
3301		107.421875
3302		113.281250
3303		105.468750
3304		113.281250
3305		101.562500
3306		111.328125
3307		99.609375
3308		107.421875
3309		97.656250
3310		105.468750
3311		93.750000
3312		101.562500
3313		89.843750
3314		97.656250
3315		87.890625
3316		93.750000
3317		83.984375
3318		89.843750
3319		80.078125
3320		87.890625
3321		76.171875
3322		83.984375
3323		72.265625
3324		80.078125
3325		70.312500
3326		76.171875
3327		64.453125
3328		74.218750
3329		62.500000
3330		70.312500
3331		58.593750
3332		66.406250
3333		54.687500
3334		60.546875
3335		48.828125
3336		56.640625
3337		46.875000
3338		52.734375
3339		41.015625
3340		50.781250
3341		37.109375
3342		46.875000
3343		33.203125
3344		42.968750
3345		29.296875
3346		37.109375
3347		27.343750
3348		33.203125
3349		21.484375
3350		27.343750
3351		17.578125
3352		23.437500
3353		11.718750
3354		21.484375
3355		7.812500
3356		17.578125
3357		1.953125
3358		11.718750
3359		-1.953125
3360		7.812500
3361		-5.859375
3362		3.906250
3363		-9.765625
3364		-1.953125
3365		-11.718750
3366		-5.859375
3367		-17.578125
3368		-11.718750
3369		-23.437500
3370		-15.625000
3371		-27.343750
3372		-19.531250
3373		-33.203125
3374		-23.437500
3375		-37.109375
3376		-27.343750
3377		-41.015625
3378		-31.250000
3379		-44.921875
3380		-35.156250
3381		-48.828125
3382		-39.062500
3383		-52.734375
3384		-46.875000
3385		-58.593750
3386		-50.781250
3387		-62.500000
3388		-52.734375
3389		-66.406250
3390		-56.640625
3391		-70.312500
3392		-62.500000
3393		-74.218750
3394		-64.453125
3395		-78.125000
3396		-70.312500
3397		-82.031250
3398		-74.218750
3399		-83.984375
3400		-80.078125
3401		-87.890625
3402		-83.984375
3403		-95.703125
3404		-85.937500
3405		-97.656250
3406		-87.890625
3407		-101.562500
3408		-93.750000
3409		-105.468750
3410		-97.656250
3411		-109.375000
3412		-101.562500
3413		-113.281250
3414		-103.515625
3415		-113.281250
3416		-107.421875
3417		-117.187500
3418		-111.328125
3419		-123.046875
3420		-115.234375
3421		-125.000000
3422		-117.187500
3423		-128.906250
3424		-121.093750
3425		-130.859375
3426		-123.046875
3427		-134.765625
3428		-126.953125
3429		-136.718750
3430		-128.906250
3431		-138.671875
3432		-130.859375
3433		-140.625000
3434		-136.718750
3435		-144.531250
3436		-138.671875
3437		-146.484375
3438		-140.625000
3439		-148.437500
3440		-140.625000
3441		-152.343750
3442		-144.531250
3443		-154.296875
3444		-146.484375
3445		-154.296875
3446		-148.437500
3447		-158.203125
3448		-150.390625
3449		-156.250000
3450		-152.343750
3451		-158.203125
3452		-154.296875
3453		-162.109375
3454		-156.250000
3455		-164.062500
3456		-156.250000
3457		-164.062500
3458		-156.250000
3459		-164.062500
3460		-158.203125
3461		-166.015625
3462		-158.203125
3463		-167.968750
3464		-160.156250
3465		-167.968750
3466		-162.109375
3467		-166.015625
3468		-162.109375
3469		-167.968750
3470		-162.109375
3471		-167.968750
3472		-162.109375
3473		-169.921875
3474		-162.109375
3475		-167.968750
3476		-162.109375
3477		-167.968750
3478		-162.109375
3479		-167.968750
3480		-162.109375
3481		-167.968750
3482		-160.156250
3483		-166.015625
3484		-162.109375
3485		-164.062500
3486		-162.109375
3487		-166.015625
3488		-158.203125
3489		-164.062500
3490		-158.203125
3491		-164.062500
3492		-156.250000
3493		-162.109375
3494		-156.250000
3495		-162.109375
3496		-154.296875
3497		-158.203125
3498		-152.343750
3499		-156.250000
3500		-152.343750
3501		-154.296875
3502		-150.390625
3503		-152.343750
3504		-146.484375
3505		-150.390625
3506		-144.531250
3507		-150.390625
3508		-142.578125
3509		-148.437500
3510		-140.625000
3511		-144.531250
3512		-138.671875
3513		-142.578125
3514		-134.765625
3515		-140.625000
3516		-134.765625
3517		-134.765625
3518		-130.859375
3519		-132.812500
3520		-128.906250
3521		-130.859375
3522		-123.046875
3523		-128.906250
3524		-121.093750
3525		-125.000000
3526		-117.187500
3527		-123.046875
3528		-113.281250
3529		-119.140625
3530		-111.328125
3531		-115.234375
3532		-107.421875
3533		-109.375000
3534		-105.468750
3535		-107.421875
3536		-101.562500
3537		-103.515625
3538		-95.703125
3539		-101.562500
3540		-91.796875
3541		-97.656250
3542		-87.890625
3543		-93.750000
3544		-83.984375
3545		-89.843750
3546		-80.078125
3547		-85.937500
3548		-76.171875
3549		-80.078125
3550		-74.218750
3551		-76.171875
3552		-70.312500
3553		-70.312500
3554		-64.453125
3555		-70.312500
3556		-58.593750
3557		-64.453125
3558		-54.687500
3559		-60.546875
3560		-50.781250
3561		-56.640625
3562		-46.875000
3563		-50.781250
3564		-41.015625
3565		-44.921875
3566		-39.062500
3567		-41.015625
3568		-35.156250
3569		-35.156250
3570		-31.250000
3571		-31.250000
3572		-23.437500
3573		-27.343750
3574		-19.531250
3575		-25.390625
3576		-15.625000
3577		-19.531250
3578		-9.765625
3579		-15.625000
3580		-5.859375
3581		-11.718750
3582		-1.953125
3583		-5.859375
3584		0.000000
3585		0.000000
3586		5.859375
3587		3.906250
3588		11.718750
3589		5.859375
3590		15.625000
3591		11.718750
3592		19.531250
3593		15.625000
3594		23.437500
3595		19.531250
3596		27.343750
3597		23.437500
3598		33.203125
3599		27.343750
3600		35.156250
3601		33.203125
3602		39.062500
3603		39.062500
3604		42.968750
3605		41.015625
3606		48.828125
3607		44.921875
3608		52.734375
3609		48.828125
3610		56.640625
3611		52.734375
3612		60.546875
3613		54.687500
3614		64.453125
3615		58.593750
3616		68.359375
3617		66.406250
3618		70.312500
3619		68.359375
3620		74.218750
3621		72.265625
3622		80.078125
3623		74.218750
3624		83.984375
3625		78.125000
3626		85.937500
3627		82.031250
3628		89.843750
3629		83.984375
3630		93.750000
3631		87.890625
3632		97.656250
3633		91.796875
3634		97.656250
3635		97.656250
3636		101.562500
3637		99.609375
3638		103.515625
3639		101.562500
3640		109.375000
3641		103.515625
3642		111.328125
3643		105.468750
3644		115.234375
3645		109.375000
3646		117.187500
3647		111.328125
3648		119.140625
3649		115.234375
3650		123.046875
3651		119.140625
3652		123.046875
3653		121.093750
3654		125.000000
3655		121.093750
3656		128.906250
3657		125.000000
3658		130.859375
3659		126.953125
3660		132.812500
3661		128.906250
3662		136.718750
3663		128.906250
3664		136.718750
3665		132.812500
3666		138.671875
3667		134.765625
3668		140.625000
3669		138.671875
3670		140.625000
3671		138.671875
3672		144.531250
3673		138.671875
3674		146.484375
3675		140.625000
3676		148.437500
3677		142.578125
3678		148.437500
3679		142.578125
3680		150.390625
3681		144.531250
3682		150.390625
3683		146.484375
3684		152.343750
3685		148.437500
3686		152.343750
3687		150.390625
3688		152.343750
3689		148.437500
3690		156.250000
3691		148.437500
3692		156.250000
3693		150.390625
3694		156.250000
3695		150.390625
3696		158.203125
3697		150.390625
3698		158.203125
3699		152.343750
3700		158.203125
3701		154.296875
3702		156.250000
3703		154.296875
3704		156.250000
3705		152.343750
3706		158.203125
3707		152.343750
3708		160.156250
3709		152.343750
3710		160.156250
3711		152.343750
3712		160.156250
3713		152.343750
3714		160.156250
3715		152.343750
3716		158.203125
3717		152.343750
3718		158.203125
3719		154.296875
3720		156.250000
3721		152.343750
3722		156.250000
3723		150.390625
3724		156.250000
3725		150.390625
3726		156.250000
3727		148.437500
3728		156.250000
3729		148.437500
3730		156.250000
3731		148.437500
3732		154.296875
3733		146.484375
3734		152.343750
3735		146.484375
3736		150.390625
3737		146.484375
3738		148.437500
3739		142.578125
3740		150.390625
3741		142.578125
3742		148.437500
3743		140.625000
3744		146.484375
3745		138.671875
3746		146.484375
3747		136.718750
3748		144.531250
3749		136.718750
3750		142.578125
3751		134.765625
3752		140.625000
3753		132.812500
3754		136.718750
3755		128.906250
3756		134.765625
3757		128.906250
3758		134.765625
3759		125.000000
3760		132.812500
3761		123.046875
3762		130.859375
3763		121.093750
3764		128.906250
3765		117.187500
3766		125.000000
3767		117.187500
3768		123.046875
3769		115.234375
3770		119.140625
3771		111.328125
3772		117.187500
3773		107.421875
3774		115.234375
3775		105.468750
3776		113.281250
3777		101.562500
3778		109.375000
3779		97.656250
3780		107.421875
3781		95.703125
3782		103.515625
3783		91.796875
3784		101.562500
3785		89.843750
3786		95.703125
3787		87.890625
3788		91.796875
3789		82.031250
3790		87.890625
3791		78.125000
3792		87.890625
3793		76.171875
3794		82.031250
3795		70.312500
3796		80.078125
3797		68.359375
3798		76.171875
3799		64.453125
3800		72.265625
3801		60.546875
3802		68.359375
3803		58.593750
3804		62.500000
3805		52.734375
3806		58.593750
3807		48.828125
3808		56.640625
3809		42.968750
3810		52.734375
3811		41.015625
3812		48.828125
3813		35.156250
3814		44.921875
3815		31.250000
3816		41.015625
3817		27.343750
3818		37.109375
3819		25.390625
3820		31.250000
3821		21.484375
3822		27.343750
3823		15.625000
3824		23.437500
3825		11.718750
3826		19.531250
3827		7.812500
3828		15.625000
3829		1.953125
3830		11.718750
3831		-1.953125
3832		5.859375
3833		-7.812500
3834		1.953125
3835		-9.765625
3836		-1.953125
3837		-13.671875
3838		-7.812500
3839		-19.531250
3840		-13.671875
3841		-23.437500
3842		-15.625000
3843		-29.296875
3844		-19.531250
3845		-33.203125
3846		-25.390625
3847		-39.062500
3848		-29.296875
3849		-41.015625
3850		-33.203125
3851		-44.921875
3852		-37.109375
3853		-48.828125
3854		-42.968750
3855		-52.734375
3856		-46.875000
3857		-58.593750
3858		-50.781250
3859		-64.453125
3860		-54.687500
3861		-68.359375
3862		-58.593750
3863		-72.265625
3864		-62.500000
3865		-76.171875
3866		-66.406250
3867		-80.078125
3868		-70.312500
3869		-82.031250
3870		-74.218750
3871		-85.937500
3872		-80.078125
3873		-91.796875
3874		-83.984375
3875		-95.703125
3876		-85.937500
3877		-97.656250
3878		-91.796875
3879		-101.562500
3880		-93.750000
3881		-107.421875
3882		-97.656250
3883		-111.328125
3884		-101.562500
3885		-113.281250
3886		-105.468750
3887		-115.234375
3888		-109.375000
3889		-119.140625
3890		-113.281250
3891		-125.000000
3892		-115.234375
3893		-126.953125
3894		-119.140625
3895		-128.906250
3896		-121.093750
3897		-132.812500
3898		-125.000000
3899		-134.765625
3900		-126.953125
3901		-138.671875
3902		-130.859375
3903		-138.671875
3904		-134.765625
3905		-140.625000
3906		-136.718750
3907		-146.484375
3908		-138.671875
3909		-148.437500
3910		-140.625000
3911		-150.390625
3912		-142.578125
3913		-152.343750
3914		-144.531250
3915		-154.296875
3916		-146.484375
3917		-156.250000
3918		-148.437500
3919		-156.250000
3920		-150.390625
3921		-158.203125
3922		-154.296875
3923		-160.156250
3924		-154.296875
3925		-162.109375
3926		-154.296875
3927		-164.062500
3928		-156.250000
3929		-164.062500
3930		-158.203125
3931		-166.015625
3932		-158.203125
3933		-166.015625
3934		-160.156250
3935		-167.968750
3936		-160.156250
3937		-166.015625
3938		-162.109375
3939		-166.015625
3940		-164.062500
3941		-167.968750
3942		-162.109375
3943		-167.968750
3944		-162.109375
3945		-169.921875
3946		-162.109375
3947		-167.968750
3948		-162.109375
3949		-167.968750
3950		-162.109375
3951		-169.921875
3952		-162.109375
3953		-167.968750
3954		-162.109375
3955		-166.015625
3956		-162.109375
3957		-166.015625
3958		-160.156250
3959		-166.015625
3960		-158.203125
3961		-164.062500
3962		-158.203125
3963		-164.062500
3964		-156.250000
3965		-164.062500
3966		-156.250000
3967		-162.109375
3968		-154.296875
3969		-160.156250
3970		-154.296875
3971		-156.250000
3972		-152.343750
3973		-154.296875
3974		-150.390625
3975		-154.296875
3976		-146.484375
3977		-152.343750
3978		-144.531250
3979		-150.390625
3980		-142.578125
3981		-148.437500
3982		-138.671875
3983		-146.484375
3984		-136.718750
3985		-142.578125
3986		-134.765625
3987		-138.671875
3988		-134.765625
3989		-136.718750
3990		-130.859375
3991		-132.812500
3992		-126.953125
3993		-130.859375
3994		-123.046875
3995		-128.906250
3996		-121.093750
3997		-125.000000
3998		-117.187500
3999		-123.046875
4000		-115.234375
4001		-119.140625
4002		-109.375000
4003		-115.234375
4004		-109.375000
4005		-109.375000
4006		-105.468750
4007		-107.421875
4008		-101.562500
4009		-105.468750
4010		-95.703125
4011		-101.562500
4012		-91.796875
4013		-97.656250
4014		-87.890625
4015		-93.750000
4016		-83.984375
4017		-89.843750
4018		-82.031250
4019		-85.937500
4020		-78.125000
4021		-80.078125
4022		-74.218750
4023		-76.171875
4024		-70.312500
4025		-72.265625
4026		-62.500000
4027		-68.359375
4028		-58.593750
4029		-64.453125
4030		-54.687500
4031		-58.593750
4032		-50.781250
4033		-54.687500
4034		-44.921875
4035		-50.781250
4036		-42.968750
4037		-46.875000
4038		-39.062500
4039		-41.015625
4040		-35.156250
4041		-37.109375
4042		-29.296875
4043		-33.203125
4044		-23.437500
4045		-29.296875
4046		-19.531250
4047		-25.390625
4048		-15.625000
4049		-19.531250
4050		-9.765625
4051		-15.625000
4052		-5.859375
4053		-11.718750
4054		-3.906250
4055		-5.859375
4056		0.000000
4057		0.000000
4058		5.859375
4059		3.906250
4060		9.765625
4061		5.859375
4062		13.671875
4063		11.718750
4064		19.531250
4065		15.625000
4066		23.437500
4067		21.484375
4068		27.343750
4069		23.437500
4070		31.250000
4071		29.296875
4072		35.156250
4073		33.203125
4074		39.062500
4075		37.109375
4076		44.921875
4077		41.015625
4078		48.828125
4079		44.921875
4080		52.734375
4081		48.828125
4082		58.593750
4083		52.734375
4084		60.546875
4085		56.640625
4086		66.406250
4087		60.546875
4088		66.406250
4089		66.406250
4090		70.312500
4091		68.359375
4092		74.218750
4093		70.312500
4094		80.078125
4095		74.218750
4096		83.984375
4097		78.125000
4098		85.937500
4099		82.031250
4100		89.843750
4101		83.984375
4102		93.750000
4103		87.890625
4104		95.703125
4105		93.750000
4106		97.656250
4107		95.703125
4108		101.562500
4109		99.609375
4110		105.468750
4111		101.562500
4112		109.375000
4113		103.515625
4114		111.328125
4115		105.468750
4116		113.281250
4117		109.375000
4118		117.187500
4119		111.328125
4120		119.140625
4121		113.281250
4122		121.093750
4123		119.140625
4124		123.046875
4125		121.093750
4126		126.953125
4127		121.093750
4128		128.906250
4129		123.046875
4130		130.859375
4131		125.000000
4132		134.765625
4133		128.906250
4134		134.765625
4135		128.906250
4136		136.718750
4137		130.859375
4138		138.671875
4139		134.765625
4140		138.671875
4141		136.718750
4142		140.625000
4143		136.718750
4144		144.531250
4145		136.718750
4146		146.484375
4147		140.625000
4148		146.484375
4149		140.625000
4150		148.437500
4151		142.578125
4152		148.437500
4153		144.531250
4154		150.390625
4155		146.484375
4156		150.390625
4157		148.437500
4158		150.390625
4159		148.437500
4160		152.343750
4161		146.484375
4162		154.296875
4163		148.437500
4164		156.250000
4165		148.437500
4166		156.250000
4167		148.437500
4168		156.250000
4169		150.390625
4170		158.203125
4171		150.390625
4172		158.203125
4173		152.343750
4174		156.250000
4175		154.296875
4176		158.203125
4177		152.343750
4178		158.203125
4179		152.343750
4180		158.203125
4181		152.343750
4182		158.203125
4183		150.390625
4184		158.203125
4185		150.390625
4186		158.203125
4187		150.390625
4188		158.203125
4189		152.343750
4190		156.250000
4191		152.343750
4192		154.296875
4193		150.390625
4194		156.250000
4195		148.437500
4196		156.250000
4197		148.437500
4198		156.250000
4199		148.437500
4200		154.296875
4201		146.484375
4202		154.296875
4203		144.531250
4204		152.343750
4205		146.484375
4206		152.343750
4207		146.484375
4208		148.437500
4209		142.578125
4210		148.437500
4211		140.625000
4212		148.437500
4213		138.671875
4214		146.484375
4215		138.671875
4216		144.531250
4217		136.718750
4218		144.531250
4219		134.765625
4220		142.578125
4221		134.765625
4222		140.625000
4223		132.812500
4224		136.718750
4225		130.859375
4226		134.765625
4227		126.953125
4228		134.765625
4229		125.000000
4230		132.812500
4231		123.046875
4232		130.859375
4233		121.093750
4234		128.906250
4235		117.187500
4236		125.000000
4237		115.234375
4238		123.046875
4239		115.234375
4240		119.140625
4241		113.281250
4242		117.187500
4243		109.375000
4244		115.234375
4245		105.468750
4246		113.281250
4247		101.562500
4248		109.375000
4249		99.609375
4250		107.421875
4251		95.703125
4252		105.468750
4253		91.796875
4254		101.562500
4255		91.796875
4256		97.656250
4257		87.890625
4258		93.750000
4259		83.984375
4260		89.843750
4261		78.125000
4262		87.890625
4263		76.171875
4264		83.984375
4265		72.265625
4266		82.031250
4267		68.359375
4268		78.125000
4269		66.406250
4270		72.265625
4271		62.500000
4272		70.312500
4273		58.593750
4274		64.453125
4275		54.687500
4276		60.546875
4277		50.781250
4278		56.640625
4279		46.875000
4280		52.734375
4281		42.968750
4282		48.828125
4283		35.156250
4284		44.921875
4285		33.203125
4286		41.015625
4287		29.296875
4288		39.062500
4289		25.390625
4290		33.203125
4291		21.484375
4292		27.343750
4293		15.625000
4294		23.437500
4295		11.718750
4296		21.484375
4297		7.812500
4298		17.578125
4299		1.953125
4300		11.718750
4301		-1.953125
4302		7.812500
4303		-5.859375
4304		3.906250
4305		-9.765625
4306		0.000000
4307		-13.671875
4308		-7.812500
4309		-17.578125
4310		-11.718750
4311		-23.437500
4312		-13.671875
4313		-27.343750
4314		-17.578125
4315		-33.203125
4316		-23.437500
4317		-35.156250
4318		-27.343750
4319		-41.015625
4320		-31.250000
4321		-46.875000
4322		-35.156250
4323		-48.828125
4324		-41.015625
4325		-52.734375
4326		-46.875000
4327		-58.593750
4328		-50.781250
4329		-62.500000
4330		-54.687500
4331		-66.406250
4332		-58.593750
4333		-70.312500
4334		-62.500000
4335		-74.218750
4336		-66.406250
4337		-80.078125
4338		-70.312500
4339		-82.031250
4340		-74.218750
4341		-85.937500
4342		-80.078125
4343		-89.843750
4344		-83.984375
4345		-95.703125
4346		-85.937500
4347		-99.609375
4348		-89.843750
4349		-103.515625
4350		-93.750000
4351		-107.421875
4352		-97.656250
4353		-109.375000
4354		-101.562500
4355		-113.281250
4356		-105.468750
4357		-115.234375
4358		-109.375000
4359		-119.140625
4360		-113.281250
4361		-123.046875
4362		-115.234375
4363		-125.000000
4364		-117.187500
4365		-128.906250
4366		-121.093750
4367		-132.812500
4368		-125.000000
4369		-136.718750
4370		-128.906250
4371		-138.671875
4372		-130.859375
4373		-138.671875
4374		-132.812500
4375		-142.578125
4376		-138.671875
4377		-146.484375
4378		-140.625000
4379		-148.437500
4380		-140.625000
4381		-152.343750
4382		-142.578125
4383		-154.296875
4384		-146.484375
4385		-154.296875
4386		-148.437500
4387		-156.250000
4388		-150.390625
4389		-158.203125
4390		-152.343750
4391		-158.203125
4392		-154.296875
4393		-160.156250
4394		-156.250000
4395		-164.062500
4396		-156.250000
4397		-164.062500
4398		-158.203125
4399		-166.015625
4400		-158.203125
4401		-167.968750
4402		-160.156250
4403		-167.968750
4404		-162.109375
4405		-169.921875
4406		-162.109375
4407		-167.968750
4408		-164.062500
4409		-167.968750
4410		-166.015625
4411		-169.921875
4412		-164.062500
4413		-169.921875
4414		-164.062500
4415		-171.875000
4416		-164.062500
4417		-171.875000
4418		-164.062500
4419		-171.875000
4420		-164.062500
4421		-169.921875
4422		-164.062500
4423		-169.921875
4424		-164.062500
4425		-167.968750
4426		-164.062500
4427		-167.968750
4428		-162.109375
4429		-167.968750
4430		-160.156250
4431		-167.968750
4432		-160.156250
4433		-166.015625
4434		-160.156250
4435		-164.062500
4436		-158.203125
4437		-164.062500
4438		-156.250000
4439		-162.109375
4440		-154.296875
4441		-158.203125
4442		-154.296875
4443		-156.250000
4444		-152.343750
4445		-156.250000
4446		-150.390625
4447		-156.250000
4448		-148.437500
4449		-154.296875
4450		-144.531250
4451		-150.390625
4452		-142.578125
4453		-148.437500
4454		-140.625000
4455		-146.484375
4456		-138.671875
4457		-144.531250
4458		-136.718750
4459		-138.671875
4460		-134.765625
4461		-136.718750
4462		-130.859375
4463		-134.765625
4464		-126.953125
4465		-132.812500
4466		-125.000000
4467		-128.906250
4468		-121.093750
4469		-126.953125
4470		-119.140625
4471		-123.046875
4472		-113.281250
4473		-119.140625
4474		-111.328125
4475		-113.281250
4476		-109.375000
4477		-111.328125
4478		-105.468750
4479		-107.421875
4480		-99.609375
4481		-103.515625
4482		-95.703125
4483		-101.562500
4484		-91.796875
4485		-97.656250
4486		-87.890625
4487		-93.750000
4488		-83.984375
4489		-87.890625
4490		-80.078125
4491		-83.984375
4492		-78.125000
4493		-78.125000
4494		-74.218750
4495		-74.218750
4496		-66.406250
4497		-72.265625
4498		-62.500000
4499		-66.406250
4500		-60.546875
4501		-64.453125
4502		-54.687500
4503		-60.546875
4504		-50.781250
4505		-54.687500
4506		-44.921875
4507		-50.781250
4508		-42.968750
4509		-44.921875
4510		-39.062500
4511		-39.062500
4512		-33.203125
4513		-37.109375
4514		-27.343750
4515		-33.203125
4516		-23.437500
4517		-27.343750
4518		-19.531250
4519		-23.437500
4520		-13.671875
4521		-17.578125
4522		-9.765625
4523		-15.625000
4524		-5.859375
4525		-7.812500
4526		-1.953125
4527		-3.906250
4528		1.953125
4529		0.000000
4530		7.812500
4531		1.953125
4532		11.718750
4533		7.812500
4534		17.578125
4535		11.718750
4536		21.484375
4537		15.625000
4538		23.437500
4539		19.531250
4540		29.296875
4541		25.390625
4542		33.203125
4543		31.250000
4544		35.156250
4545		35.156250
4546		41.015625
4547		35.156250
4548		46.875000
4549		41.015625
4550		50.781250
4551		46.875000
4552		54.687500
4553		48.828125
4554		58.593750
4555		54.687500
4556		62.500000
4557		56.640625
4558		64.453125
4559		62.500000
4560		68.359375
4561		66.406250
4562		72.265625
4563		68.359375
4564		76.171875
4565		70.312500
4566		80.078125
4567		76.171875
4568		83.984375
4569		78.125000
4570		87.890625
4571		82.031250
4572		89.843750
4573		85.937500
4574		95.703125
4575		89.843750
4576		95.703125
4577		93.750000
4578		99.609375
4579		95.703125
4580		103.515625
4581		97.656250
4582		105.468750
4583		101.562500
4584		109.375000
4585		103.515625
4586		111.328125
4587		107.421875
4588		115.234375
4589		111.328125
4590		117.187500
4591		113.281250
4592		119.140625
4593		117.187500
4594		121.093750
4595		119.140625
4596		125.000000
4597		121.093750
4598		126.953125
4599		121.093750
4600		128.906250
4601		125.000000
4602		132.812500
4603		126.953125
4604		134.765625
4605		128.906250
4606		136.718750
4607		130.859375
4608		138.671875
4609		134.765625
4610		138.671875
4611		136.718750
4612		140.625000
4613		136.718750
4614		142.578125
4615		138.671875
4616		144.531250
4617		140.625000
4618		146.484375
4619		140.625000
4620		148.437500
4621		142.578125
4622		148.437500
4623		142.578125
4624		150.390625
4625		146.484375
4626		152.343750
4627		146.484375
4628		150.390625
4629		148.437500
4630		152.343750
4631		148.437500
4632		154.296875
4633		148.437500
4634		156.250000
4635		148.437500
4636		156.250000
4637		150.390625
4638		156.250000
4639		150.390625
4640		158.203125
4641		150.390625
4642		158.203125
4643		154.296875
4644		156.250000
4645		154.296875
4646		156.250000
4647		152.343750
4648		160.156250
4649		152.343750
4650		158.203125
4651		152.343750
4652		158.203125
4653		152.343750
4654		158.203125
4655		152.343750
4656		158.203125
4657		152.343750
4658		158.203125
4659		152.343750
4660		158.203125
4661		154.296875
4662		156.250000
4663		150.390625
4664		156.250000
4665		150.390625
4666		156.250000
4667		150.390625
4668		156.250000
4669		148.437500
4670		156.250000
4671		148.437500
4672		156.250000
4673		148.437500
4674		154.296875
4675		146.484375
4676		154.296875
4677		146.484375
4678		150.390625
4679		146.484375
4680		148.437500
4681		142.578125
4682		150.390625
4683		142.578125
4684		148.437500
4685		140.625000
4686		148.437500
4687		138.671875
4688		146.484375
4689		136.718750
4690		144.531250
4691		134.765625
4692		142.578125
4693		134.765625
4694		138.671875
4695		134.765625
4696		138.671875
4697		128.906250
4698		136.718750
4699		128.906250
4700		134.765625
4701		126.953125
4702		132.812500
4703		123.046875
4704		130.859375
4705		121.093750
4706		128.906250
4707		119.140625
4708		126.953125
4709		117.187500
4710		123.046875
4711		115.234375
4712		119.140625
4713		111.328125
4714		117.187500
4715		107.421875
4716		117.187500
4717		105.468750
4718		113.281250
4719		103.515625
4720		111.328125
4721		99.609375
4722		107.421875
4723		95.703125
4724		105.468750
4725		93.750000
4726		101.562500
4727		91.796875
4728		95.703125
4729		87.890625
4730		93.750000
4731		82.031250
4732		89.843750
4733		78.125000
4734		87.890625
4735		76.171875
4736		85.937500
4737		72.265625
4738		82.031250
4739		68.359375
4740		78.125000
4741		64.453125
4742		74.218750
4743		62.500000
4744		70.312500
4745		58.593750
4746		64.453125
4747		52.734375
4748		60.546875
4749		48.828125
4750		58.593750
4751		44.921875
4752		54.687500
4753		41.015625
4754		50.781250
4755		37.109375
4756		44.921875
4757		35.156250
4758		42.968750
4759		29.296875
4760		37.109375
4761		27.343750
4762		31.250000
4763		21.484375
4764		27.343750
4765		17.578125
4766		25.390625
4767		11.718750
4768		21.484375
4769		7.812500
4770		17.578125
4771		3.906250
4772		11.718750
4773		-1.953125
4774		7.812500
4775		-3.906250
4776		3.906250
4777		-7.812500
4778		-1.953125
4779		-11.718750
4780		-7.812500
4781		-17.578125
4782		-11.718750
4783		-21.484375
4784		-13.671875
4785		-27.343750
4786		-19.531250
4787		-33.203125
4788		-23.437500
4789		-35.156250
4790		-27.343750
4791		-41.015625
4792		-31.250000
4793		-42.968750
4794		-37.109375
4795		-48.828125
4796		-42.968750
4797		-52.734375
4798		-46.875000
4799		-56.640625
4800		-48.828125
4801		-62.500000
4802		-52.734375
4803		-64.453125
4804		-56.640625
4805		-72.265625
4806		-60.546875
4807		-76.171875
4808		-66.406250
4809		-78.125000
4810		-70.312500
4811		-82.031250
4812		-76.171875
4813		-85.937500
4814		-80.078125
4815		-89.843750
4816		-83.984375
4817		-93.750000
4818		-85.937500
4819		-97.656250
4820		-89.843750
4821		-101.562500
4822		-93.750000
4823		-107.421875
4824		-97.656250
4825		-109.375000
4826		-99.609375
4827		-111.328125
4828		-103.515625
4829		-115.234375
4830		-109.375000
4831		-119.140625
4832		-113.281250
4833		-121.093750
4834		-115.234375
4835		-126.953125
4836		-117.187500
4837		-126.953125
4838		-119.140625
4839		-132.812500
4840		-125.000000
4841		-134.765625
4842		-126.953125
4843		-136.718750
4844		-128.906250
4845		-138.671875
4846		-134.765625
4847		-140.625000
4848		-136.718750
4849		-144.531250
4850		-136.718750
4851		-146.484375
4852		-140.625000
4853		-150.390625
4854		-142.578125
4855		-152.343750
4856		-144.531250
4857		-154.296875
4858		-146.484375
4859		-156.250000
4860		-148.437500
4861		-156.250000
4862		-150.390625
4863		-156.250000
4864		-154.296875
4865		-160.156250
4866		-154.296875
4867		-162.109375
4868		-154.296875
4869		-164.062500
4870		-156.250000
4871		-164.062500
4872		-156.250000
4873		-166.015625
4874		-158.203125
4875		-167.968750
4876		-160.156250
4877		-167.968750
4878		-160.156250
4879		-166.015625
4880		-164.062500
4881		-166.015625
4882		-164.062500
4883		-167.968750
4884		-162.109375
4885		-169.921875
4886		-162.109375
4887		-169.921875
4888		-162.109375
4889		-169.921875
4890		-162.109375
4891		-169.921875
4892		-162.109375
4893		-169.921875
4894		-162.109375
4895		-166.015625
4896		-164.062500
4897		-166.015625
4898		-162.109375
4899		-166.015625
4900		-160.156250
4901		-166.015625
4902		-160.156250
4903		-164.062500
4904		-158.203125
4905		-164.062500
4906		-158.203125
4907		-162.109375
4908		-158.203125
4909		-162.109375
4910		-154.296875
4911		-160.156250
4912		-154.296875
4913		-156.250000
4914		-152.343750
4915		-154.296875
4916		-148.437500
4917		-154.296875
4918		-148.437500
4919		-152.343750
4920		-146.484375
4921		-152.343750
4922		-142.578125
4923		-148.437500
4924		-140.625000
4925		-146.484375
4926		-138.671875
4927		-144.531250
4928		-136.718750
4929		-140.625000
4930		-134.765625
4931		-136.718750
4932		-132.812500
4933		-134.765625
4934		-128.906250
4935		-134.765625
4936		-125.000000
4937		-128.906250
4938		-121.093750
4939		-126.953125
4940		-119.140625
4941		-125.000000
4942		-115.234375
4943		-121.093750
4944		-111.328125
4945		-117.187500
4946		-109.375000
4947		-111.328125
4948		-105.468750
4949		-107.421875
4950		-101.562500
4951		-105.468750
4952		-97.656250
4953		-101.562500
4954		-93.750000
4955		-99.609375
4956		-89.843750
4957		-95.703125
4958		-85.937500
4959		-91.796875
4960		-82.031250
4961		-85.937500
4962		-80.078125
4963		-80.078125
4964		-74.218750
4965		-76.171875
4966		-70.312500
4967		-74.218750
4968		-64.453125
4969		-70.312500
4970		-60.546875
4971		-66.406250
4972		-56.640625
4973		-62.500000
4974		-52.734375
4975		-56.640625
4976		-46.875000
4977		-50.781250
4978		-44.921875
4979		-46.875000
4980		-41.015625
4981		-42.968750
4982		-37.109375
4983		-37.109375
4984		-29.296875
4985		-33.203125
4986		-25.390625
4987		-31.250000
4988		-21.484375
4989		-25.390625
4990		-15.625000
4991		-21.484375
4992		-13.671875
4993		-17.578125
4994		-7.812500
4995		-13.671875
4996		-3.906250
4997		-5.859375
4998		0.000000
4999		-1.953125
5000		5.859375
5001		0.000000
5002		9.765625
5003		5.859375
5004		13.671875
5005		9.765625
5006		19.531250
5007		13.671875
5008		21.484375
5009		17.578125
5010		27.343750
5011		23.437500
5012		31.250000
5013		29.296875
5014		35.156250
5015		33.203125
5016		39.062500
5017		35.156250
5018		44.921875
5019		39.062500
5020		48.828125
5021		42.968750
5022		52.734375
5023		46.875000
5024		54.687500
5025		50.781250
5026		60.546875
5027		54.687500
5028		64.453125
5029		58.593750
5030		66.406250
5031		64.453125
5032		70.312500
5033		68.359375
5034		76.171875
5035		70.312500
5036		78.125000
5037		74.218750
5038		82.031250
5039		78.125000
5040		85.937500
5041		80.078125
5042		89.843750
5043		83.984375
5044		91.796875
5045		87.890625
5046		93.750000
5047		91.796875
5048		97.656250
5049		95.703125
5050		101.562500
5051		97.656250
5052		105.468750
5053		99.609375
5054		107.421875
5055		101.562500
5056		111.328125
5057		105.468750
5058		113.281250
5059		109.375000
5060		117.187500
5061		111.328125
5062		119.140625
5063		115.234375
5064		119.140625
5065		119.140625
5066		121.093750
5067		119.140625
5068		126.953125
5069		121.093750
5070		126.953125
5071		123.046875
5072		130.859375
5073		125.000000
5074		132.812500
5075		128.906250
5076		134.765625
5077		128.906250
5078		136.718750
5079		130.859375
5080		136.718750
5081		134.765625
5082		138.671875
5083		134.765625
5084		142.578125
5085		136.718750
5086		142.578125
5087		136.718750
5088		144.531250
5089		138.671875
5090		146.484375
5091		140.625000
5092		148.437500
5093		142.578125
5094		148.437500
5095		142.578125
5096		150.390625
5097		146.484375
5098		150.390625
5099		148.437500
5100		150.390625
5101		146.484375
5102		154.296875
5103		146.484375
5104		154.296875
5105		148.437500
5106		154.296875
5107		148.437500
5108		156.250000
5109		150.390625
5110		156.250000
5111		150.390625
5112		156.250000
5113		152.343750
5114		156.250000
5115		152.343750
5116		156.250000
5117		152.343750
5118		158.203125
5119		152.343750
5120		158.203125
5121		152.343750
5122		158.203125
5123		152.343750
5124		158.203125
5125		152.343750
5126		158.203125
5127		152.343750
5128		158.203125
5129		150.390625
5130		158.203125
5131		152.343750
5132		156.250000
5133		150.390625
5134		156.250000
5135		150.390625
5136		156.250000
5137		150.390625
5138		156.250000
5139		148.437500
5140		156.250000
5141		148.437500
5142		156.250000
5143		146.484375
5144		154.296875
5145		146.484375
5146		154.296875
5147		146.484375
5148		150.390625
5149		146.484375
5150		150.390625
5151		144.531250
5152		150.390625
5153		142.578125
5154		148.437500
5155		140.625000
5156		146.484375
5157		138.671875
5158		146.484375
5159		138.671875
5160		144.531250
5161		136.718750
5162		142.578125
5163		134.765625
5164		142.578125
5165		134.765625
5166		138.671875
5167		130.859375
5168		136.718750
5169		128.906250
5170		136.718750
5171		126.953125
5172		134.765625
5173		125.000000
5174		130.859375
5175		121.093750
5176		128.906250
5177		119.140625
5178		126.953125
5179		117.187500
5180		125.000000
5181		117.187500
5182		121.093750
5183		113.281250
5184		119.140625
5185		109.375000
5186		117.187500
5187		105.468750
5188		113.281250
5189		103.515625
5190		111.328125
5191		101.562500
5192		109.375000
5193		97.656250
5194		105.468750
5195		93.750000
5196		101.562500
5197		93.750000
5198		97.656250
5199		89.843750
5200		93.750000
5201		83.984375
5202		91.796875
5203		80.078125
5204		89.843750
5205		78.125000
5206		83.984375
5207		74.218750
5208		82.031250
5209		68.359375
5210		78.125000
5211		68.359375
5212		74.218750
5213		64.453125
5214		72.265625
5215		60.546875
5216		66.406250
5217		56.640625
5218		62.500000
5219		50.781250
5220		60.546875
5221		46.875000
5222		54.687500
5223		42.968750
5224		52.734375
5225		39.062500
5226		48.828125
5227		35.156250
5228		42.968750
5229		31.250000
5230		39.062500
5231		27.343750
5232		33.203125
5233		23.437500
5234		29.296875
5235		19.531250
5236		25.390625
5237		13.671875
5238		23.437500
5239		7.812500
5240		17.578125
5241		3.906250
5242		13.671875
5243		0.000000
5244		9.765625
5245		-3.906250
5246		5.859375
5247		-5.859375
5248		1.953125
5249		-11.718750
5250		-5.859375
5251		-15.625000
5252		-9.765625
5253		-19.531250
5254		-11.718750
5255		-25.390625
5256		-17.578125
5257		-29.296875
5258		-21.484375
5259		-35.156250
5260		-23.437500
5261		-39.062500
5262		-29.296875
5263		-42.968750
5264		-33.203125
5265		-46.875000
5266		-41.015625
5267		-50.781250
5268		-44.921875
5269		-54.687500
5270		-48.828125
5271		-60.546875
5272		-50.781250
5273		-62.500000
5274		-56.640625
5275		-68.359375
5276		-60.546875
5277		-74.218750
5278		-64.453125
5279		-78.125000
5280		-68.359375
5281		-80.078125
5282		-72.265625
5283		-83.984375
5284		-78.125000
5285		-89.843750
5286		-82.031250
5287		-91.796875
5288		-85.937500
5289		-95.703125
5290		-87.890625
5291		-99.609375
5292		-91.796875
5293		-103.515625
5294		-95.703125
5295		-107.421875
5296		-99.609375
5297		-109.375000
5298		-103.515625
5299		-113.281250
5300		-107.421875
5301		-117.187500
5302		-111.328125
5303		-119.140625
5304		-115.234375
5305		-125.000000
5306		-117.187500
5307		-126.953125
5308		-119.140625
5309		-130.859375
5310		-123.046875
5311		-132.812500
5312		-126.953125
5313		-134.765625
5314		-128.906250
5315		-136.718750
5316		-132.812500
5317		-140.625000
5318		-134.765625
5319		-142.578125
5320		-138.671875
5321		-146.484375
5322		-140.625000
5323		-148.437500
5324		-140.625000
5325		-152.343750
5326		-144.531250
5327		-152.343750
5328		-144.531250
5329		-154.296875
5330		-148.437500
5331		-156.250000
5332		-150.390625
5333		-156.250000
5334		-154.296875
5335		-160.156250
5336		-154.296875
5337		-160.156250
5338		-156.250000
5339		-164.062500
5340		-158.203125
5341		-166.015625
5342		-158.203125
5343		-166.015625
5344		-158.203125
5345		-166.015625
5346		-160.156250
5347		-167.968750
5348		-160.156250
5349		-166.015625
5350		-164.062500
5351		-167.968750
5352		-164.062500
5353		-167.968750
5354		-164.062500
5355		-167.968750
5356		-164.062500
5357		-169.921875
5358		-164.062500
5359		-169.921875
5360		-164.062500
5361		-169.921875
5362		-162.109375
5363		-167.968750
5364		-164.062500
5365		-167.968750
5366		-162.109375
5367		-167.968750
5368		-164.062500
5369		-166.015625
5370		-164.062500
5371		-166.015625
5372		-162.109375
5373		-164.062500
5374		-162.109375
5375		-166.015625
5376		-158.203125
5377		-166.015625
5378		-158.203125
5379		-162.109375
5380		-158.203125
5381		-162.109375
5382		-156.250000
5383		-158.203125
5384		-156.250000
5385		-156.250000
5386		-152.343750
5387		-156.250000
5388		-152.343750
5389		-152.343750
5390		-148.437500
5391		-152.343750
5392		-146.484375
5393		-150.390625
5394		-144.531250
5395		-146.484375
5396		-142.578125
5397		-144.531250
5398		-136.718750
5399		-142.578125
5400		-136.718750
5401		-138.671875
5402		-134.765625
5403		-136.718750
5404		-132.812500
5405		-134.765625
5406		-128.906250
5407		-130.859375
5408		-126.953125
5409		-128.906250
5410		-123.046875
5411		-125.000000
5412		-119.140625
5413		-121.093750
5414		-117.187500
5415		-119.140625
5416		-113.281250
5417		-113.281250
5418		-109.375000
5419		-111.328125
5420		-105.468750
5421		-107.421875
5422		-101.562500
5423		-103.515625
5424		-97.656250
5425		-101.562500
5426		-95.703125
5427		-95.703125
5428		-89.843750
5429		-91.796875
5430		-85.937500
5431		-87.890625
5432		-82.031250
5433		-83.984375
5434		-78.125000
5435		-80.078125
5436		-74.218750
5437		-76.171875
5438		-70.312500
5439		-72.265625
5440		-66.406250
5441		-66.406250
5442		-62.500000
5443		-62.500000
5444		-54.687500
5445		-58.593750
5446		-52.734375
5447		-54.687500
5448		-48.828125
5449		-50.781250
5450		-42.968750
5451		-44.921875
5452		-39.062500
5453		-41.015625
5454		-35.156250
5455		-37.109375
5456		-31.250000
5457		-31.250000
5458		-25.390625
5459		-27.343750
5460		-21.484375
5461		-23.437500
5462		-17.578125
5463		-17.578125
5464		-11.718750
5465		-13.671875
5466		-7.812500
5467		-9.765625
5468		-3.906250
5469		-5.859375
5470		0.000000
5471		-1.953125
5472		5.859375
5473		3.906250
5474		9.765625
5475		7.812500
5476		13.671875
5477		11.718750
5478		17.578125
5479		15.625000
5480		23.437500
5481		21.484375
5482		27.343750
5483		23.437500
5484		31.250000
5485		29.296875
5486		35.156250
5487		33.203125
5488		39.062500
5489		37.109375
5490		42.968750
5491		41.015625
5492		46.875000
5493		44.921875
5494		50.781250
5495		48.828125
5496		56.640625
5497		52.734375
5498		58.593750
5499		56.640625
5500		62.500000
5501		62.500000
5502		66.406250
5503		64.453125
5504		70.312500
5505		68.359375
5506		74.218750
5507		72.265625
5508		78.125000
5509		76.171875
5510		82.031250
5511		80.078125
5512		85.937500
5513		82.031250
5514		87.890625
5515		85.937500
5516		93.750000
5517		89.843750
5518		95.703125
5519		93.750000
5520		97.656250
5521		95.703125
5522		101.562500
5523		99.609375
5524		103.515625
5525		101.562500
5526		107.421875
5527		105.468750
5528		109.375000
5529		107.421875
5530		113.281250
5531		111.328125
5532		115.234375
5533		113.281250
5534		117.187500
5535		115.234375
5536		121.093750
5537		119.140625
5538		123.046875
5539		121.093750
5540		125.000000
5541		123.046875
5542		126.953125
5543		125.000000
5544		128.906250
5545		126.953125
5546		132.812500
5547		128.906250
5548		134.765625
5549		132.812500
5550		134.765625
5551		132.812500
5552		136.718750
5553		136.718750
5554		138.671875
5555		136.718750
5556		140.625000
5557		138.671875
5558		142.578125
5559		140.625000
5560		144.531250
5561		142.578125
5562		146.484375
5563		144.531250
5564		146.484375
5565		144.531250
5566		148.437500
5567		144.531250
5568		148.437500
5569		146.484375
5570		150.390625
5571		148.437500
5572		152.343750
5573		148.437500
5574		152.343750
5575		150.390625
5576		152.343750
5577		150.390625
5578		154.296875
5579		150.390625
5580		154.296875
5581		152.343750
5582		154.296875
5583		152.343750
5584		156.250000
5585		154.296875
5586		156.250000
5587		152.343750
5588		156.250000
5589		154.296875
5590		156.250000
5591		154.296875
5592		156.250000
5593		154.296875
5594		158.203125
5595		154.296875
5596		158.203125
5597		154.296875
5598		156.250000
5599		154.296875
5600		158.203125
5601		154.296875
5602		156.250000
5603		154.296875
5604		156.250000
5605		152.343750
5606		156.250000
5607		152.343750
5608		156.250000
5609		152.343750
5610		154.296875
5611		150.390625
5612		154.296875
5613		150.390625
5614		154.296875
5615		148.437500
5616		152.343750
5617		148.437500
5618		152.343750
5619		146.484375
5620		150.390625
5621		144.531250
5622		150.390625
5623		144.531250
5624		148.437500
5625		142.578125
5626		148.437500
5627		142.578125
5628		146.484375
5629		140.625000
5630		144.531250
5631		138.671875
5632		144.531250
5633		136.718750
5634		142.578125
5635		136.718750
5636		138.671875
5637		134.765625
5638		138.671875
5639		130.859375
5640		136.718750
5641		128.906250
5642		134.765625
5643		126.953125
5644		132.812500
5645		125.000000
5646		132.812500
5647		123.046875
5648		128.906250
5649		121.093750
5650		126.953125
5651		119.140625
5652		123.046875
5653		115.234375
5654		121.093750
5655		113.281250
5656		117.187500
5657		109.375000
5658		117.187500
5659		107.421875
5660		111.328125
5661		103.515625
5662		111.328125
5663		101.562500
5664		107.421875
5665		97.656250
5666		105.468750
5667		95.703125
5668		99.609375
5669		91.796875
5670		97.656250
5671		87.890625
5672		93.750000
5673		85.937500
5674		91.796875
5675		82.031250
5676		87.890625
5677		78.125000
5678		83.984375
5679		74.218750
5680		82.031250
5681		70.312500
5682		78.125000
5683		66.406250
5684		74.218750
5685		62.500000
5686		68.359375
5687		60.546875
5688		64.453125
5689		54.687500
5690		62.500000
5691		50.781250
5692		58.593750
5693		46.875000
5694		54.687500
5695		42.968750
5696		50.781250
5697		39.062500
5698		46.875000
5699		35.156250
5700		42.968750
5701		31.250000
5702		39.062500
5703		27.343750
5704		33.203125
5705		21.484375
5706		29.296875
5707		17.578125
5708		25.390625
5709		13.671875
5710		21.484375
5711		7.812500
5712		17.578125
5713		3.906250
5714		11.718750
5715		0.000000
5716		7.812500
5717		-3.906250
5718		3.906250
5719		-7.812500
5720		-1.953125
5721		-11.718750
5722		-5.859375
5723		-17.578125
5724		-9.765625
5725		-21.484375
5726		-13.671875
5727		-25.390625
5728		-17.578125
5729		-31.250000
5730		-23.437500
5731		-35.156250
5732		-27.343750
5733		-39.062500
5734		-31.250000
5735		-42.968750
5736		-37.109375
5737		-48.828125
5738		-41.015625
5739		-50.781250
5740		-44.921875
5741		-56.640625
5742		-50.781250
5743		-60.546875
5744		-54.687500
5745		-64.453125
5746		-58.593750
5747		-68.359375
5748		-62.500000
5749		-72.265625
5750		-66.406250
5751		-76.171875
5752		-72.265625
5753		-82.031250
5754		-76.171875
5755		-85.937500
5756		-80.078125
5757		-87.890625
5758		-83.984375
5759		-91.796875
5760		-87.890625
5761		-95.703125
5762		-91.796875
5763		-99.609375
5764		-95.703125
5765		-103.515625
5766		-99.609375
5767		-109.375000
5768		-101.562500
5769		-111.328125
5770		-105.468750
5771		-115.234375
5772		-109.375000
5773		-117.187500
5774		-113.281250
5775		-121.093750
5776		-117.187500
5777		-125.000000
5778		-119.140625
5779		-126.953125
5780		-123.046875
5781		-130.859375
5782		-125.000000
5783		-132.812500
5784		-128.906250
5785		-136.718750
5786		-130.859375
5787		-138.671875
5788		-134.765625
5789		-140.625000
5790		-136.718750
5791		-144.531250
5792		-140.625000
5793		-146.484375
5794		-142.578125
5795		-148.437500
5796		-144.531250
5797		-150.390625
5798		-146.484375
5799		-152.343750
5800		-148.437500
5801		-154.296875
5802		-150.390625
5803		-156.250000
5804		-152.343750
5805		-158.203125
5806		-154.296875
5807		-160.156250
5808		-156.250000
5809		-162.109375
5810		-158.203125
5811		-162.109375
5812		-160.156250
5813		-164.062500
5814		-160.156250
5815		-166.015625
5816		-162.109375
5817		-166.015625
5818		-162.109375
5819		-167.968750
5820		-164.062500
5821		-167.968750
5822		-164.062500
5823		-167.968750
5824		-166.015625
5825		-167.968750
5826		-166.015625
5827		-167.968750
5828		-166.015625
5829		-167.968750
5830		-166.015625
5831		-169.921875
5832		-166.015625
5833		-169.921875
5834		-166.015625
5835		-167.968750
5836		-166.015625
5837		-167.968750
5838		-166.015625
5839		-169.921875
5840		-164.062500
5841		-169.921875
5842		-162.109375
5843		-169.921875
5844		-160.156250
5845		-167.968750
5846		-160.156250
5847		-164.062500
5848		-162.109375
5849		-164.062500
5850		-160.156250
5851		-162.109375
5852		-158.203125
5853		-162.109375
5854		-158.203125
5855		-160.156250
5856		-156.250000
5857		-160.156250
5858		-152.343750
5859		-158.203125
5860		-148.437500
5861		-156.250000
5862		-148.437500
5863		-152.343750
5864		-148.437500
5865		-150.390625
5866		-146.484375
5867		-148.437500
5868		-144.531250
5869		-144.531250
5870		-140.625000
5871		-142.578125
5872		-138.671875
5873		-142.578125
5874		-132.812500
5875		-140.625000
5876		-130.859375
5877		-136.718750
5878		-126.953125
5879		-134.765625
5880		-125.000000
5881		-128.906250
5882		-125.000000
5883		-125.000000
5884		-121.093750
5885		-123.046875
5886		-117.187500
5887		-119.140625
5888		-113.281250
5889		-115.234375
5890		-111.328125
5891		-115.234375
5892		-105.468750
5893		-111.328125
5894		-101.562500
5895		-107.421875
5896		-97.656250
5897		-101.562500
5898		-95.703125
5899		-97.656250
5900		-91.796875
5901		-93.750000
5902		-87.890625
5903		-89.843750
5904		-83.984375
5905		-85.937500
5906		-80.078125
5907		-80.078125
5908		-72.265625
5909		-80.078125
5910		-68.359375
5911		-74.218750
5912		-62.500000
5913		-68.359375
5914		-62.500000
5915		-64.453125
5916		-58.593750
5917		-58.593750
5918		-54.687500
5919		-54.687500
5920		-48.828125
5921		-50.781250
5922		-44.921875
5923		-46.875000
5924		-39.062500
5925		-44.921875
5926		-33.203125
5927		-41.015625
5928		-27.343750
5929		-37.109375
5930		-25.390625
5931		-29.296875
5932		-23.437500
5933		-23.437500
5934		-17.578125
5935		-19.531250
5936		-13.671875
5937		-15.625000
5938		-9.765625
5939		-9.765625
5940		-3.906250
5941		-7.812500
5942		1.953125
5943		-3.906250
5944		7.812500
5945		0.000000
5946		11.718750
5947		7.812500
5948		13.671875
5949		11.718750
5950		17.578125
5951		15.625000
5952		21.484375
5953		19.531250
5954		25.390625
5955		23.437500
5956		31.250000
5957		29.296875
5958		37.109375
5959		29.296875
5960		41.015625
5961		35.156250
5962		44.921875
5963		39.062500
5964		46.875000
5965		44.921875
5966		50.781250
5967		48.828125
5968		54.687500
5969		52.734375
5970		58.593750
5971		56.640625
5972		62.500000
5973		60.546875
5974		66.406250
5975		62.500000
5976		72.265625
5977		66.406250
5978		76.171875
5979		70.312500
5980		78.125000
5981		76.171875
5982		80.078125
5983		80.078125
5984		83.984375
5985		82.031250
5986		87.890625
5987		85.937500
5988		89.843750
5989		89.843750
5990		93.750000
5991		91.796875
5992		101.562500
5993		93.750000
5994		103.515625
5995		95.703125
5996		105.468750
5997		99.609375
5998		105.468750
5999		105.468750
6000		109.375000
6001		107.421875
6002		111.328125
6003		109.375000
6004		115.234375
6005		113.281250
6006		117.187500
6007		115.234375
6008		119.140625
6009		115.234375
6010		125.000000
6011		117.187500
6012		126.953125
6013		119.140625
6014		128.906250
6015		125.000000
6016		128.906250
6017		126.953125
6018		130.859375
6019		128.906250
6020		132.812500
6021		130.859375
6022		134.765625
6023		132.812500
6024		136.718750
6025		134.765625
6026		138.671875
6027		134.765625
6028		142.578125
6029		138.671875
6030		142.578125
6031		140.625000
6032		144.531250
6033		142.578125
6034		144.531250
6035		142.578125
6036		146.484375
6037		144.531250
6038		148.437500
6039		146.484375
6040		148.437500
6041		146.484375
6042		150.390625
6043		146.484375
6044		152.343750
6045		146.484375
6046		154.296875
6047		150.390625
6048		152.343750
6049		150.390625
6050		152.343750
6051		150.390625
6052		154.296875
6053		152.343750
6054		154.296875
6055		152.343750
6056		154.296875
6057		152.343750
6058		156.250000
6059		152.343750
6060		156.250000
6061		152.343750
6062		158.203125
6063		152.343750
6064		158.203125
6065		154.296875
6066		156.250000
6067		154.296875
6068		156.250000
6069		154.296875
6070		156.250000
6071		152.343750
6072		156.250000
6073		152.343750
6074		156.250000
6075		152.343750
6076		156.250000
6077		152.343750
6078		154.296875
6079		150.390625
6080		154.296875
6081		150.390625
6082		154.296875
6083		150.390625
6084		152.343750
6085		150.390625
6086		152.343750
6087		148.437500
6088		152.343750
6089		148.437500
6090		150.390625
6091		146.484375
6092		150.390625
6093		144.531250
6094		148.437500
6095		144.531250
6096		146.484375
6097		142.578125
6098		146.484375
6099		140.625000
6100		144.531250
6101		140.625000
6102		142.578125
6103		138.671875
6104		142.578125
6105		136.718750
6106		140.625000
6107		134.765625
6108		138.671875
6109		132.812500
6110		136.718750
6111		130.859375
6112		134.765625
6113		128.906250
6114		132.812500
6115		126.953125
6116		130.859375
6117		125.000000
6118		128.906250
6119		123.046875
6120		126.953125
6121		119.140625
6122		123.046875
6123		117.187500
6124		121.093750
6125		113.281250
6126		119.140625
6127		111.328125
6128		117.187500
6129		109.375000
6130		113.281250
6131		105.468750
6132		111.328125
6133		103.515625
6134		109.375000
6135		99.609375
6136		105.468750
6137		97.656250
6138		101.562500
6139		93.750000
6140		99.609375
6141		91.796875
6142		95.703125
6143		87.890625
6144		91.796875
6145		83.984375
6146		89.843750
6147		80.078125
6148		85.937500
6149		76.171875
6150		82.031250
6151		72.265625
6152		78.125000
6153		70.312500
6154		74.218750
6155		66.406250
6156		70.312500
6157		62.500000
6158		68.359375
6159		56.640625
6160		62.500000
6161		54.687500
6162		60.546875
6163		50.781250
6164		56.640625
6165		44.921875
6166		50.781250
6167		41.015625
6168		48.828125
6169		37.109375
6170		42.968750
6171		33.203125
6172		39.062500
6173		29.296875
6174		35.156250
6175		23.437500
6176		31.250000
6177		19.531250
6178		27.343750
6179		15.625000
6180		23.437500
6181		11.718750
6182		17.578125
6183		7.812500
6184		13.671875
6185		3.906250
6186		9.765625
6187		0.000000
6188		5.859375
6189		-5.859375
6190		0.000000
6191		-9.765625
6192		-3.906250
6193		-13.671875
6194		-7.812500
6195		-17.578125
6196		-13.671875
6197		-23.437500
6198		-17.578125
6199		-27.343750
6200		-21.484375
6201		-31.250000
6202		-25.390625
6203		-37.109375
6204		-31.250000
6205		-41.015625
6206		-35.156250
6207		-44.921875
6208		-39.062500
6209		-50.781250
6210		-42.968750
6211		-54.687500
6212		-46.875000
6213		-58.593750
6214		-50.781250
6215		-62.500000
6216		-56.640625
6217		-66.406250
6218		-60.546875
6219		-70.312500
6220		-64.453125
6221		-74.218750
6222		-68.359375
6223		-78.125000
6224		-74.218750
6225		-83.984375
6226		-78.125000
6227		-87.890625
6228		-80.078125
6229		-91.796875
6230		-85.937500
6231		-95.703125
6232		-89.843750
6233		-99.609375
6234		-93.750000
6235		-101.562500
6236		-97.656250
6237		-105.468750
6238		-101.562500
6239		-109.375000
6240		-105.468750
6241		-113.281250
6242		-107.421875
6243		-117.187500
6244		-111.328125
6245		-121.093750
6246		-115.234375
6247		-123.046875
6248		-119.140625
6249		-126.953125
6250		-121.093750
6251		-130.859375
6252		-125.000000
6253		-132.812500
6254		-128.906250
6255		-136.718750
6256		-130.859375
6257		-138.671875
6258		-134.765625
6259		-140.625000
6260		-136.718750
6261		-144.531250
6262		-138.671875
6263		-146.484375
6264		-142.578125
6265		-148.437500
6266		-144.531250
6267		-152.343750
6268		-146.484375
6269		-154.296875
6270		-148.437500
6271		-156.250000
6272		-152.343750
6273		-158.203125
6274		-154.296875
6275		-160.156250
6276		-156.250000
6277		-162.109375
6278		-156.250000
6279		-164.062500
6280		-158.203125
6281		-164.062500
6282		-160.156250
6283		-166.015625
6284		-162.109375
6285		-167.968750
6286		-162.109375
6287		-167.968750
6288		-166.015625
6289		-167.968750
6290		-166.015625
6291		-169.921875
6292		-167.968750
6293		-171.875000
6294		-166.015625
6295		-171.875000
6296		-167.968750
6297		-171.875000
6298		-167.968750
6299		-171.875000
6300		-169.921875
6301		-171.875000
6302		-167.968750
6303		-171.875000
6304		-167.968750
6305		-171.875000
6306		-169.921875
6307		-171.875000
6308		-167.968750
6309		-171.875000
6310		-167.968750
6311		-169.921875
6312		-167.968750
6313		-169.921875
6314		-167.968750
6315		-169.921875
6316		-166.015625
6317		-167.968750
6318		-164.062500
6319		-167.968750
6320		-164.062500
6321		-166.015625
6322		-162.109375
6323		-164.062500
6324		-162.109375
6325		-164.062500
6326		-160.156250
6327		-162.109375
6328		-158.203125
6329		-160.156250
6330		-156.250000
6331		-158.203125
6332		-154.296875
6333		-156.250000
6334		-152.343750
6335		-154.296875
6336		-150.390625
6337		-152.343750
6338		-148.437500
6339		-150.390625
6340		-146.484375
6341		-148.437500
6342		-142.578125
6343		-144.531250
6344		-140.625000
6345		-142.578125
6346		-138.671875
6347		-138.671875
6348		-134.765625
6349		-136.718750
6350		-130.859375
6351		-132.812500
6352		-128.906250
6353		-130.859375
6354		-125.000000
6355		-126.953125
6356		-123.046875
6357		-123.046875
6358		-119.140625
6359		-121.093750
6360		-115.234375
6361		-117.187500
6362		-111.328125
6363		-113.281250
6364		-107.421875
6365		-109.375000
6366		-103.515625
6367		-105.468750
6368		-101.562500
6369		-101.562500
6370		-97.656250
6371		-99.609375
6372		-93.750000
6373		-95.703125
6374		-87.890625
6375		-89.843750
6376		-83.984375
6377		-85.937500
6378		-80.078125
6379		-82.031250
6380		-76.171875
6381		-78.125000
6382		-72.265625
6383		-74.218750
6384		-68.359375
6385		-68.359375
6386		-64.453125
6387		-64.453125
6388		-58.593750
6389		-60.546875
6390		-54.687500
6391		-56.640625
6392		-50.781250
6393		-52.734375
6394		-46.875000
6395		-46.875000
6396		-41.015625
6397		-42.968750
6398		-37.109375
6399		-39.062500
6400		-33.203125
6401		-33.203125
6402		-27.343750
6403		-29.296875
6404		-23.437500
6405		-25.390625
6406		-19.531250
6407		-19.531250
6408		-13.671875
6409		-15.625000
6410		-9.765625
6411		-11.718750
6412		-5.859375
6413		-7.812500
6414		0.000000
6415		-1.953125
6416		3.906250
6417		1.953125
6418		7.812500
6419		5.859375
6420		11.718750
6421		11.718750
6422		15.625000
6423		15.625000
6424		21.484375
6425		19.531250
6426		25.390625
6427		23.437500
6428		29.296875
6429		27.343750
6430		33.203125
6431		31.250000
6432		39.062500
6433		37.109375
6434		41.015625
6435		41.015625
6436		46.875000
6437		44.921875
6438		50.781250
6439		48.828125
6440		54.687500
6441		52.734375
6442		58.593750
6443		56.640625
6444		62.500000
6445		60.546875
6446		64.453125
6447		64.453125
6448		68.359375
6449		68.359375
6450		72.265625
6451		70.312500
6452		76.171875
6453		74.218750
6454		80.078125
6455		78.125000
6456		83.984375
6457		82.031250
6458		85.937500
6459		85.937500
6460		89.843750
6461		87.890625
6462		93.750000
6463		91.796875
6464		97.656250
6465		93.750000
6466		99.609375
6467		97.656250
6468		101.562500
6469		101.562500
6470		105.468750
6471		103.515625
6472		107.421875
6473		107.421875
6474		111.328125
6475		109.375000
6476		113.281250
6477		111.328125
6478		115.234375
6479		113.281250
6480		119.140625
6481		115.234375
6482		121.093750
6483		119.140625
6484		123.046875
6485		121.093750
6486		125.000000
6487		125.000000
6488		128.906250
6489		126.953125
6490		130.859375
6491		128.906250
6492		132.812500
6493		130.859375
6494		134.765625
6495		130.859375
6496		136.718750
6497		132.812500
6498		138.671875
6499		134.765625
6500		138.671875
6501		136.718750
6502		140.625000
6503		138.671875
6504		142.578125
6505		140.625000
6506		144.531250
6507		142.578125
6508		144.531250
6509		142.578125
6510		146.484375
6511		144.531250
6512		148.437500
6513		144.531250
6514		150.390625
6515		144.531250
6516		150.390625
6517		148.437500
6518		150.390625
6519		148.437500
6520		152.343750
6521		148.437500
6522		152.343750
6523		150.390625
6524		152.343750
6525		150.390625
6526		154.296875
6527		150.390625
6528		154.296875
6529		150.390625
6530		156.250000
6531		150.390625
6532		156.250000
6533		152.343750
6534		154.296875
6535		152.343750
6536		154.296875
6537		152.343750
6538		154.296875
6539		152.343750
6540		154.296875
6541		152.343750
6542		154.296875
6543		152.343750
6544		154.296875
6545		150.390625
6546		156.250000
6547		150.390625
6548		156.250000
6549		150.390625
6550		154.296875
6551		150.390625
6552		152.343750
6553		150.390625
6554		152.343750
6555		148.437500
6556		152.343750
6557		148.437500
6558		150.390625
6559		146.484375
6560		150.390625
6561		146.484375
6562		148.437500
6563		144.531250
6564		148.437500
6565		142.578125
6566		148.437500
6567		142.578125
6568		146.484375
6569		140.625000
6570		144.531250
6571		138.671875
6572		142.578125
6573		138.671875
6574		142.578125
6575		136.718750
6576		140.625000
6577		134.765625
6578		138.671875
6579		132.812500
6580		136.718750
6581		130.859375
6582		136.718750
6583		128.906250
6584		132.812500
6585		126.953125
6586		130.859375
6587		125.000000
6588		128.906250
6589		123.046875
6590		126.953125
6591		121.093750
6592		125.000000
6593		117.187500
6594		121.093750
6595		115.234375
6596		119.140625
6597		111.328125
6598		119.140625
6599		109.375000
6600		115.234375
6601		107.421875
6602		111.328125
6603		103.515625
6604		109.375000
6605		101.562500
6606		105.468750
6607		97.656250
6608		101.562500
6609		93.750000
6610		99.609375
6611		91.796875
6612		95.703125
6613		87.890625
6614		93.750000
6615		83.984375
6616		89.843750
6617		82.031250
6618		85.937500
6619		78.125000
6620		82.031250
6621		74.218750
6622		80.078125
6623		70.312500
6624		76.171875
6625		66.406250
6626		72.265625
6627		62.500000
6628		68.359375
6629		58.593750
6630		64.453125
6631		54.687500
6632		62.500000
6633		50.781250
6634		58.593750
6635		46.875000
6636		52.734375
6637		42.968750
6638		48.828125
6639		39.062500
6640		44.921875
6641		35.156250
6642		41.015625
6643		31.250000
6644		37.109375
6645		25.390625
6646		33.203125
6647		21.484375
6648		29.296875
6649		17.578125
6650		23.437500
6651		13.671875
6652		19.531250
6653		9.765625
6654		15.625000
6655		5.859375
6656		11.718750
6657		0.000000
6658		5.859375
6659		-3.906250
6660		1.953125
6661		-7.812500
6662		-1.953125
6663		-13.671875
6664		-7.812500
6665		-17.578125
6666		-11.718750
6667		-21.484375
6668		-15.625000
6669		-25.390625
6670		-19.531250
6671		-31.250000
6672		-25.390625
6673		-35.156250
6674		-29.296875
6675		-39.062500
6676		-33.203125
6677		-42.968750
6678		-37.109375
6679		-48.828125
6680		-41.015625
6681		-52.734375
6682		-46.875000
6683		-56.640625
6684		-50.781250
6685		-60.546875
6686		-54.687500
6687		-66.406250
6688		-58.593750
6689		-68.359375
6690		-62.500000
6691		-72.265625
6692		-68.359375
6693		-78.125000
6694		-70.312500
6695		-82.031250
6696		-76.171875
6697		-85.937500
6698		-80.078125
6699		-89.843750
6700		-83.984375
6701		-93.750000
6702		-87.890625
6703		-97.656250
6704		-91.796875
6705		-101.562500
6706		-95.703125
6707		-105.468750
6708		-99.609375
6709		-107.421875
6710		-103.515625
6711		-111.328125
6712		-107.421875
6713		-115.234375
6714		-109.375000
6715		-119.140625
6716		-113.281250
6717		-123.046875
6718		-117.187500
6719		-125.000000
6720		-119.140625
6721		-128.906250
6722		-123.046875
6723		-130.859375
6724		-126.953125
6725		-134.765625
6726		-130.859375
6727		-136.718750
6728		-132.812500
6729		-140.625000
6730		-136.718750
6731		-142.578125
6732		-138.671875
6733		-146.484375
6734		-140.625000
6735		-148.437500
6736		-144.531250
6737		-150.390625
6738		-146.484375
6739		-152.343750
6740		-148.437500
6741		-154.296875
6742		-150.390625
6743		-156.250000
6744		-152.343750
6745		-158.203125
6746		-154.296875
6747		-160.156250
6748		-156.250000
6749		-162.109375
6750		-158.203125
6751		-164.062500
6752		-160.156250
6753		-166.015625
6754		-162.109375
6755		-166.015625
6756		-164.062500
6757		-167.968750
6758		-164.062500
6759		-167.968750
6760		-166.015625
6761		-169.921875
6762		-166.015625
6763		-169.921875
6764		-167.968750
6765		-169.921875
6766		-167.968750
6767		-171.875000
6768		-167.968750
6769		-171.875000
6770		-169.921875
6771		-171.875000
6772		-169.921875
6773		-171.875000
6774		-169.921875
6775		-171.875000
6776		-169.921875
6777		-171.875000
6778		-169.921875
6779		-171.875000
6780		-167.968750
6781		-171.875000
6782		-167.968750
6783		-169.921875
6784		-167.968750
6785		-169.921875
6786		-166.015625
6787		-169.921875
6788		-166.015625
6789		-167.968750
6790		-166.015625
6791		-167.968750
6792		-164.062500
6793		-166.015625
6794		-162.109375
6795		-164.062500
6796		-160.156250
6797		-162.109375
6798		-160.156250
6799		-162.109375
6800		-158.203125
6801		-160.156250
6802		-156.250000
6803		-158.203125
6804		-154.296875
6805		-156.250000
6806		-152.343750
6807		-154.296875
6808		-150.390625
6809		-150.390625
6810		-148.437500
6811		-148.437500
6812		-144.531250
6813		-146.484375
6814		-142.578125
6815		-144.531250
6816		-140.625000
6817		-140.625000
6818		-136.718750
6819		-138.671875
6820		-134.765625
6821		-136.718750
6822		-130.859375
6823		-132.812500
6824		-128.906250
6825		-128.906250
6826		-125.000000
6827		-126.953125
6828		-121.093750
6829		-123.046875
6830		-117.187500
6831		-119.140625
6832		-115.234375
6833		-115.234375
6834		-111.328125
6835		-111.328125
6836		-107.421875
6837		-109.375000
6838		-103.515625
6839		-105.468750
6840		-99.609375
6841		-101.562500
6842		-95.703125
6843		-97.656250
6844		-91.796875
6845		-93.750000
6846		-87.890625
6847		-89.843750
6848		-83.984375
6849		-83.984375
6850		-80.078125
6851		-80.078125
6852		-74.218750
6853		-76.171875
6854		-70.312500
6855		-72.265625
6856		-66.406250
6857		-68.359375
6858		-62.500000
6859		-64.453125
6860		-58.593750
6861		-58.593750
6862		-52.734375
6863		-54.687500
6864		-48.828125
6865		-50.781250
6866		-44.921875
6867		-46.875000
6868		-41.015625
6869		-41.015625
6870		-35.156250
6871		-37.109375
6872		-31.250000
6873		-33.203125
6874		-27.343750
6875		-27.343750
6876		-21.484375
6877		-23.437500
6878		-17.578125
6879		-19.531250
6880		-13.671875
6881		-13.671875
6882		-7.812500
6883		-9.765625
6884		-3.906250
6885		-5.859375
6886		0.000000
6887		-1.953125
6888		3.906250
6889		3.906250
6890		9.765625
6891		7.812500
6892		13.671875
6893		11.718750
6894		17.578125
6895		15.625000
6896		21.484375
6897		21.484375
6898		27.343750
6899		25.390625
6900		31.250000
6901		29.296875
6902		35.156250
6903		33.203125
6904		39.062500
6905		37.109375
6906		42.968750
6907		41.015625
6908		46.875000
6909		44.921875
6910		50.781250
6911		48.828125
6912		54.687500
6913		52.734375
6914		58.593750
6915		56.640625
6916		62.500000
6917		60.546875
6918		66.406250
6919		64.453125
6920		70.312500
6921		68.359375
6922		74.218750
6923		72.265625
6924		78.125000
6925		76.171875
6926		80.078125
6927		80.078125
6928		83.984375
6929		83.984375
6930		87.890625
6931		85.937500
6932		91.796875
6933		89.843750
6934		93.750000
6935		93.750000
6936		97.656250
6937		95.703125
6938		99.609375
6939		99.609375
6940		103.515625
6941		101.562500
6942		105.468750
6943		105.468750
6944		109.375000
6945		107.421875
6946		111.328125
6947		109.375000
6948		115.234375
6949		113.281250
6950		117.187500
6951		115.234375
6952		119.140625
6953		117.187500
6954		121.093750
6955		119.140625
6956		125.000000
6957		121.093750
6958		126.953125
6959		125.000000
6960		128.906250
6961		126.953125
6962		130.859375
6963		128.906250
6964		132.812500
6965		130.859375
6966		134.765625
6967		132.812500
6968		136.718750
6969		134.765625
6970		138.671875
6971		136.718750
6972		140.625000
6973		138.671875
6974		140.625000
6975		138.671875
6976		142.578125
6977		140.625000
6978		144.531250
6979		142.578125
6980		144.531250
6981		142.578125
6982		146.484375
6983		144.531250
6984		148.437500
6985		146.484375
6986		148.437500
6987		146.484375
6988		150.390625
6989		148.437500
6990		150.390625
6991		148.437500
6992		150.390625
6993		148.437500
6994		152.343750
6995		150.390625
6996		152.343750
6997		150.390625
6998		152.343750
6999		150.390625
7000		154.296875
7001		150.390625
7002		154.296875
7003		150.390625
7004		154.296875
7005		152.343750
7006		154.296875
7007		152.343750
7008		154.296875
7009		152.343750
7010		154.296875
7011		152.343750
7012		154.296875
7013		152.343750
7014		154.296875
7015		152.343750
7016		154.296875
7017		150.390625
7018		154.296875
7019		150.390625
7020		154.296875
7021		150.390625
7022		152.343750
7023		148.437500
7024		152.343750
7025		148.437500
7026		152.343750
7027		148.437500
7028		150.390625
7029		146.484375
7030		150.390625
7031		146.484375
7032		148.437500
7033		144.531250
7034		148.437500
7035		144.531250
7036		146.484375
7037		142.578125
7038		146.484375
7039		140.625000
7040		144.531250
7041		140.625000
7042		142.578125
7043		138.671875
7044		142.578125
7045		136.718750
7046		140.625000
7047		134.765625
7048		138.671875
7049		132.812500
7050		136.718750
7051		130.859375
7052		134.765625
7053		128.906250
7054		132.812500
7055		126.953125
7056		130.859375
7057		125.000000
7058		128.906250
7059		123.046875
7060		126.953125
7061		121.093750
7062		125.000000
7063		119.140625
7064		123.046875
7065		115.234375
7066		119.140625
7067		113.281250
7068		117.187500
7069		111.328125
7070		115.234375
7071		107.421875
7072		111.328125
7073		105.468750
7074		109.375000
7075		101.562500
7076		107.421875
7077		99.609375
7078		103.515625
7079		95.703125
7080		99.609375
7081		93.750000
7082		97.656250
7083		89.843750
7084		93.750000
7085		85.937500
7086		91.796875
7087		82.031250
7088		87.890625
7089		80.078125
7090		83.984375
7091		76.171875
7092		80.078125
7093		72.265625
7094		78.125000
7095		68.359375
7096		74.218750
7097		64.453125
7098		70.312500
7099		60.546875
7100		66.406250
7101		56.640625
7102		62.500000
7103		52.734375
7104		58.593750
7105		48.828125
7106		54.687500
7107		44.921875
7108		50.781250
7109		41.015625
7110		46.875000
7111		37.109375
7112		42.968750
7113		33.203125
7114		39.062500
7115		27.343750
7116		33.203125
7117		23.437500
7118		29.296875
7119		19.531250
7120		25.390625
7121		15.625000
7122		21.484375
7123		9.765625
7124		15.625000
7125		5.859375
7126		11.718750
7127		1.953125
7128		7.812500
7129		-1.953125
7130		3.906250
7131		-5.859375
7132		0.000000
7133		-11.718750
7134		-5.859375
7135		-15.625000
7136		-9.765625
7137		-19.531250
7138		-13.671875
7139		-23.437500
7140		-19.531250
7141		-29.296875
7142		-23.437500
7143		-33.203125
7144		-27.343750
7145		-37.109375
7146		-31.250000
7147		-42.968750
7148		-37.109375
7149		-46.875000
7150		-41.015625
7151		-50.781250
7152		-44.921875
7153		-54.687500
7154		-48.828125
7155		-58.593750
7156		-52.734375
7157		-64.453125
7158		-58.593750
7159		-68.359375
7160		-62.500000
7161		-72.265625
7162		-66.406250
7163		-76.171875
7164		-70.312500
7165		-80.078125
7166		-74.218750
7167		-83.984375
7168		-78.125000
7169		-87.890625
7170		-82.031250
7171		-91.796875
7172		-87.890625
7173		-95.703125
7174		-91.796875
7175		-99.609375
7176		-93.750000
7177		-103.515625
7178		-99.609375
7179		-107.421875
7180		-101.562500
7181		-111.328125
7182		-105.468750
7183		-115.234375
7184		-109.375000
7185		-119.140625
7186		-113.281250
7187		-121.093750
7188		-117.187500
7189		-125.000000
7190		-119.140625
7191		-128.906250
7192		-123.046875
7193		-130.859375
7194		-126.953125
7195		-134.765625
7196		-128.906250
7197		-136.718750
7198		-132.812500
7199		-140.625000
7200		-134.765625
7201		-142.578125
7202		-138.671875
7203		-146.484375
7204		-140.625000
7205		-148.437500
7206		-144.531250
7207		-150.390625
7208		-146.484375
7209		-152.343750
7210		-148.437500
7211		-154.296875
7212		-150.390625
7213		-156.250000
7214		-154.296875
7215		-160.156250
7216		-154.296875
7217		-162.109375
7218		-158.203125
7219		-162.109375
7220		-158.203125
7221		-164.062500
7222		-160.156250
7223		-166.015625
7224		-162.109375
7225		-167.968750
7226		-164.062500
7227		-167.968750
7228		-166.015625
7229		-169.921875
7230		-166.015625
7231		-169.921875
7232		-167.968750
7233		-171.875000
7234		-167.968750
7235		-171.875000
7236		-169.921875
7237		-171.875000
7238		-169.921875
7239		-173.828125
7240		-169.921875
7241		-173.828125
7242		-171.875000
7243		-173.828125
7244		-171.875000
7245		-173.828125
7246		-171.875000
7247		-173.828125
7248		-171.875000
7249		-173.828125
7250		-171.875000
7251		-173.828125
7252		-169.921875
7253		-173.828125
7254		-169.921875
7255		-173.828125
7256		-169.921875
7257		-171.875000
7258		-167.968750
7259		-169.921875
7260		-167.968750
7261		-169.921875
7262		-166.015625
7263		-167.968750
7264		-166.015625
7265		-167.968750
7266		-164.062500
7267		-166.015625
7268		-162.109375
7269		-164.062500
7270		-162.109375
7271		-164.062500
7272		-160.156250
7273		-162.109375
7274		-158.203125
7275		-160.156250
7276		-156.250000
7277		-158.203125
7278		-154.296875
7279		-156.250000
7280		-152.343750
7281		-152.343750
7282		-148.437500
7283		-150.390625
7284		-146.484375
7285		-148.437500
7286		-144.531250
7287		-146.484375
7288		-140.625000
7289		-142.578125
7290		-138.671875
7291		-140.625000
7292		-134.765625
7293		-136.718750
7294		-132.812500
7295		-134.765625
7296		-128.906250
7297		-130.859375
7298		-126.953125
7299		-126.953125
7300		-123.046875
7301		-125.000000
7302		-119.140625
7303		-121.093750
7304		-115.234375
7305		-117.187500
7306		-111.328125
7307		-113.281250
7308		-107.421875
7309		-109.375000
7310		-103.515625
7311		-105.468750
7312		-99.609375
7313		-101.562500
7314		-95.703125
7315		-97.656250
7316		-91.796875
7317		-93.750000
7318		-87.890625
7319		-89.843750
7320		-83.984375
7321		-85.937500
7322		-80.078125
7323		-82.031250
7324		-76.171875
7325		-78.125000
7326		-72.265625
7327		-72.265625
7328		-66.406250
7329		-68.359375
7330		-62.500000
7331		-64.453125
7332		-58.593750
7333		-60.546875
7334		-54.687500
7335		-54.687500
7336		-48.828125
7337		-50.781250
7338		-44.921875
7339		-46.875000
7340		-41.015625
7341		-41.015625
7342		-35.156250
7343		-37.109375
7344		-31.250000
7345		-33.203125
7346		-27.343750
7347		-29.296875
7348		-21.484375
7349		-23.437500
7350		-17.578125
7351		-19.531250
7352		-13.671875
7353		-13.671875
7354		-7.812500
7355		-9.765625
7356		-3.906250
7357		-5.859375
7358		0.000000
7359		-1.953125
7360		3.906250
7361		3.906250
7362		9.765625
7363		7.812500
7364		13.671875
7365		11.718750
7366		17.578125
7367		15.625000
7368		21.484375
7369		19.531250
7370		25.390625
7371		25.390625
7372		31.250000
7373		29.296875
7374		35.156250
7375		33.203125
7376		39.062500
7377		37.109375
7378		42.968750
7379		41.015625
7380		46.875000
7381		44.921875
7382		50.781250
7383		48.828125
7384		54.687500
7385		52.734375
7386		58.593750
7387		56.640625
7388		62.500000
7389		60.546875
7390		66.406250
7391		64.453125
7392		70.312500
7393		68.359375
7394		74.218750
7395		72.265625
7396		76.171875
7397		76.171875
7398		80.078125
7399		78.125000
7400		83.984375
7401		82.031250
7402		87.890625
7403		85.937500
7404		89.843750
7405		89.843750
7406		93.750000
7407		91.796875
7408		95.703125
7409		95.703125
7410		99.609375
7411		97.656250
7412		103.515625
7413		101.562500
7414		105.468750
7415		103.515625
7416		109.375000
7417		107.421875
7418		111.328125
7419		109.375000
7420		113.281250
7421		111.328125
7422		115.234375
7423		115.234375
7424		119.140625
7425		117.187500
7426		121.093750
7427		119.140625
7428		123.046875
7429		121.093750
7430		125.000000
7431		123.046875
7432		126.953125
7433		125.000000
7434		128.906250
7435		126.953125
7436		130.859375
7437		128.906250
7438		134.765625
7439		130.859375
7440		134.765625
7441		132.812500
7442		136.718750
7443		134.765625
7444		138.671875
7445		136.718750
7446		140.625000
7447		138.671875
7448		140.625000
7449		138.671875
7450		142.578125
7451		140.625000
7452		144.531250
7453		142.578125
7454		144.531250
7455		142.578125
7456		146.484375
7457		144.531250
7458		146.484375
7459		144.531250
7460		148.437500
7461		146.484375
7462		148.437500
7463		146.484375
7464		150.390625
7465		148.437500
7466		150.390625
7467		148.437500
7468		150.390625
7469		148.437500
7470		150.390625
7471		148.437500
7472		152.343750
7473		148.437500
7474		152.343750
7475		150.390625
7476		152.343750
7477		150.390625
7478		152.343750
7479		150.390625
7480		152.343750
7481		150.390625
7482		152.343750
7483		150.390625
7484		152.343750
7485		150.390625
7486		152.343750
7487		148.437500
7488		152.343750
7489		148.437500
7490		152.343750
7491		146.484375
7492		152.343750
7493		148.437500
7494		150.390625
7495		146.484375
7496		150.390625
7497		146.484375
7498		148.437500
7499		146.484375
7500		148.437500
7501		144.531250
7502		148.437500
7503		144.531250
7504		146.484375
7505		142.578125
7506		146.484375
7507		140.625000
7508		144.531250
7509		140.625000
7510		144.531250
7511		138.671875
7512		142.578125
7513		136.718750
7514		142.578125
7515		132.812500
7516		140.625000
7517		134.765625
7518		138.671875
7519		132.812500
7520		136.718750
7521		128.906250
7522		134.765625
7523		128.906250
7524		132.812500
7525		126.953125
7526		130.859375
7527		125.000000
7528		128.906250
7529		123.046875
7530		126.953125
7531		121.093750
7532		125.000000
7533		117.187500
7534		125.000000
7535		115.234375
7536		119.140625
7537		113.281250
7538		117.187500
7539		111.328125
7540		115.234375
7541		105.468750
7542		111.328125
7543		103.515625
7544		109.375000
7545		101.562500
7546		105.468750
7547		99.609375
7548		103.515625
7549		93.750000
7550		99.609375
7551		91.796875
7552		97.656250
7553		89.843750
7554		93.750000
7555		85.937500
7556		91.796875
7557		82.031250
7558		89.843750
7559		78.125000
7560		85.937500
7561		76.171875
7562		82.031250
7563		72.265625
7564		78.125000
7565		68.359375
7566		74.218750
7567		64.453125
7568		72.265625
7569		60.546875
7570		66.406250
7571		56.640625
7572		62.500000
7573		50.781250
7574		60.546875
7575		48.828125
7576		54.687500
7577		44.921875
7578		50.781250
7579		39.062500
7580		46.875000
7581		37.109375
7582		44.921875
7583		31.250000
7584		39.062500
7585		29.296875
7586		35.156250
7587		23.437500
7588		31.250000
7589		19.531250
7590		25.390625
7591		13.671875
7592		23.437500
7593		11.718750
7594		17.578125
7595		5.859375
7596		13.671875
7597		0.000000
7598		9.765625
7599		-3.906250
7600		3.906250
7601		-5.859375
7602		0.000000
7603		-9.765625
7604		-3.906250
7605		-15.625000
7606		-9.765625
7607		-21.484375
7608		-11.718750
7609		-23.437500
7610		-17.578125
7611		-27.343750
7612		-21.484375
7613		-35.156250
7614		-27.343750
7615		-37.109375
7616		-29.296875
7617		-41.015625
7618		-33.203125
7619		-46.875000
7620		-39.062500
7621		-50.781250
7622		-44.921875
7623		-56.640625
7624		-48.828125
7625		-60.546875
7626		-48.828125
7627		-62.500000
7628		-56.640625
7629		-66.406250
7630		-62.500000
7631		-74.218750
7632		-62.500000
7633		-78.125000
7634		-68.359375
7635		-80.078125
7636		-74.218750
7637		-83.984375
7638		-78.125000
7639		-87.890625
7640		-82.031250
7641		-93.750000
7642		-85.937500
7643		-95.703125
7644		-87.890625
7645		-99.609375
7646		-93.750000
7647		-105.468750
7648		-97.656250
7649		-107.421875
7650		-99.609375
7651		-111.328125
7652		-103.515625
7653		-115.234375
7654		-109.375000
7655		-119.140625
7656		-113.281250
7657		-123.046875
7658		-115.234375
7659		-125.000000
7660		-119.140625
7661		-126.953125
7662		-123.046875
7663		-130.859375
7664		-126.953125
7665		-134.765625
7666		-126.953125
7667		-138.671875
7668		-130.859375
7669		-138.671875
7670		-134.765625
7671		-142.578125
7672		-138.671875
7673		-146.484375
7674		-140.625000
7675		-148.437500
7676		-140.625000
7677		-150.390625
7678		-146.484375
7679		-154.296875
7680		-148.437500
7681		-156.250000
7682		-148.437500
7683		-158.203125
7684		-152.343750
7685		-158.203125
7686		-154.296875
7687		-160.156250
7688		-156.250000
7689		-162.109375
7690		-158.203125
7691		-166.015625
7692		-158.203125
7693		-166.015625
7694		-160.156250
7695		-166.015625
7696		-164.062500
7697		-169.921875
7698		-162.109375
7699		-171.875000
7700		-162.109375
7701		-173.828125
7702		-164.062500
7703		-171.875000
7704		-167.968750
7705		-171.875000
7706		-167.968750
7707		-173.828125
7708		-167.968750
7709		-175.781250
7710		-167.968750
7711		-173.828125
7712		-169.921875
7713		-173.828125
7714		-169.921875
7715		-175.781250
7716		-167.968750
7717		-175.781250
7718		-167.968750
7719		-171.875000
7720		-169.921875
7721		-173.828125
7722		-169.921875
7723		-173.828125
7724		-167.968750
7725		-173.828125
7726		-166.015625
7727		-171.875000
7728		-166.015625
7729		-169.921875
7730		-167.968750
7731		-171.875000
7732		-164.062500
7733		-169.921875
7734		-162.109375
7735		-167.968750
7736		-162.109375
7737		-166.015625
7738		-162.109375
7739		-164.062500
7740		-160.156250
7741		-164.062500
7742		-156.250000
7743		-162.109375
7744		-156.250000
7745		-160.156250
7746		-154.296875
7747		-156.250000
7748		-150.390625
7749		-156.250000
7750		-148.437500
7751		-154.296875
7752		-146.484375
7753		-150.390625
7754		-146.484375
7755		-148.437500
7756		-142.578125
7757		-146.484375
7758		-138.671875
7759		-144.531250
7760		-134.765625
7761		-140.625000
7762		-134.765625
7763		-136.718750
7764		-132.812500
7765		-134.765625
7766		-128.906250
7767		-130.859375
7768		-123.046875
7769		-128.906250
7770		-123.046875
7771		-123.046875
7772		-119.140625
7773		-121.093750
7774		-115.234375
7775		-117.187500
7776		-109.375000
7777		-113.281250
7778		-107.421875
7779		-109.375000
7780		-103.515625
7781		-105.468750
7782		-99.609375
7783		-101.562500
7784		-95.703125
7785		-97.656250
7786		-91.796875
7787		-93.750000
7788		-87.890625
7789		-89.843750
7790		-83.984375
7791		-85.937500
7792		-80.078125
7793		-82.031250
7794		-74.218750
7795		-78.125000
7796		-72.265625
7797		-72.265625
7798		-66.406250
7799		-70.312500
7800		-62.500000
7801		-64.453125
7802		-58.593750
7803		-60.546875
7804		-54.687500
7805		-54.687500
7806		-48.828125
7807		-50.781250
7808		-44.921875
7809		-46.875000
7810		-41.015625
7811		-42.968750
7812		-35.156250
7813		-37.109375
7814		-31.250000
7815		-33.203125
7816		-27.343750
7817		-29.296875
7818		-23.437500
7819		-25.390625
7820		-17.578125
7821		-19.531250
7822		-13.671875
7823		-15.625000
7824		-9.765625
7825		-11.718750
7826		-3.906250
7827		-5.859375
7828		0.000000
7829		-1.953125
7830		3.906250
7831		3.906250
7832		7.812500
7833		7.812500
7834		13.671875
7835		11.718750
7836		17.578125
7837		15.625000
7838		21.484375
7839		19.531250
7840		25.390625
7841		23.437500
7842		31.250000
7843		27.343750
7844		35.156250
7845		31.250000
7846		39.062500
7847		35.156250
7848		42.968750
7849		41.015625
7850		48.828125
7851		44.921875
7852		50.781250
7853		48.828125
7854		54.687500
7855		52.734375
7856		58.593750
7857		56.640625
7858		64.453125
7859		60.546875
7860		66.406250
7861		64.453125
7862		70.312500
7863		68.359375
7864		74.218750
7865		70.312500
7866		78.125000
7867		74.218750
7868		82.031250
7869		78.125000
7870		83.984375
7871		82.031250
7872		87.890625
7873		85.937500
7874		89.843750
7875		87.890625
7876		95.703125
7877		91.796875
7878		97.656250
7879		93.750000
7880		101.562500
7881		95.703125
7882		103.515625
7883		99.609375
7884		107.421875
7885		103.515625
7886		109.375000
7887		107.421875
7888		111.328125
7889		109.375000
7890		113.281250
7891		111.328125
7892		117.187500
7893		115.234375
7894		121.093750
7895		117.187500
7896		123.046875
7897		119.140625
7898		125.000000
7899		121.093750
7900		126.953125
7901		123.046875
7902		128.906250
7903		126.953125
7904		130.859375
7905		128.906250
7906		132.812500
7907		130.859375
7908		134.765625
7909		130.859375
7910		136.718750
7911		134.765625
7912		138.671875
7913		134.765625
7914		140.625000
7915		136.718750
7916		140.625000
7917		138.671875
7918		142.578125
7919		140.625000
7920		144.531250
7921		142.578125
7922		144.531250
7923		142.578125
7924		146.484375
7925		144.531250
7926		148.437500
7927		144.531250
7928		148.437500
7929		146.484375
7930		150.390625
7931		144.531250
7932		152.343750
7933		146.484375
7934		152.343750
7935		148.437500
7936		152.343750
7937		148.437500
7938		154.296875
7939		150.390625
7940		152.343750
7941		150.390625
7942		154.296875
7943		150.390625
7944		154.296875
7945		150.390625
7946		154.296875
7947		150.390625
7948		156.250000
7949		150.390625
7950		156.250000
7951		150.390625
7952		154.296875
7953		152.343750
7954		156.250000
7955		152.343750
7956		154.296875
7957		152.343750
7958		154.296875
7959		150.390625
7960		154.296875
7961		150.390625
7962		154.296875
7963		148.437500
7964		154.296875
7965		148.437500
7966		156.250000
7967		148.437500
7968		152.343750
7969		148.437500
7970		150.390625
7971		148.437500
7972		150.390625
7973		146.484375
7974		150.390625
7975		144.531250
7976		150.390625
7977		144.531250
7978		148.437500
7979		142.578125
7980		146.484375
7981		140.625000
7982		146.484375
7983		140.625000
7984		144.531250
7985		138.671875
7986		144.531250
7987		136.718750
7988		142.578125
7989		136.718750
7990		140.625000
7991		134.765625
7992		138.671875
7993		130.859375
7994		136.718750
7995		130.859375
7996		134.765625
7997		126.953125
7998		132.812500
7999		126.953125
8000		130.859375
8001		123.046875
8002		128.906250
8003		121.093750
8004		126.953125
8005		119.140625
8006		123.046875
8007		117.187500
8008		121.093750
8009		113.281250
8010		119.140625
8011		111.328125
8012		117.187500
8013		109.375000
8014		113.281250
8015		105.468750
8016		113.281250
8017		103.515625
8018		109.375000
8019		99.609375
8020		105.468750
8021		97.656250
8022		103.515625
8023		93.750000
8024		99.609375
8025		89.843750
8026		95.703125
8027		87.890625
8028		91.796875
8029		83.984375
8030		89.843750
8031		80.078125
8032		85.937500
8033		78.125000
8034		82.031250
8035		74.218750
8036		80.078125
8037		70.312500
8038		76.171875
8039		66.406250
8040		72.265625
8041		62.500000
8042		68.359375
8043		58.593750
8044		64.453125
8045		52.734375
8046		60.546875
8047		50.781250
8048		56.640625
8049		46.875000
8050		54.687500
8051		42.968750
8052		48.828125
8053		39.062500
8054		44.921875
8055		33.203125
8056		41.015625
8057		29.296875
8058		35.156250
8059		25.390625
8060		31.250000
8061		21.484375
8062		27.343750
8063		17.578125
8064		23.437500
8065		11.718750
8066		19.531250
8067		7.812500
8068		13.671875
8069		3.906250
8070		9.765625
8071		0.000000
8072		5.859375
8073		-3.906250
8074		1.953125
8075		-9.765625
8076		-3.906250
8077		-13.671875
8078		-7.812500
8079		-17.578125
8080		-11.718750
8081		-21.484375
8082		-15.625000
8083		-27.343750
8084		-21.484375
8085		-31.250000
8086		-25.390625
8087		-35.156250
8088		-29.296875
8089		-41.015625
8090		-33.203125
8091		-44.921875
8092		-39.062500
8093		-48.828125
8094		-42.968750
8095		-52.734375
8096		-46.875000
8097		-58.593750
8098		-50.781250
8099		-62.500000
8100		-56.640625
8101		-66.406250
8102		-60.546875
8103		-70.312500
8104		-64.453125
8105		-74.218750
8106		-68.359375
8107		-78.125000
8108		-72.265625
8109		-83.984375
8110		-78.125000
8111		-85.937500
8112		-80.078125
8113		-91.796875
8114		-85.937500
8115		-95.703125
8116		-89.843750
8117		-99.609375
8118		-91.796875
8119		-101.562500
8120		-97.656250
8121		-105.468750
8122		-99.609375
8123		-109.375000
8124		-103.515625
8125		-113.281250
8126		-107.421875
8127		-117.187500
8128		-111.328125
8129		-121.093750
8130		-115.234375
8131		-123.046875
8132		-119.140625
8133		-126.953125
8134		-121.093750
8135		-128.906250
8136		-125.000000
8137		-132.812500
8138		-126.953125
8139		-136.718750
8140		-130.859375
8141		-138.671875
8142		-134.765625
8143		-140.625000
8144		-136.718750
8145		-144.531250
8146		-138.671875
8147		-146.484375
8148		-142.578125
8149		-150.390625
8150		-144.531250
8151		-150.390625
8152		-146.484375
8153		-154.296875
8154		-148.437500
8155		-156.250000
8156		-152.343750
8157		-158.203125
8158		-154.296875
8159		-160.156250
8160		-156.250000
8161		-162.109375
8162		-158.203125
8163		-164.062500
8164		-160.156250
8165		-164.062500
8166		-160.156250
8167		-166.015625
8168		-162.109375
8169		-167.968750
8170		-164.062500
8171		-169.921875
8172		-166.015625
8173		-169.921875
8174		-166.015625
8175		-169.921875
8176		-166.015625
8177		-171.875000
8178		-167.968750
8179		-171.875000
8180		-169.921875
8181		-171.875000
8182		-169.921875
8183		-173.828125
8184		-169.921875
8185		-173.828125
8186		-169.921875
8187		-173.828125
8188		-169.921875
8189		-173.828125
8190		-169.921875
8191		-171.875000
8192		-169.921875
8193		-173.828125
8194		-167.968750
8195		-171.875000
8196		-169.921875
8197		-171.875000
8198		-167.968750
8199		-171.875000
8200		-167.968750
8201		-171.875000
8202		-167.968750
8203		-169.921875
8204		-166.015625
8205		-167.968750
8206		-164.062500
8207		-167.968750
8208		-164.062500
8209		-166.015625
8210		-162.109375
8211		-164.062500
8212		-160.156250
8213		-162.109375
8214		-158.203125
8215		-162.109375
8216		-156.250000
8217		-160.156250
8218		-154.296875
8219		-156.250000
8220		-152.343750
8221		-156.250000
8222		-150.390625
8223		-154.296875
8224		-148.437500
8225		-150.390625
8226		-146.484375
8227		-148.437500
8228		-142.578125
8229		-144.531250
8230		-140.625000
8231		-142.578125
8232		-138.671875
8233		-140.625000
8234		-134.765625
8235		-136.718750
8236		-132.812500
8237		-134.765625
8238		-128.906250
8239		-130.859375
8240		-125.000000
8241		-126.953125
8242		-123.046875
8243		-123.046875
8244		-117.187500
8245		-121.093750
8246		-115.234375
8247		-117.187500
8248		-111.328125
8249		-113.281250
8250		-107.421875
8251		-109.375000
8252		-103.515625
8253		-105.468750
8254		-99.609375
8255		-101.562500
8256		-95.703125
8257		-97.656250
8258		-91.796875
8259		-93.750000
8260		-87.890625
8261		-89.843750
8262		-83.984375
8263		-85.937500
8264		-80.078125
8265		-82.031250
8266		-76.171875
8267		-78.125000
8268		-72.265625
8269		-72.265625
8270		-66.406250
8271		-68.359375
8272		-62.500000
8273		-64.453125
8274		-58.593750
8275		-60.546875
8276		-54.687500
8277		-54.687500
8278		-48.828125
8279		-50.781250
8280		-44.921875
8281		-46.875000
8282		-39.062500
8283		-42.968750
8284		-37.109375
8285		-39.062500
8286		-31.250000
8287		-33.203125
8288		-27.343750
8289		-29.296875
8290		-21.484375
8291		-23.437500
8292		-17.578125
8293		-19.531250
8294		-13.671875
8295		-15.625000
8296		-9.765625
8297		-11.718750
8298		-3.906250
8299		-5.859375
8300		0.000000
8301		-1.953125
8302		3.906250
8303		1.953125
8304		7.812500
8305		5.859375
8306		13.671875
8307		11.718750
8308		17.578125
8309		15.625000
8310		21.484375
8311		19.531250
8312		25.390625
8313		23.437500
8314		31.250000
8315		29.296875
8316		35.156250
8317		33.203125
8318		39.062500
8319		37.109375
8320		42.968750
8321		41.015625
8322		46.875000
8323		44.921875
8324		50.781250
8325		48.828125
8326		54.687500
8327		52.734375
8328		58.593750
8329		56.640625
8330		62.500000
8331		60.546875
8332		66.406250
8333		64.453125
8334		70.312500
8335		68.359375
8336		74.218750
8337		72.265625
8338		78.125000
8339		74.218750
8340		82.031250
8341		78.125000
8342		83.984375
8343		82.031250
8344		87.890625
8345		85.937500
8346		89.843750
8347		87.890625
8348		93.750000
8349		91.796875
8350		97.656250
8351		95.703125
8352		99.609375
8353		97.656250
8354		103.515625
8355		101.562500
8356		105.468750
8357		103.515625
8358		109.375000
8359		105.468750
8360		111.328125
8361		109.375000
8362		113.281250
8363		111.328125
8364		117.187500
8365		115.234375
8366		119.140625
8367		117.187500
8368		121.093750
8369		119.140625
8370		123.046875
8371		121.093750
8372		126.953125
8373		123.046875
8374		126.953125
8375		126.953125
8376		130.859375
8377		126.953125
8378		130.859375
8379		128.906250
8380		132.812500
8381		130.859375
8382		134.765625
8383		132.812500
8384		136.718750
8385		134.765625
8386		138.671875
8387		136.718750
8388		140.625000
8389		138.671875
8390		142.578125
8391		138.671875
8392		144.531250
8393		140.625000
8394		144.531250
8395		142.578125
8396		146.484375
8397		142.578125
8398		146.484375
8399		144.531250
8400		148.437500
8401		146.484375
8402		150.390625
8403		146.484375
8404		150.390625
8405		146.484375
8406		150.390625
8407		146.484375
8408		150.390625
8409		148.437500
8410		152.343750
8411		148.437500
8412		152.343750
8413		148.437500
8414		152.343750
8415		148.437500
8416		154.296875
8417		150.390625
8418		154.296875
8419		150.390625
8420		154.296875
8421		150.390625
8422		154.296875
8423		150.390625
8424		154.296875
8425		150.390625
8426		154.296875
8427		150.390625
8428		154.296875
8429		148.437500
8430		154.296875
8431		148.437500
8432		152.343750
8433		150.390625
8434		152.343750
8435		148.437500
8436		152.343750
8437		148.437500
8438		152.343750
8439		146.484375
8440		150.390625
8441		146.484375
8442		150.390625
8443		146.484375
8444		148.437500
8445		142.578125
8446		148.437500
8447		144.531250
8448		148.437500
8449		142.578125
8450		146.484375
8451		140.625000
8452		146.484375
8453		138.671875
8454		144.531250
8455		138.671875
8456		142.578125
8457		136.718750
8458		140.625000
8459		136.718750
8460		138.671875
8461		134.765625
8462		138.671875
8463		130.859375
8464		136.718750
8465		130.859375
8466		134.765625
8467		128.906250
8468		132.812500
8469		126.953125
8470		130.859375
8471		123.046875
8472		128.906250
8473		121.093750
8474		126.953125
8475		119.140625
8476		125.000000
8477		117.187500
8478		121.093750
8479		115.234375
8480		119.140625
8481		111.328125
8482		117.187500
8483		109.375000
8484		115.234375
8485		105.468750
8486		111.328125
8487		103.515625
8488		109.375000
8489		101.562500
8490		105.468750
8491		97.656250
8492		101.562500
8493		93.750000
8494		99.609375
8495		91.796875
8496		95.703125
8497		87.890625
8498		93.750000
8499		85.937500
8500		89.843750
8501		82.031250
8502		85.937500
8503		78.125000
8504		83.984375
8505		74.218750
8506		80.078125
8507		70.312500
8508		76.171875
8509		66.406250
8510		72.265625
8511		62.500000
8512		68.359375
8513		60.546875
8514		64.453125
8515		54.687500
8516		60.546875
8517		50.781250
8518		56.640625
8519		46.875000
8520		52.734375
8521		42.968750
8522		48.828125
8523		39.062500
8524		44.921875
8525		35.156250
8526		41.015625
8527		31.250000
8528		37.109375
8529		25.390625
8530		33.203125
8531		23.437500
8532		29.296875
8533		17.578125
8534		23.437500
8535		13.671875
8536		19.531250
8537		7.812500
8538		15.625000
8539		5.859375
8540		11.718750
8541		0.000000
8542		7.812500
8543		-3.906250
8544		1.953125
8545		-7.812500
8546		-1.953125
8547		-11.718750
8548		-5.859375
8549		-17.578125
8550		-11.718750
8551		-21.484375
8552		-15.625000
8553		-25.390625
8554		-19.531250
8555		-31.250000
8556		-23.437500
8557		-35.156250
8558		-27.343750
8559		-39.062500
8560		-31.250000
8561		-42.968750
8562		-37.109375
8563		-48.828125
8564		-41.015625
8565		-52.734375
8566		-44.921875
8567		-56.640625
8568		-50.781250
8569		-60.546875
8570		-54.687500
8571		-64.453125
8572		-58.593750
8573		-70.312500
8574		-64.453125
8575		-74.218750
8576		-68.359375
8577		-78.125000
8578		-72.265625
8579		-82.031250
8580		-76.171875
8581		-87.890625
8582		-78.125000
8583		-89.843750
8584		-83.984375
8585		-93.750000
8586		-85.937500
8587		-97.656250
8588		-91.796875
8589		-101.562500
8590		-95.703125
8591		-105.468750
8592		-99.609375
8593		-109.375000
8594		-103.515625
8595		-113.281250
8596		-107.421875
8597		-119.140625
8598		-111.328125
8599		-121.093750
8600		-113.281250
8601		-125.000000
8602		-115.234375
8603		-126.953125
8604		-119.140625
8605		-130.859375
8606		-125.000000
8607		-132.812500
8608		-126.953125
8609		-136.718750
8610		-128.906250
8611		-138.671875
8612		-134.765625
8613		-142.578125
8614		-136.718750
8615		-146.484375
8616		-138.671875
8617		-148.437500
8618		-140.625000
8619		-152.343750
8620		-144.531250
8621		-152.343750
8622		-146.484375
8623		-154.296875
8624		-150.390625
8625		-158.203125
8626		-152.343750
8627		-158.203125
8628		-154.296875
8629		-160.156250
8630		-156.250000
8631		-164.062500
8632		-158.203125
8633		-166.015625
8634		-158.203125
8635		-167.968750
8636		-160.156250
8637		-169.921875
8638		-162.109375
8639		-169.921875
8640		-164.062500
8641		-171.875000
8642		-164.062500
8643		-171.875000
8644		-167.968750
8645		-171.875000
8646		-167.968750
8647		-173.828125
8648		-167.968750
8649		-175.781250
8650		-167.968750
8651		-175.781250
8652		-169.921875
8653		-175.781250
8654		-169.921875
8655		-177.734375
8656		-169.921875
8657		-175.781250
8658		-169.921875
8659		-175.781250
8660		-169.921875
8661		-173.828125
8662		-171.875000
8663		-173.828125
8664		-171.875000
8665		-175.781250
8666		-169.921875
8667		-175.781250
8668		-167.968750
8669		-173.828125
8670		-167.968750
8671		-173.828125
8672		-167.968750
8673		-171.875000
8674		-166.015625
8675		-171.875000
8676		-166.015625
8677		-171.875000
8678		-166.015625
8679		-167.968750
8680		-164.062500
8681		-167.968750
8682		-162.109375
8683		-166.015625
8684		-162.109375
8685		-166.015625
8686		-158.203125
8687		-162.109375
8688		-156.250000
8689		-160.156250
8690		-154.296875
8691		-160.156250
8692		-152.343750
8693		-156.250000
8694		-152.343750
8695		-154.296875
8696		-148.437500
8697		-150.390625
8698		-146.484375
8699		-150.390625
8700		-142.578125
8701		-148.437500
8702		-140.625000
8703		-144.531250
8704		-136.718750
8705		-140.625000
8706		-134.765625
8707		-138.671875
8708		-130.859375
8709		-134.765625
8710		-128.906250
8711		-130.859375
8712		-126.953125
8713		-126.953125
8714		-123.046875
8715		-125.000000
8716		-117.187500
8717		-123.046875
8718		-113.281250
8719		-119.140625
8720		-111.328125
8721		-115.234375
8722		-107.421875
8723		-111.328125
8724		-101.562500
8725		-107.421875
8726		-99.609375
8727		-101.562500
8728		-95.703125
8729		-97.656250
8730		-91.796875
8731		-93.750000
8732		-87.890625
8733		-91.796875
8734		-82.031250
8735		-87.890625
8736		-80.078125
8737		-83.984375
8738		-76.171875
8739		-78.125000
8740		-68.359375
8741		-74.218750
8742		-64.453125
8743		-70.312500
8744		-62.500000
8745		-64.453125
8746		-58.593750
8747		-60.546875
8748		-54.687500
8749		-56.640625
8750		-46.875000
8751		-52.734375
8752		-44.921875
8753		-48.828125
8754		-39.062500
8755		-42.968750
8756		-35.156250
8757		-37.109375
8758		-31.250000
8759		-35.156250
8760		-25.390625
8761		-29.296875
8762		-21.484375
8763		-23.437500
8764		-17.578125
8765		-19.531250
8766		-11.718750
8767		-15.625000
8768		-7.812500
8769		-11.718750
8770		-3.906250
8771		-7.812500
8772		1.953125
8773		-3.906250
8774		5.859375
8775		0.000000
8776		9.765625
8777		5.859375
8778		13.671875
8779		11.718750
8780		17.578125
8781		15.625000
8782		21.484375
8783		17.578125
8784		27.343750
8785		23.437500
8786		31.250000
8787		27.343750
8788		37.109375
8789		31.250000
8790		41.015625
8791		35.156250
8792		44.921875
8793		41.015625
8794		48.828125
8795		44.921875
8796		50.781250
8797		48.828125
8798		54.687500
8799		52.734375
8800		60.546875
8801		54.687500
8802		64.453125
8803		60.546875
8804		66.406250
8805		62.500000
8806		70.312500
8807		66.406250
8808		74.218750
8809		70.312500
8810		78.125000
8811		74.218750
8812		80.078125
8813		78.125000
8814		83.984375
8815		82.031250
8816		89.843750
8817		83.984375
8818		91.796875
8819		87.890625
8820		95.703125
8821		89.843750
8822		97.656250
8823		93.750000
8824		101.562500
8825		95.703125
8826		103.515625
8827		97.656250
8828		105.468750
8829		103.515625
8830		107.421875
8831		107.421875
8832		111.328125
8833		107.421875
8834		115.234375
8835		109.375000
8836		117.187500
8837		113.281250
8838		119.140625
8839		115.234375
8840		123.046875
8841		117.187500
8842		125.000000
8843		119.140625
8844		126.953125
8845		123.046875
8846		126.953125
8847		125.000000
8848		128.906250
8849		126.953125
8850		132.812500
8851		126.953125
8852		134.765625
8853		128.906250
8854		136.718750
8855		132.812500
8856		138.671875
8857		132.812500
8858		140.625000
8859		134.765625
8860		142.578125
8861		136.718750
8862		142.578125
8863		138.671875
8864		142.578125
8865		140.625000
8866		146.484375
8867		140.625000
8868		146.484375
8869		140.625000
8870		148.437500
8871		142.578125
8872		148.437500
8873		142.578125
8874		150.390625
8875		144.531250
8876		152.343750
8877		144.531250
8878		152.343750
8879		148.437500
8880		150.390625
8881		148.437500
8882		150.390625
8883		146.484375
8884		152.343750
8885		146.484375
8886		154.296875
8887		148.437500
8888		154.296875
8889		146.484375
8890		154.296875
8891		146.484375
8892		154.296875
8893		148.437500
8894		154.296875
8895		148.437500
8896		154.296875
8897		150.390625
8898		152.343750
8899		148.437500
8900		154.296875
8901		148.437500
8902		154.296875
8903		146.484375
8904		154.296875
8905		146.484375
8906		154.296875
8907		146.484375
8908		152.343750
8909		146.484375
8910		152.343750
8911		144.531250
8912		152.343750
8913		146.484375
8914		148.437500
8915		144.531250
8916		148.437500
8917		142.578125
8918		148.437500
8919		140.625000
8920		148.437500
8921		140.625000
8922		146.484375
8923		138.671875
8924		146.484375
8925		136.718750
8926		144.531250
8927		134.765625
8928		142.578125
8929		136.718750
8930		140.625000
8931		134.765625
8932		138.671875
8933		130.859375
8934		136.718750
8935		128.906250
8936		136.718750
8937		126.953125
8938		134.765625
8939		125.000000
8940		132.812500
8941		123.046875
8942		130.859375
8943		121.093750
8944		128.906250
8945		121.093750
8946		126.953125
8947		117.187500
8948		123.046875
8949		115.234375
8950		121.093750
8951		111.328125
8952		119.140625
8953		109.375000
8954		117.187500
8955		105.468750
8956		113.281250
8957		103.515625
8958		111.328125
8959		99.609375
8960		109.375000
8961		97.656250
8962		105.468750
8963		95.703125
8964		101.562500
8965		93.750000
8966		97.656250
8967		87.890625
8968		95.703125
8969		83.984375
8970		93.750000
8971		82.031250
8972		89.843750
8973		78.125000
8974		85.937500
8975		74.218750
8976		82.031250
8977		72.265625
8978		78.125000
8979		68.359375
8980		76.171875
8981		64.453125
8982		70.312500
8983		60.546875
8984		66.406250
8985		54.687500
8986		64.453125
8987		50.781250
8988		60.546875
8989		46.875000
8990		56.640625
8991		42.968750
8992		52.734375
8993		41.015625
8994		48.828125
8995		37.109375
8996		44.921875
8997		33.203125
8998		39.062500
8999		27.343750
9000		35.156250
9001		23.437500
9002		31.250000
9003		19.531250
9004		27.343750
9005		13.671875
9006		23.437500
9007		9.765625
9008		19.531250
9009		5.859375
9010		15.625000
9011		0.000000
9012		11.718750
9013		-1.953125
9014		3.906250
9015		-5.859375
9016		0.000000
9017		-11.718750
9018		-3.906250
9019		-15.625000
9020		-7.812500
9021		-21.484375
9022		-11.718750
9023		-23.437500
9024		-17.578125
9025		-29.296875
9026		-21.484375
9027		-35.156250
9028		-25.390625
9029		-37.109375
9030		-29.296875
9031		-41.015625
9032		-35.156250
9033		-44.921875
9034		-39.062500
9035		-52.734375
9036		-42.968750
9037		-56.640625
9038		-46.875000
9039		-58.593750
9040		-50.781250
9041		-64.453125
9042		-54.687500
9043		-70.312500
9044		-60.546875
9045		-74.218750
9046		-64.453125
9047		-76.171875
9048		-70.312500
9049		-80.078125
9050		-74.218750
9051		-85.937500
9052		-78.125000
9053		-89.843750
9054		-82.031250
9055		-93.750000
9056		-83.984375
9057		-95.703125
9058		-89.843750
9059		-101.562500
9060		-93.750000
9061		-105.468750
9062		-97.656250
9063		-107.421875
9064		-99.609375
9065		-111.328125
9066		-105.468750
9067		-117.187500
9068		-109.375000
9069		-119.140625
9070		-111.328125
9071		-123.046875
9072		-113.281250
9073		-126.953125
9074		-119.140625
9075		-128.906250
9076		-121.093750
9077		-130.859375
9078		-125.000000
9079		-136.718750
9080		-126.953125
9081		-136.718750
9082		-132.812500
9083		-140.625000
9084		-134.765625
9085		-144.531250
9086		-136.718750
9087		-148.437500
9088		-140.625000
9089		-150.390625
9090		-142.578125
9091		-152.343750
9092		-146.484375
9093		-154.296875
9094		-146.484375
9095		-156.250000
9096		-150.390625
9097		-158.203125
9098		-152.343750
9099		-160.156250
9100		-156.250000
9101		-162.109375
9102		-156.250000
9103		-166.015625
9104		-158.203125
9105		-167.968750
9106		-158.203125
9107		-167.968750
9108		-162.109375
9109		-169.921875
9110		-162.109375
9111		-171.875000
9112		-164.062500
9113		-171.875000
9114		-166.015625
9115		-171.875000
9116		-167.968750
9117		-171.875000
9118		-169.921875
9119		-175.781250
9120		-167.968750
9121		-175.781250
9122		-169.921875
9123		-175.781250
9124		-169.921875
9125		-177.734375
9126		-169.921875
9127		-177.734375
9128		-171.875000
9129		-177.734375
9130		-169.921875
9131		-175.781250
9132		-171.875000
9133		-175.781250
9134		-171.875000
9135		-177.734375
9136		-169.921875
9137		-177.734375
9138		-169.921875
9139		-175.781250
9140		-167.968750
9141		-175.781250
9142		-167.968750
9143		-173.828125
9144		-167.968750
9145		-173.828125
9146		-166.015625
9147		-171.875000
9148		-166.015625
9149		-169.921875
9150		-166.015625
9151		-167.968750
9152		-162.109375
9153		-169.921875
9154		-160.156250
9155		-166.015625
9156		-160.156250
9157		-164.062500
9158		-158.203125
9159		-164.062500
9160		-156.250000
9161		-162.109375
9162		-154.296875
9163		-160.156250
9164		-152.343750
9165		-154.296875
9166		-150.390625
9167		-152.343750
9168		-148.437500
9169		-152.343750
9170		-144.531250
9171		-150.390625
9172		-140.625000
9173		-146.484375
9174		-138.671875
9175		-144.531250
9176		-134.765625
9177		-140.625000
9178		-132.812500
9179		-138.671875
9180		-128.906250
9181		-132.812500
9182		-128.906250
9183		-128.906250
9184		-125.000000
9185		-126.953125
9186		-121.093750
9187		-125.000000
9188		-117.187500
9189		-121.093750
9190		-113.281250
9191		-117.187500
9192		-109.375000
9193		-113.281250
9194		-105.468750
9195		-109.375000
9196		-101.562500
9197		-105.468750
9198		-99.609375
9199		-101.562500
9200		-95.703125
9201		-97.656250
9202		-91.796875
9203		-95.703125
9204		-85.937500
9205		-89.843750
9206		-80.078125
9207		-85.937500
9208		-78.125000
9209		-82.031250
9210		-72.265625
9211		-76.171875
9212		-68.359375
9213		-72.265625
9214		-64.453125
9215		-68.359375
9216		-62.500000
9217		-62.500000
9218		-56.640625
9219		-58.593750
9220		-50.781250
9221		-54.687500
9222		-46.875000
9223		-52.734375
9224		-42.968750
9225		-46.875000
9226		-37.109375
9227		-41.015625
9228		-33.203125
9229		-39.062500
9230		-29.296875
9231		-31.250000
9232		-25.390625
9233		-27.343750
9234		-21.484375
9235		-23.437500
9236		-13.671875
9237		-19.531250
9238		-11.718750
9239		-15.625000
9240		-5.859375
9241		-11.718750
9242		-1.953125
9243		-5.859375
9244		1.953125
9245		-1.953125
9246		5.859375
9247		1.953125
9248		9.765625
9249		7.812500
9250		13.671875
9251		13.671875
9252		19.531250
9253		17.578125
9254		23.437500
9255		19.531250
9256		29.296875
9257		25.390625
9258		33.203125
9259		27.343750
9260		37.109375
9261		31.250000
9262		41.015625
9263		35.156250
9264		46.875000
9265		42.968750
9266		46.875000
9267		46.875000
9268		52.734375
9269		50.781250
9270		56.640625
9271		52.734375
9272		60.546875
9273		56.640625
9274		64.453125
9275		60.546875
9276		68.359375
9277		64.453125
9278		72.265625
9279		66.406250
9280		76.171875
9281		70.312500
9282		78.125000
9283		76.171875
9284		82.031250
9285		80.078125
9286		83.984375
9287		80.078125
9288		89.843750
9289		83.984375
9290		91.796875
9291		87.890625
9292		95.703125
9293		91.796875
9294		99.609375
9295		93.750000
9296		101.562500
9297		97.656250
9298		103.515625
9299		99.609375
9300		105.468750
9301		103.515625
9302		109.375000
9303		105.468750
9304		113.281250
9305		107.421875
9306		115.234375
9307		109.375000
9308		119.140625
9309		113.281250
9310		121.093750
9311		117.187500
9312		123.046875
9313		117.187500
9314		125.000000
9315		119.140625
9316		125.000000
9317		125.000000
9318		126.953125
9319		126.953125
9320		130.859375
9321		125.000000
9322		132.812500
9323		126.953125
9324		134.765625
9325		128.906250
9326		136.718750
9327		130.859375
9328		138.671875
9329		132.812500
9330		140.625000
9331		134.765625
9332		142.578125
9333		138.671875
9334		140.625000
9335		138.671875
9336		142.578125
9337		138.671875
9338		146.484375
9339		140.625000
9340		146.484375
9341		140.625000
9342		148.437500
9343		142.578125
9344		148.437500
9345		142.578125
9346		150.390625
9347		144.531250
9348		150.390625
9349		144.531250
9350		150.390625
9351		146.484375
9352		150.390625
9353		146.484375
9354		152.343750
9355		146.484375
9356		154.296875
9357		146.484375
9358		154.296875
9359		146.484375
9360		154.296875
9361		146.484375
9362		154.296875
9363		148.437500
9364		154.296875
9365		148.437500
9366		154.296875
9367		148.437500
9368		152.343750
9369		148.437500
9370		152.343750
9371		146.484375
9372		154.296875
9373		146.484375
9374		154.296875
9375		146.484375
9376		152.343750
9377		146.484375
9378		152.343750
9379		146.484375
9380		152.343750
9381		144.531250
9382		152.343750
9383		146.484375
9384		150.390625
9385		144.531250
9386		148.437500
9387		142.578125
9388		148.437500
9389		140.625000
9390		148.437500
9391		140.625000
9392		146.484375
9393		138.671875
9394		146.484375
9395		136.718750
9396		144.531250
9397		136.718750
9398		144.531250
9399		134.765625
9400		142.578125
9401		134.765625
9402		138.671875
9403		132.812500
9404		136.718750
9405		130.859375
9406		136.718750
9407		126.953125
9408		136.718750
9409		125.000000
9410		132.812500
9411		125.000000
9412		130.859375
9413		121.093750
9414		130.859375
9415		119.140625
9416		126.953125
9417		119.140625
9418		123.046875
9419		117.187500
9420		121.093750
9421		113.281250
9422		119.140625
9423		109.375000
9424		117.187500
9425		107.421875
9426		115.234375
9427		103.515625
9428		113.281250
9429		101.562500
9430		109.375000
9431		99.609375
9432		107.421875
9433		97.656250
9434		103.515625
9435		93.750000
9436		99.609375
9437		89.843750
9438		95.703125
9439		85.937500
9440		93.750000
9441		83.984375
9442		89.843750
9443		80.078125
9444		87.890625
9445		74.218750
9446		83.984375
9447		72.265625
9448		80.078125
9449		70.312500
9450		78.125000
9451		66.406250
9452		72.265625
9453		62.500000
9454		68.359375
9455		58.593750
9456		66.406250
9457		54.687500
9458		62.500000
9459		50.781250
9460		58.593750
9461		44.921875
9462		54.687500
9463		42.968750
9464		50.781250
9465		37.109375
9466		46.875000
9467		35.156250
9468		41.015625
9469		31.250000
9470		37.109375
9471		23.437500
9472		33.203125
9473		21.484375
9474		29.296875
9475		15.625000
9476		25.390625
9477		13.671875
9478		19.531250
9479		9.765625
9480		15.625000
9481		3.906250
9482		11.718750
9483		0.000000
9484		7.812500
9485		-3.906250
9486		1.953125
9487		-9.765625
9488		-1.953125
9489		-13.671875
9490		-5.859375
9491		-19.531250
9492		-9.765625
9493		-23.437500
9494		-13.671875
9495		-27.343750
9496		-17.578125
9497		-31.250000
9498		-23.437500
9499		-35.156250
9500		-27.343750
9501		-39.062500
9502		-33.203125
9503		-42.968750
9504		-37.109375
9505		-48.828125
9506		-41.015625
9507		-54.687500
9508		-44.921875
9509		-58.593750
9510		-48.828125
9511		-62.500000
9512		-52.734375
9513		-66.406250
9514		-58.593750
9515		-70.312500
9516		-62.500000
9517		-74.218750
9518		-66.406250
9519		-78.125000
9520		-72.265625
9521		-82.031250
9522		-76.171875
9523		-87.890625
9524		-80.078125
9525		-91.796875
9526		-83.984375
9527		-95.703125
9528		-85.937500
9529		-99.609375
9530		-91.796875
9531		-101.562500
9532		-95.703125
9533		-105.468750
9534		-99.609375
9535		-109.375000
9536		-103.515625
9537		-113.281250
9538		-107.421875
9539		-119.140625
9540		-109.375000
9541		-121.093750
9542		-113.281250
9543		-125.000000
9544		-117.187500
9545		-126.953125
9546		-119.140625
9547		-130.859375
9548		-123.046875
9549		-134.765625
9550		-125.000000
9551		-136.718750
9552		-130.859375
9553		-138.671875
9554		-134.765625
9555		-142.578125
9556		-136.718750
9557		-146.484375
9558		-136.718750
9559		-148.437500
9560		-140.625000
9561		-150.390625
9562		-144.531250
9563		-152.343750
9564		-146.484375
9565		-156.250000
9566		-148.437500
9567		-156.250000
9568		-150.390625
9569		-158.203125
9570		-154.296875
9571		-162.109375
9572		-156.250000
9573		-164.062500
9574		-156.250000
9575		-166.015625
9576		-158.203125
9577		-167.968750
9578		-160.156250
9579		-169.921875
9580		-162.109375
9581		-169.921875
9582		-164.062500
9583		-171.875000
9584		-164.062500
9585		-169.921875
9586		-167.968750
9587		-171.875000
9588		-167.968750
9589		-173.828125
9590		-167.968750
9591		-175.781250
9592		-169.921875
9593		-175.781250
9594		-167.968750
9595		-177.734375
9596		-169.921875
9597		-175.781250
9598		-169.921875
9599		-177.734375
9600		-169.921875
9601		-175.781250
9602		-169.921875
9603		-173.828125
9604		-171.875000
9605		-175.781250
9606		-169.921875
9607		-175.781250
9608		-169.921875
9609		-175.781250
9610		-169.921875
9611		-175.781250
9612		-167.968750
9613		-173.828125
9614		-167.968750
9615		-171.875000
9616		-166.015625
9617		-171.875000
9618		-166.015625
9619		-169.921875
9620		-166.015625
9621		-167.968750
9622		-164.062500
9623		-167.968750
9624		-162.109375
9625		-167.968750
9626		-160.156250
9627		-166.015625
9628		-158.203125
9629		-164.062500
9630		-156.250000
9631		-162.109375
9632		-154.296875
9633		-160.156250
9634		-152.343750
9635		-156.250000
9636		-152.343750
9637		-152.343750
9638		-148.437500
9639		-152.343750
9640		-144.531250
9641		-150.390625
9642		-142.578125
9643		-148.437500
9644		-140.625000
9645		-144.531250
9646		-136.718750
9647		-142.578125
9648		-134.765625
9649		-140.625000
9650		-130.859375
9651		-134.765625
9652		-128.906250
9653		-130.859375
9654		-125.000000
9655		-126.953125
9656		-123.046875
9657		-126.953125
9658		-117.187500
9659		-121.093750
9660		-113.281250
9661		-119.140625
9662		-109.375000
9663		-115.234375
9664		-107.421875
9665		-111.328125
9666		-101.562500
9667		-107.421875
9668		-97.656250
9669		-101.562500
9670		-95.703125
9671		-97.656250
9672		-91.796875
9673		-93.750000
9674		-85.937500
9675		-91.796875
9676		-82.031250
9677		-85.937500
9678		-78.125000
9679		-83.984375
9680		-74.218750
9681		-78.125000
9682		-70.312500
9683		-76.171875
9684		-66.406250
9685		-72.265625
9686		-62.500000
9687		-64.453125
9688		-58.593750
9689		-60.546875
9690		-52.734375
9691		-58.593750
9692		-46.875000
9693		-52.734375
9694		-42.968750
9695		-48.828125
9696		-39.062500
9697		-42.968750
9698		-35.156250
9699		-39.062500
9700		-31.250000
9701		-35.156250
9702		-27.343750
9703		-29.296875
9704		-21.484375
9705		-25.390625
9706		-17.578125
9707		-21.484375
9708		-11.718750
9709		-17.578125
9710		-7.812500
9711		-13.671875
9712		-1.953125
9713		-7.812500
9714		1.953125
9715		-1.953125
9716		5.859375
9717		0.000000
9718		9.765625
9719		5.859375
9720		13.671875
9721		11.718750
9722		17.578125
9723		15.625000
9724		23.437500
9725		17.578125
9726		27.343750
9727		23.437500
9728		31.250000
9729		27.343750
9730		35.156250
9731		31.250000
9732		41.015625
9733		35.156250
9734		44.921875
9735		39.062500
9736		46.875000
9737		44.921875
9738		50.781250
9739		48.828125
9740		54.687500
9741		50.781250
9742		60.546875
9743		56.640625
9744		64.453125
9745		58.593750
9746		66.406250
9747		62.500000
9748		70.312500
9749		66.406250
9750		74.218750
9751		70.312500
9752		78.125000
9753		74.218750
9754		80.078125
9755		78.125000
9756		83.984375
9757		82.031250
9758		87.890625
9759		83.984375
9760		91.796875
9761		85.937500
9762		95.703125
9763		89.843750
9764		97.656250
9765		93.750000
9766		101.562500
9767		95.703125
9768		103.515625
9769		97.656250
9770		105.468750
9771		103.515625
9772		107.421875
9773		105.468750
9774		111.328125
9775		107.421875
9776		115.234375
9777		109.375000
9778		117.187500
9779		111.328125
9780		121.093750
9781		115.234375
9782		123.046875
9783		117.187500
9784		125.000000
9785		119.140625
9786		126.953125
9787		123.046875
9788		126.953125
9789		125.000000
9790		128.906250
9791		125.000000
9792		132.812500
9793		126.953125
9794		134.765625
9795		130.859375
9796		136.718750
9797		130.859375
9798		138.671875
9799		132.812500
9800		140.625000
9801		134.765625
9802		142.578125
9803		136.718750
9804		140.625000
9805		138.671875
9806		142.578125
9807		140.625000
9808		146.484375
9809		140.625000
9810		146.484375
9811		140.625000
9812		148.437500
9813		142.578125
9814		148.437500
9815		142.578125
9816		150.390625
9817		144.531250
9818		150.390625
9819		144.531250
9820		150.390625
9821		148.437500
9822		150.390625
9823		148.437500
9824		150.390625
9825		146.484375
9826		152.343750
9827		146.484375
9828		154.296875
9829		148.437500
9830		154.296875
9831		146.484375
9832		154.296875
9833		148.437500
9834		154.296875
9835		148.437500
9836		154.296875
9837		150.390625
9838		154.296875
9839		150.390625
9840		152.343750
9841		148.437500
9842		156.250000
9843		148.437500
9844		154.296875
9845		146.484375
9846		154.296875
9847		146.484375
9848		154.296875
9849		146.484375
9850		152.343750
9851		146.484375
9852		152.343750
9853		146.484375
9854		150.390625
9855		146.484375
9856		148.437500
9857		142.578125
9858		150.390625
9859		142.578125
9860		150.390625
9861		140.625000
9862		148.437500
9863		140.625000
9864		146.484375
9865		138.671875
9866		146.484375
9867		138.671875
9868		144.531250
9869		136.718750
9870		144.531250
9871		136.718750
9872		140.625000
9873		134.765625
9874		138.671875
9875		130.859375
9876		138.671875
9877		128.906250
9878		136.718750
9879		128.906250
9880		134.765625
9881		125.000000
9882		132.812500
9883		123.046875
9884		130.859375
9885		121.093750
9886		128.906250
9887		121.093750
9888		126.953125
9889		119.140625
9890		123.046875
9891		113.281250
9892		121.093750
9893		111.328125
9894		121.093750
9895		109.375000
9896		117.187500
9897		107.421875
9898		113.281250
9899		103.515625
9900		111.328125
9901		103.515625
9902		107.421875
9903		99.609375
9904		107.421875
9905		97.656250
9906		101.562500
9907		93.750000
9908		97.656250
9909		89.843750
9910		95.703125
9911		83.984375
9912		95.703125
9913		82.031250
9914		89.843750
9915		78.125000
9916		87.890625
9917		76.171875
9918		83.984375
9919		72.265625
9920		80.078125
9921		70.312500
9922		76.171875
9923		66.406250
9924		70.312500
9925		60.546875
9926		68.359375
9927		56.640625
9928		66.406250
9929		52.734375
9930		62.500000
9931		48.828125
9932		56.640625
9933		44.921875
9934		52.734375
9935		41.015625
9936		48.828125
9937		39.062500
9938		44.921875
9939		33.203125
9940		39.062500
9941		27.343750
9942		35.156250
9943		25.390625
9944		33.203125
9945		19.531250
9946		29.296875
9947		15.625000
9948		23.437500
9949		11.718750
9950		21.484375
9951		5.859375
9952		15.625000
9953		3.906250
9954		11.718750
9955		0.000000
9956		5.859375
9957		-3.906250
9958		1.953125
9959		-9.765625
9960		-1.953125
9961		-15.625000
9962		-5.859375
9963		-19.531250
9964		-11.718750
9965		-25.390625
9966		-13.671875
9967		-29.296875
9968		-19.531250
9969		-33.203125
9970		-23.437500
9971		-35.156250
9972		-29.296875
9973		-39.062500
9974		-33.203125
9975		-46.875000
9976		-39.062500
9977		-50.781250
9978		-41.015625
9979		-56.640625
9980		-46.875000
9981		-58.593750
9982		-50.781250
9983		-64.453125
9984		-54.687500
9985		-68.359375
9986		-58.593750
9987		-70.312500
9988		-62.500000
9989		-74.218750
9990		-68.359375
9991		-78.125000
9992		-72.265625
9993		-83.984375
9994		-76.171875
9995		-87.890625
9996		-78.125000
9997		-91.796875
9998		-83.984375
9999		-97.656250
10000		-87.890625
