Channel              :		CH1
Frequency            :		1.061kHz
Period               :		0.942ms
PK-PK                :		148.4mV
Probe attenuation    :		1X
Voltage per ADC value:		0.122070mV
Time interval        :		2.00000us

index		CH1_Voltage(mV)
1		46.875000
2		46.875000
3		39.062500
4		44.921875
5		39.062500
6		42.968750
7		37.109375
8		41.015625
9		33.203125
10		41.015625
11		33.203125
12		39.062500
13		29.296875
14		37.109375
15		29.296875
16		35.156250
17		27.343750
18		35.156250
19		25.390625
20		33.203125
21		25.390625
22		31.250000
23		23.437500
24		27.343750
25		19.531250
26		25.390625
27		19.531250
28		25.390625
29		15.625000
30		23.437500
31		15.625000
32		21.484375
33		13.671875
34		19.531250
35		11.718750
36		17.578125
37		9.765625
38		15.625000
39		9.765625
40		11.718750
41		7.812500
42		9.765625
43		3.906250
44		9.765625
45		1.953125
46		9.765625
47		0.000000
48		7.812500
49		-1.953125
50		5.859375
51		-3.906250
52		3.906250
53		-5.859375
54		1.953125
55		-5.859375
56		-1.953125
57		-7.812500
58		-3.906250
59		-11.718750
60		-5.859375
61		-13.671875
62		-5.859375
63		-15.625000
64		-7.812500
65		-15.625000
66		-9.765625
67		-17.578125
68		-9.765625
69		-19.531250
70		-13.671875
71		-21.484375
72		-15.625000
73		-21.484375
74		-19.531250
75		-23.437500
76		-19.531250
77		-27.343750
78		-19.531250
79		-29.296875
80		-21.484375
81		-31.250000
82		-23.437500
83		-33.203125
84		-25.390625
85		-33.203125
86		-27.343750
87		-35.156250
88		-29.296875
89		-35.156250
90		-31.250000
91		-37.109375
92		-33.203125
93		-41.015625
94		-33.203125
95		-41.015625
96		-35.156250
97		-42.968750
98		-35.156250
99		-44.921875
100		-37.109375
101		-46.875000
102		-39.062500
103		-48.828125
104		-41.015625
105		-48.828125
106		-41.015625
107		-48.828125
108		-44.921875
109		-52.734375
110		-44.921875
111		-52.734375
112		-44.921875
113		-54.687500
114		-46.875000
115		-54.687500
116		-48.828125
117		-56.640625
118		-48.828125
119		-56.640625
120		-50.781250
121		-56.640625
122		-50.781250
123		-56.640625
124		-54.687500
125		-58.593750
126		-54.687500
127		-60.546875
128		-54.687500
129		-62.500000
130		-54.687500
131		-62.500000
132		-56.640625
133		-62.500000
134		-56.640625
135		-64.453125
136		-56.640625
137		-64.453125
138		-56.640625
139		-64.453125
140		-58.593750
141		-62.500000
142		-60.546875
143		-64.453125
144		-60.546875
145		-68.359375
146		-60.546875
147		-66.406250
148		-60.546875
149		-66.406250
150		-60.546875
151		-68.359375
152		-60.546875
153		-68.359375
154		-60.546875
155		-68.359375
156		-60.546875
157		-66.406250
158		-62.500000
159		-66.406250
160		-64.453125
161		-68.359375
162		-62.500000
163		-68.359375
164		-60.546875
165		-68.359375
166		-60.546875
167		-68.359375
168		-60.546875
169		-66.406250
170		-60.546875
171		-66.406250
172		-60.546875
173		-64.453125
174		-62.500000
175		-64.453125
176		-62.500000
177		-66.406250
178		-58.593750
179		-64.453125
180		-58.593750
181		-64.453125
182		-58.593750
183		-64.453125
184		-56.640625
185		-64.453125
186		-56.640625
187		-62.500000
188		-56.640625
189		-60.546875
190		-56.640625
191		-58.593750
192		-56.640625
193		-60.546875
194		-54.687500
195		-58.593750
196		-52.734375
197		-58.593750
198		-52.734375
199		-58.593750
200		-50.781250
201		-56.640625
202		-50.781250
203		-56.640625
204		-48.828125
205		-54.687500
206		-48.828125
207		-50.781250
208		-48.828125
209		-50.781250
210		-46.875000
211		-50.781250
212		-44.921875
213		-48.828125
214		-42.968750
215		-48.828125
216		-41.015625
217		-46.875000
218		-41.015625
219		-46.875000
220		-39.062500
221		-44.921875
222		-37.109375
223		-41.015625
224		-37.109375
225		-41.015625
226		-37.109375
227		-39.062500
228		-33.203125
229		-39.062500
230		-31.250000
231		-35.156250
232		-29.296875
233		-35.156250
234		-29.296875
235		-33.203125
236		-27.343750
237		-33.203125
238		-25.390625
239		-31.250000
240		-23.437500
241		-27.343750
242		-23.437500
243		-25.390625
244		-21.484375
245		-25.390625
246		-17.578125
247		-23.437500
248		-15.625000
249		-21.484375
250		-13.671875
251		-19.531250
252		-11.718750
253		-17.578125
254		-9.765625
255		-15.625000
256		-9.765625
257		-13.671875
258		-9.765625
259		-11.718750
260		-7.812500
261		-9.765625
262		-3.906250
263		-9.765625
264		-1.953125
265		-7.812500
266		0.000000
267		-5.859375
268		1.953125
269		-3.906250
270		3.906250
271		-1.953125
272		5.859375
273		0.000000
274		5.859375
275		3.906250
276		7.812500
277		5.859375
278		9.765625
279		7.812500
280		11.718750
281		7.812500
282		13.671875
283		9.765625
284		15.625000
285		11.718750
286		17.578125
287		13.671875
288		19.531250
289		15.625000
290		21.484375
291		17.578125
292		21.484375
293		19.531250
294		23.437500
295		19.531250
296		27.343750
297		21.484375
298		29.296875
299		23.437500
300		31.250000
301		23.437500
302		31.250000
303		27.343750
304		33.203125
305		29.296875
306		35.156250
307		31.250000
308		35.156250
309		33.203125
310		37.109375
311		33.203125
312		39.062500
313		35.156250
314		41.015625
315		37.109375
316		42.968750
317		37.109375
318		44.921875
319		39.062500
320		46.875000
321		41.015625
322		48.828125
323		41.015625
324		48.828125
325		44.921875
326		48.828125
327		46.875000
328		50.781250
329		46.875000
330		52.734375
331		46.875000
332		54.687500
333		48.828125
334		56.640625
335		50.781250
336		56.640625
337		50.781250
338		58.593750
339		50.781250
340		58.593750
341		52.734375
342		58.593750
343		56.640625
344		60.546875
345		56.640625
346		62.500000
347		56.640625
348		62.500000
349		56.640625
350		64.453125
351		58.593750
352		64.453125
353		60.546875
354		66.406250
355		60.546875
356		66.406250
357		62.500000
358		68.359375
359		64.453125
360		66.406250
361		64.453125
362		68.359375
363		62.500000
364		70.312500
365		64.453125
366		72.265625
367		64.453125
368		72.265625
369		66.406250
370		72.265625
371		66.406250
372		72.265625
373		66.406250
374		72.265625
375		68.359375
376		72.265625
377		70.312500
378		72.265625
379		68.359375
380		74.218750
381		68.359375
382		74.218750
383		68.359375
384		74.218750
385		68.359375
386		76.171875
387		68.359375
388		76.171875
389		70.312500
390		76.171875
391		70.312500
392		76.171875
393		72.265625
394		74.218750
395		70.312500
396		76.171875
397		70.312500
398		76.171875
399		70.312500
400		76.171875
401		70.312500
402		76.171875
403		68.359375
404		76.171875
405		68.359375
406		76.171875
407		70.312500
408		76.171875
409		70.312500
410		74.218750
411		70.312500
412		74.218750
413		68.359375
414		74.218750
415		68.359375
416		74.218750
417		66.406250
418		74.218750
419		66.406250
420		74.218750
421		66.406250
422		72.265625
423		66.406250
424		72.265625
425		66.406250
426		72.265625
427		66.406250
428		68.359375
429		64.453125
430		70.312500
431		62.500000
432		70.312500
433		62.500000
434		70.312500
435		62.500000
436		68.359375
437		60.546875
438		68.359375
439		60.546875
440		66.406250
441		60.546875
442		66.406250
443		60.546875
444		62.500000
445		58.593750
446		62.500000
447		56.640625
448		62.500000
449		54.687500
450		62.500000
451		54.687500
452		60.546875
453		52.734375
454		58.593750
455		52.734375
456		58.593750
457		50.781250
458		58.593750
459		50.781250
460		54.687500
461		50.781250
462		52.734375
463		46.875000
464		52.734375
465		46.875000
466		52.734375
467		44.921875
468		50.781250
469		42.968750
470		48.828125
471		41.015625
472		48.828125
473		39.062500
474		46.875000
475		39.062500
476		44.921875
477		39.062500
478		41.015625
479		35.156250
480		41.015625
481		33.203125
482		41.015625
483		31.250000
484		39.062500
485		31.250000
486		37.109375
487		29.296875
488		35.156250
489		27.343750
490		33.203125
491		25.390625
492		31.250000
493		25.390625
494		29.296875
495		23.437500
496		27.343750
497		19.531250
498		27.343750
499		17.578125
500		25.390625
501		15.625000
502		23.437500
503		13.671875
504		21.484375
505		13.671875
506		19.531250
507		11.718750
508		17.578125
509		9.765625
510		15.625000
511		9.765625
512		11.718750
513		5.859375
514		11.718750
515		3.906250
516		11.718750
517		1.953125
518		9.765625
519		0.000000
520		5.859375
521		-1.953125
522		3.906250
523		-3.906250
524		3.906250
525		-5.859375
526		1.953125
527		-5.859375
528		-1.953125
529		-7.812500
530		-3.906250
531		-11.718750
532		-3.906250
533		-13.671875
534		-5.859375
535		-13.671875
536		-7.812500
537		-17.578125
538		-9.765625
539		-19.531250
540		-11.718750
541		-21.484375
542		-13.671875
543		-21.484375
544		-17.578125
545		-21.484375
546		-17.578125
547		-27.343750
548		-19.531250
549		-27.343750
550		-19.531250
551		-29.296875
552		-21.484375
553		-31.250000
554		-23.437500
555		-33.203125
556		-25.390625
557		-33.203125
558		-27.343750
559		-35.156250
560		-29.296875
561		-35.156250
562		-33.203125
563		-39.062500
564		-33.203125
565		-41.015625
566		-33.203125
567		-42.968750
568		-35.156250
569		-42.968750
570		-37.109375
571		-46.875000
572		-39.062500
573		-46.875000
574		-39.062500
575		-46.875000
576		-41.015625
577		-46.875000
578		-42.968750
579		-48.828125
580		-44.921875
581		-50.781250
582		-44.921875
583		-52.734375
584		-44.921875
585		-54.687500
586		-46.875000
587		-54.687500
588		-46.875000
589		-56.640625
590		-48.828125
591		-56.640625
592		-50.781250
593		-56.640625
594		-50.781250
595		-56.640625
596		-54.687500
597		-60.546875
598		-52.734375
599		-60.546875
600		-54.687500
601		-60.546875
602		-54.687500
603		-62.500000
604		-54.687500
605		-62.500000
606		-56.640625
607		-62.500000
608		-56.640625
609		-64.453125
610		-56.640625
611		-62.500000
612		-60.546875
613		-64.453125
614		-58.593750
615		-66.406250
616		-58.593750
617		-66.406250
618		-58.593750
619		-66.406250
620		-60.546875
621		-66.406250
622		-60.546875
623		-66.406250
624		-60.546875
625		-68.359375
626		-60.546875
627		-66.406250
628		-62.500000
629		-64.453125
630		-62.500000
631		-68.359375
632		-60.546875
633		-68.359375
634		-60.546875
635		-66.406250
636		-60.546875
637		-66.406250
638		-60.546875
639		-66.406250
640		-60.546875
641		-66.406250
642		-60.546875
643		-66.406250
644		-60.546875
645		-64.453125
646		-60.546875
647		-64.453125
648		-60.546875
649		-64.453125
650		-58.593750
651		-64.453125
652		-56.640625
653		-64.453125
654		-56.640625
655		-64.453125
656		-56.640625
657		-62.500000
658		-56.640625
659		-62.500000
660		-56.640625
661		-58.593750
662		-56.640625
663		-58.593750
664		-56.640625
665		-58.593750
666		-52.734375
667		-58.593750
668		-52.734375
669		-58.593750
670		-50.781250
671		-56.640625
672		-50.781250
673		-56.640625
674		-48.828125
675		-54.687500
676		-46.875000
677		-54.687500
678		-48.828125
679		-50.781250
680		-46.875000
681		-50.781250
682		-44.921875
683		-50.781250
684		-42.968750
685		-48.828125
686		-42.968750
687		-48.828125
688		-41.015625
689		-46.875000
690		-39.062500
691		-44.921875
692		-37.109375
693		-44.921875
694		-37.109375
695		-41.015625
696		-37.109375
697		-39.062500
698		-35.156250
699		-39.062500
700		-31.250000
701		-37.109375
702		-31.250000
703		-37.109375
704		-29.296875
705		-33.203125
706		-27.343750
707		-33.203125
708		-25.390625
709		-31.250000
710		-23.437500
711		-29.296875
712		-23.437500
713		-25.390625
714		-21.484375
715		-25.390625
716		-19.531250
717		-23.437500
718		-17.578125
719		-23.437500
720		-15.625000
721		-21.484375
722		-13.671875
723		-19.531250
724		-11.718750
725		-17.578125
726		-9.765625
727		-15.625000
728		-9.765625
729		-11.718750
730		-7.812500
731		-9.765625
732		-3.906250
733		-9.765625
734		-1.953125
735		-7.812500
736		-1.953125
737		-7.812500
738		1.953125
739		-5.859375
740		3.906250
741		-1.953125
742		5.859375
743		0.000000
744		5.859375
745		3.906250
746		5.859375
747		3.906250
748		7.812500
749		3.906250
750		11.718750
751		5.859375
752		13.671875
753		7.812500
754		15.625000
755		9.765625
756		17.578125
757		11.718750
758		19.531250
759		13.671875
760		21.484375
761		15.625000
762		21.484375
763		19.531250
764		23.437500
765		19.531250
766		25.390625
767		21.484375
768		27.343750
769		21.484375
770		29.296875
771		23.437500
772		31.250000
773		25.390625
774		33.203125
775		27.343750
776		35.156250
777		29.296875
778		37.109375
779		33.203125
780		37.109375
781		35.156250
782		39.062500
783		35.156250
784		41.015625
785		35.156250
786		42.968750
787		37.109375
788		44.921875
789		37.109375
790		44.921875
791		39.062500
792		48.828125
793		41.015625
794		48.828125
795		42.968750
796		48.828125
797		46.875000
798		48.828125
799		46.875000
800		52.734375
801		46.875000
802		54.687500
803		48.828125
804		56.640625
805		50.781250
806		56.640625
807		50.781250
808		58.593750
809		52.734375
810		58.593750
811		52.734375
812		60.546875
813		56.640625
814		60.546875
815		56.640625
816		62.500000
817		56.640625
818		64.453125
819		56.640625
820		64.453125
821		58.593750
822		66.406250
823		60.546875
824		66.406250
825		60.546875
826		68.359375
827		60.546875
828		68.359375
829		64.453125
830		66.406250
831		64.453125
832		68.359375
833		64.453125
834		70.312500
835		64.453125
836		70.312500
837		64.453125
838		72.265625
839		66.406250
840		72.265625
841		66.406250
842		74.218750
843		66.406250
844		74.218750
845		68.359375
846		74.218750
847		70.312500
848		72.265625
849		68.359375
850		76.171875
851		68.359375
852		76.171875
853		68.359375
854		76.171875
855		70.312500
856		76.171875
857		70.312500
858		76.171875
859		70.312500
860		76.171875
861		70.312500
862		76.171875
863		72.265625
864		74.218750
865		72.265625
866		74.218750
867		70.312500
868		76.171875
869		70.312500
870		76.171875
871		70.312500
872		78.125000
873		70.312500
874		76.171875
875		70.312500
876		76.171875
877		70.312500
878		76.171875
879		70.312500
880		76.171875
881		72.265625
882		74.218750
883		68.359375
884		76.171875
885		68.359375
886		76.171875
887		68.359375
888		74.218750
889		68.359375
890		74.218750
891		66.406250
892		74.218750
893		66.406250
894		74.218750
895		66.406250
896		72.265625
897		68.359375
898		70.312500
899		64.453125
900		70.312500
901		64.453125
902		70.312500
903		64.453125
904		70.312500
905		62.500000
906		70.312500
907		62.500000
908		68.359375
909		60.546875
910		68.359375
911		60.546875
912		66.406250
913		60.546875
914		64.453125
915		60.546875
916		62.500000
917		56.640625
918		64.453125
919		56.640625
920		62.500000
921		54.687500
922		62.500000
923		54.687500
924		60.546875
925		52.734375
926		60.546875
927		52.734375
928		58.593750
929		50.781250
930		56.640625
931		50.781250
932		54.687500
933		48.828125
934		54.687500
935		46.875000
936		54.687500
937		44.921875
938		52.734375
939		42.968750
940		50.781250
941		42.968750
942		48.828125
943		41.015625
944		48.828125
945		41.015625
946		46.875000
947		41.015625
948		42.968750
949		39.062500
950		41.015625
951		35.156250
952		41.015625
953		33.203125
954		41.015625
955		31.250000
956		39.062500
957		29.296875
958		37.109375
959		29.296875
960		35.156250
961		27.343750
962		33.203125
963		27.343750
964		31.250000
965		25.390625
966		29.296875
967		21.484375
968		27.343750
969		19.531250
970		27.343750
971		17.578125
972		25.390625
973		15.625000
974		23.437500
975		13.671875
976		21.484375
977		11.718750
978		19.531250
979		11.718750
980		17.578125
981		11.718750
982		13.671875
983		5.859375
984		13.671875
985		3.906250
986		11.718750
987		3.906250
988		11.718750
989		1.953125
990		7.812500
991		0.000000
992		5.859375
993		-1.953125
994		5.859375
995		-3.906250
996		1.953125
997		-3.906250
998		0.000000
999		-5.859375
1000		-1.953125
1001		-9.765625
1002		-1.953125
1003		-11.718750
1004		-3.906250
1005		-13.671875
1006		-5.859375
1007		-13.671875
1008		-7.812500
1009		-17.578125
1010		-9.765625
1011		-19.531250
1012		-11.718750
1013		-19.531250
1014		-13.671875
1015		-19.531250
1016		-17.578125
1017		-23.437500
1018		-17.578125
1019		-25.390625
1020		-17.578125
1021		-27.343750
1022		-19.531250
1023		-29.296875
1024		-21.484375
1025		-31.250000
1026		-23.437500
1027		-33.203125
1028		-25.390625
1029		-33.203125
1030		-27.343750
1031		-33.203125
1032		-31.250000
1033		-35.156250
1034		-33.203125
1035		-39.062500
1036		-31.250000
1037		-41.015625
1038		-33.203125
1039		-42.968750
1040		-35.156250
1041		-42.968750
1042		-37.109375
1043		-44.921875
1044		-37.109375
1045		-46.875000
1046		-39.062500
1047		-46.875000
1048		-41.015625
1049		-46.875000
1050		-44.921875
1051		-48.828125
1052		-44.921875
1053		-50.781250
1054		-44.921875
1055		-52.734375
1056		-44.921875
1057		-54.687500
1058		-46.875000
1059		-54.687500
1060		-46.875000
1061		-56.640625
1062		-48.828125
1063		-56.640625
1064		-50.781250
1065		-56.640625
1066		-52.734375
1067		-58.593750
1068		-54.687500
1069		-60.546875
1070		-52.734375
1071		-60.546875
1072		-54.687500
1073		-62.500000
1074		-54.687500
1075		-62.500000
1076		-54.687500
1077		-62.500000
1078		-56.640625
1079		-64.453125
1080		-56.640625
1081		-62.500000
1082		-58.593750
1083		-62.500000
1084		-60.546875
1085		-64.453125
1086		-58.593750
1087		-66.406250
1088		-58.593750
1089		-66.406250
1090		-58.593750
1091		-66.406250
1092		-58.593750
1093		-66.406250
1094		-60.546875
1095		-66.406250
1096		-60.546875
1097		-66.406250
1098		-60.546875
1099		-64.453125
1100		-62.500000
1101		-66.406250
1102		-60.546875
1103		-66.406250
1104		-60.546875
1105		-66.406250
1106		-60.546875
1107		-66.406250
1108		-60.546875
1109		-66.406250
1110		-60.546875
1111		-66.406250
1112		-60.546875
1113		-66.406250
1114		-58.593750
1115		-64.453125
1116		-60.546875
1117		-62.500000
1118		-60.546875
1119		-64.453125
1120		-58.593750
1121		-64.453125
1122		-58.593750
1123		-64.453125
1124		-56.640625
1125		-64.453125
1126		-56.640625
1127		-62.500000
1128		-56.640625
1129		-62.500000
1130		-54.687500
1131		-60.546875
1132		-56.640625
1133		-58.593750
1134		-56.640625
1135		-60.546875
1136		-54.687500
1137		-60.546875
1138		-52.734375
1139		-58.593750
1140		-50.781250
1141		-56.640625
1142		-50.781250
1143		-56.640625
1144		-48.828125
1145		-54.687500
1146		-48.828125
1147		-54.687500
1148		-48.828125
1149		-50.781250
1150		-48.828125
1151		-50.781250
1152		-46.875000
1153		-50.781250
1154		-42.968750
1155		-48.828125
1156		-42.968750
1157		-48.828125
1158		-41.015625
1159		-46.875000
1160		-39.062500
1161		-46.875000
1162		-39.062500
1163		-44.921875
1164		-37.109375
1165		-41.015625
1166		-37.109375
1167		-39.062500
1168		-35.156250
1169		-39.062500
1170		-33.203125
1171		-37.109375
1172		-31.250000
1173		-37.109375
1174		-29.296875
1175		-35.156250
1176		-27.343750
1177		-35.156250
1178		-27.343750
1179		-31.250000
1180		-23.437500
1181		-29.296875
1182		-23.437500
1183		-27.343750
1184		-23.437500
1185		-25.390625
1186		-19.531250
1187		-23.437500
1188		-17.578125
1189		-23.437500
1190		-15.625000
1191		-21.484375
1192		-13.671875
1193		-19.531250
1194		-13.671875
1195		-17.578125
1196		-9.765625
1197		-15.625000
1198		-9.765625
1199		-11.718750
1200		-9.765625
1201		-9.765625
1202		-7.812500
1203		-11.718750
1204		-3.906250
1205		-7.812500
1206		-1.953125
1207		-7.812500
1208		0.000000
1209		-3.906250
1210		1.953125
1211		-3.906250
1212		3.906250
1213		-1.953125
1214		5.859375
1215		0.000000
1216		5.859375
1217		3.906250
1218		7.812500
1219		5.859375
1220		11.718750
1221		5.859375
1222		13.671875
1223		7.812500
1224		15.625000
1225		9.765625
1226		17.578125
1227		11.718750
1228		17.578125
1229		13.671875
1230		21.484375
1231		15.625000
1232		21.484375
1233		17.578125
1234		21.484375
1235		19.531250
1236		23.437500
1237		19.531250
1238		27.343750
1239		21.484375
1240		29.296875
1241		23.437500
1242		31.250000
1243		25.390625
1244		33.203125
1245		27.343750
1246		33.203125
1247		29.296875
1248		35.156250
1249		31.250000
1250		35.156250
1251		33.203125
1252		37.109375
1253		35.156250
1254		41.015625
1255		35.156250
1256		41.015625
1257		37.109375
1258		44.921875
1259		39.062500
1260		44.921875
1261		39.062500
1262		46.875000
1263		41.015625
1264		48.828125
1265		42.968750
1266		48.828125
1267		46.875000
1268		48.828125
1269		46.875000
1270		50.781250
1271		46.875000
1272		54.687500
1273		46.875000
1274		54.687500
1275		48.828125
1276		56.640625
1277		50.781250
1278		58.593750
1279		50.781250
1280		58.593750
1281		52.734375
1282		58.593750
1283		56.640625
1284		58.593750
1285		56.640625
1286		60.546875
1287		56.640625
1288		62.500000
1289		58.593750
1290		64.453125
1291		58.593750
1292		64.453125
1293		60.546875
1294		66.406250
1295		60.546875
1296		66.406250
1297		60.546875
1298		68.359375
1299		62.500000
1300		68.359375
1301		64.453125
1302		68.359375
1303		64.453125
1304		70.312500
1305		64.453125
1306		70.312500
1307		64.453125
1308		72.265625
1309		66.406250
1310		72.265625
1311		66.406250
1312		72.265625
1313		66.406250
1314		74.218750
1315		66.406250
1316		74.218750
1317		70.312500
1318		72.265625
1319		70.312500
1320		72.265625
1321		68.359375
1322		74.218750
1323		68.359375
1324		76.171875
1325		70.312500
1326		76.171875
1327		70.312500
1328		76.171875
1329		70.312500
1330		76.171875
1331		70.312500
1332		76.171875
1333		72.265625
1334		76.171875
1335		72.265625
1336		76.171875
1337		72.265625
1338		76.171875
1339		70.312500
1340		78.125000
1341		70.312500
1342		76.171875
1343		70.312500
1344		76.171875
1345		70.312500
1346		76.171875
1347		70.312500
1348		76.171875
1349		70.312500
1350		76.171875
1351		72.265625
1352		74.218750
1353		70.312500
1354		74.218750
1355		70.312500
1356		76.171875
1357		68.359375
1358		76.171875
1359		68.359375
1360		74.218750
1361		68.359375
1362		74.218750
1363		68.359375
1364		74.218750
1365		68.359375
1366		74.218750
1367		68.359375
1368		72.265625
1369		68.359375
1370		70.312500
1371		64.453125
1372		72.265625
1373		64.453125
1374		70.312500
1375		64.453125
1376		70.312500
1377		62.500000
1378		70.312500
1379		62.500000
1380		68.359375
1381		60.546875
1382		68.359375
1383		62.500000
1384		66.406250
1385		60.546875
1386		64.453125
1387		58.593750
1388		64.453125
1389		56.640625
1390		64.453125
1391		56.640625
1392		62.500000
1393		56.640625
1394		62.500000
1395		54.687500
1396		60.546875
1397		52.734375
1398		60.546875
1399		52.734375
1400		58.593750
1401		52.734375
1402		56.640625
1403		50.781250
1404		54.687500
1405		48.828125
1406		54.687500
1407		46.875000
1408		54.687500
1409		44.921875
1410		52.734375
1411		44.921875
1412		50.781250
1413		42.968750
1414		50.781250
1415		41.015625
1416		48.828125
1417		41.015625
1418		44.921875
1419		41.015625
1420		42.968750
1421		37.109375
1422		42.968750
1423		35.156250
1424		42.968750
1425		33.203125
1426		41.015625
1427		31.250000
1428		39.062500
1429		31.250000
1430		37.109375
1431		29.296875
1432		35.156250
1433		27.343750
1434		33.203125
1435		27.343750
1436		31.250000
1437		25.390625
1438		29.296875
1439		21.484375
1440		29.296875
1441		19.531250
1442		27.343750
1443		17.578125
1444		25.390625
1445		15.625000
1446		23.437500
1447		13.671875
1448		21.484375
1449		13.671875
1450		19.531250
1451		11.718750
1452		15.625000
1453		9.765625
1454		13.671875
1455		7.812500
1456		13.671875
1457		5.859375
1458		11.718750
1459		3.906250
1460		11.718750
1461		0.000000
1462		9.765625
1463		0.000000
1464		7.812500
1465		-1.953125
1466		5.859375
1467		-3.906250
1468		3.906250
1469		-3.906250
1470		0.000000
1471		-7.812500
1472		-1.953125
1473		-9.765625
1474		-1.953125
1475		-11.718750
1476		-3.906250
1477		-13.671875
1478		-5.859375
1479		-15.625000
1480		-7.812500
1481		-17.578125
1482		-9.765625
1483		-17.578125
1484		-11.718750
1485		-17.578125
1486		-15.625000
1487		-19.531250
1488		-15.625000
1489		-23.437500
1490		-17.578125
1491		-25.390625
1492		-19.531250
1493		-27.343750
1494		-19.531250
1495		-29.296875
1496		-21.484375
1497		-31.250000
1498		-23.437500
1499		-31.250000
1500		-25.390625
1501		-33.203125
1502		-27.343750
1503		-33.203125
1504		-31.250000
1505		-37.109375
1506		-31.250000
1507		-39.062500
1508		-31.250000
1509		-41.015625
1510		-33.203125
1511		-41.015625
1512		-35.156250
1513		-42.968750
1514		-35.156250
1515		-44.921875
1516		-37.109375
1517		-44.921875
1518		-39.062500
1519		-44.921875
1520		-42.968750
1521		-46.875000
1522		-42.968750
1523		-48.828125
1524		-42.968750
1525		-50.781250
1526		-44.921875
1527		-52.734375
1528		-44.921875
1529		-52.734375
1530		-46.875000
1531		-54.687500
1532		-46.875000
1533		-54.687500
1534		-48.828125
1535		-54.687500
1536		-52.734375
1537		-54.687500
1538		-52.734375
1539		-58.593750
1540		-52.734375
1541		-60.546875
1542		-52.734375
1543		-60.546875
1544		-52.734375
1545		-60.546875
1546		-54.687500
1547		-62.500000
1548		-54.687500
1549		-62.500000
1550		-54.687500
1551		-62.500000
1552		-56.640625
1553		-60.546875
1554		-58.593750
1555		-64.453125
1556		-58.593750
1557		-64.453125
1558		-58.593750
1559		-64.453125
1560		-58.593750
1561		-64.453125
1562		-58.593750
1563		-66.406250
1564		-58.593750
1565		-66.406250
1566		-58.593750
1567		-66.406250
1568		-60.546875
1569		-64.453125
1570		-62.500000
1571		-64.453125
1572		-62.500000
1573		-66.406250
1574		-58.593750
1575		-66.406250
1576		-60.546875
1577		-66.406250
1578		-60.546875
1579		-66.406250
1580		-58.593750
1581		-66.406250
1582		-60.546875
1583		-64.453125
1584		-58.593750
1585		-64.453125
1586		-58.593750
1587		-62.500000
1588		-60.546875
1589		-64.453125
1590		-58.593750
1591		-64.453125
1592		-58.593750
1593		-64.453125
1594		-56.640625
1595		-62.500000
1596		-56.640625
1597		-62.500000
1598		-56.640625
1599		-62.500000
1600		-54.687500
1601		-60.546875
1602		-54.687500
1603		-58.593750
1604		-56.640625
1605		-58.593750
1606		-54.687500
1607		-58.593750
1608		-52.734375
1609		-58.593750
1610		-50.781250
1611		-56.640625
1612		-50.781250
1613		-56.640625
1614		-48.828125
1615		-54.687500
1616		-48.828125
1617		-54.687500
1618		-46.875000
1619		-50.781250
1620		-48.828125
1621		-48.828125
1622		-46.875000
1623		-48.828125
1624		-42.968750
1625		-48.828125
1626		-42.968750
1627		-48.828125
1628		-41.015625
1629		-46.875000
1630		-41.015625
1631		-44.921875
1632		-39.062500
1633		-44.921875
1634		-37.109375
1635		-42.968750
1636		-37.109375
1637		-39.062500
1638		-35.156250
1639		-39.062500
1640		-33.203125
1641		-39.062500
1642		-31.250000
1643		-37.109375
1644		-29.296875
1645		-35.156250
1646		-27.343750
1647		-33.203125
1648		-27.343750
1649		-31.250000
1650		-25.390625
1651		-29.296875
1652		-23.437500
1653		-27.343750
1654		-23.437500
1655		-25.390625
1656		-21.484375
1657		-23.437500
1658		-17.578125
1659		-23.437500
1660		-15.625000
1661		-21.484375
1662		-13.671875
1663		-19.531250
1664		-11.718750
1665		-17.578125
1666		-11.718750
1667		-15.625000
1668		-9.765625
1669		-13.671875
1670		-9.765625
1671		-11.718750
1672		-7.812500
1673		-9.765625
1674		-3.906250
1675		-9.765625
1676		-1.953125
1677		-7.812500
1678		0.000000
1679		-5.859375
1680		1.953125
1681		-1.953125
1682		1.953125
1683		-1.953125
1684		5.859375
1685		0.000000
1686		5.859375
1687		3.906250
1688		7.812500
1689		5.859375
1690		11.718750
1691		5.859375
1692		13.671875
1693		7.812500
1694		13.671875
1695		9.765625
1696		17.578125
1697		11.718750
1698		17.578125
1699		11.718750
1700		19.531250
1701		13.671875
1702		21.484375
1703		17.578125
1704		21.484375
1705		19.531250
1706		23.437500
1707		19.531250
1708		27.343750
1709		21.484375
1710		29.296875
1711		23.437500
1712		29.296875
1713		25.390625
1714		31.250000
1715		27.343750
1716		35.156250
1717		29.296875
1718		35.156250
1719		29.296875
1720		37.109375
1721		33.203125
1722		37.109375
1723		35.156250
1724		39.062500
1725		35.156250
1726		41.015625
1727		37.109375
1728		42.968750
1729		37.109375
1730		44.921875
1731		39.062500
1732		46.875000
1733		41.015625
1734		46.875000
1735		41.015625
1736		48.828125
1737		44.921875
1738		48.828125
1739		46.875000
1740		50.781250
1741		46.875000
1742		52.734375
1743		46.875000
1744		54.687500
1745		48.828125
1746		54.687500
1747		50.781250
1748		56.640625
1749		50.781250
1750		58.593750
1751		52.734375
1752		60.546875
1753		54.687500
1754		60.546875
1755		56.640625
1756		60.546875
1757		56.640625
1758		62.500000
1759		56.640625
1760		64.453125
1761		58.593750
1762		64.453125
1763		58.593750
1764		66.406250
1765		58.593750
1766		66.406250
1767		60.546875
1768		68.359375
1769		62.500000
1770		68.359375
1771		64.453125
1772		68.359375
1773		64.453125
1774		70.312500
1775		64.453125
1776		70.312500
1777		64.453125
1778		72.265625
1779		66.406250
1780		72.265625
1781		66.406250
1782		72.265625
1783		66.406250
1784		74.218750
1785		68.359375
1786		74.218750
1787		70.312500
1788		72.265625
1789		70.312500
1790		72.265625
1791		70.312500
1792		76.171875
1793		68.359375
1794		76.171875
1795		70.312500
1796		76.171875
1797		70.312500
1798		76.171875
1799		70.312500
1800		76.171875
1801		70.312500
1802		76.171875
1803		70.312500
1804		76.171875
1805		72.265625
1806		76.171875
1807		72.265625
1808		76.171875
1809		70.312500
1810		78.125000
1811		70.312500
1812		78.125000
1813		72.265625
1814		78.125000
1815		70.312500
1816		78.125000
1817		72.265625
1818		78.125000
1819		70.312500
1820		76.171875
1821		72.265625
1822		74.218750
1823		72.265625
1824		74.218750
1825		70.312500
1826		76.171875
1827		70.312500
1828		76.171875
1829		70.312500
1830		76.171875
1831		68.359375
1832		76.171875
1833		68.359375
1834		76.171875
1835		68.359375
1836		74.218750
1837		68.359375
1838		74.218750
1839		68.359375
1840		72.265625
1841		66.406250
1842		72.265625
1843		66.406250
1844		72.265625
1845		64.453125
1846		72.265625
1847		64.453125
1848		70.312500
1849		62.500000
1850		70.312500
1851		62.500000
1852		68.359375
1853		62.500000
1854		68.359375
1855		62.500000
1856		64.453125
1857		62.500000
1858		64.453125
1859		58.593750
1860		64.453125
1861		56.640625
1862		64.453125
1863		56.640625
1864		62.500000
1865		54.687500
1866		62.500000
1867		54.687500
1868		60.546875
1869		52.734375
1870		60.546875
1871		52.734375
1872		56.640625
1873		52.734375
1874		56.640625
1875		50.781250
1876		54.687500
1877		46.875000
1878		54.687500
1879		46.875000
1880		52.734375
1881		44.921875
1882		52.734375
1883		44.921875
1884		50.781250
1885		42.968750
1886		48.828125
1887		42.968750
1888		48.828125
1889		41.015625
1890		44.921875
1891		39.062500
1892		42.968750
1893		35.156250
1894		42.968750
1895		35.156250
1896		42.968750
1897		33.203125
1898		41.015625
1899		31.250000
1900		39.062500
1901		29.296875
1902		37.109375
1903		29.296875
1904		35.156250
1905		29.296875
1906		31.250000
1907		27.343750
1908		29.296875
1909		23.437500
1910		29.296875
1911		21.484375
1912		29.296875
1913		19.531250
1914		27.343750
1915		17.578125
1916		25.390625
1917		15.625000
1918		23.437500
1919		13.671875
1920		21.484375
1921		13.671875
1922		19.531250
1923		11.718750
1924		15.625000
1925		9.765625
1926		13.671875
1927		5.859375
1928		13.671875
1929		3.906250
1930		11.718750
1931		1.953125
1932		9.765625
1933		0.000000
1934		7.812500
1935		0.000000
1936		5.859375
1937		-1.953125
1938		5.859375
1939		-1.953125
1940		1.953125
1941		-3.906250
1942		-1.953125
1943		-7.812500
1944		0.000000
1945		-9.765625
1946		-1.953125
1947		-11.718750
1948		-3.906250
1949		-13.671875
1950		-5.859375
1951		-15.625000
1952		-7.812500
1953		-17.578125
1954		-9.765625
1955		-17.578125
1956		-13.671875
1957		-19.531250
1958		-15.625000
1959		-21.484375
1960		-17.578125
1961		-23.437500
1962		-17.578125
1963		-25.390625
1964		-19.531250
1965		-25.390625
1966		-21.484375
1967		-29.296875
1968		-23.437500
1969		-31.250000
1970		-25.390625
1971		-31.250000
1972		-27.343750
1973		-33.203125
1974		-29.296875
1975		-35.156250
1976		-31.250000
1977		-37.109375
1978		-31.250000
1979		-39.062500
1980		-33.203125
1981		-41.015625
1982		-33.203125
1983		-42.968750
1984		-35.156250
1985		-44.921875
1986		-37.109375
1987		-44.921875
1988		-37.109375
1989		-44.921875
1990		-41.015625
1991		-44.921875
1992		-42.968750
1993		-48.828125
1994		-42.968750
1995		-48.828125
1996		-42.968750
1997		-50.781250
1998		-44.921875
1999		-52.734375
2000		-44.921875
2001		-54.687500
2002		-46.875000
2003		-54.687500
2004		-48.828125
2005		-54.687500
2006		-48.828125
2007		-54.687500
2008		-52.734375
2009		-58.593750
2010		-52.734375
2011		-58.593750
2012		-50.781250
2013		-60.546875
2014		-52.734375
2015		-60.546875
2016		-54.687500
2017		-62.500000
2018		-54.687500
2019		-62.500000
2020		-54.687500
2021		-62.500000
2022		-56.640625
2023		-60.546875
2024		-58.593750
2025		-60.546875
2026		-58.593750
2027		-64.453125
2028		-56.640625
2029		-64.453125
2030		-58.593750
2031		-64.453125
2032		-58.593750
2033		-64.453125
2034		-58.593750
2035		-66.406250
2036		-58.593750
2037		-66.406250
2038		-58.593750
2039		-64.453125
2040		-60.546875
2041		-64.453125
2042		-62.500000
2043		-66.406250
2044		-60.546875
2045		-66.406250
2046		-60.546875
2047		-66.406250
2048		-60.546875
2049		-66.406250
2050		-58.593750
2051		-66.406250
2052		-60.546875
2053		-66.406250
2054		-58.593750
2055		-66.406250
2056		-58.593750
2057		-62.500000
2058		-60.546875
2059		-62.500000
2060		-60.546875
2061		-64.453125
2062		-58.593750
2063		-64.453125
2064		-58.593750
2065		-64.453125
2066		-56.640625
2067		-64.453125
2068		-56.640625
2069		-62.500000
2070		-56.640625
2071		-62.500000
2072		-54.687500
2073		-58.593750
2074		-56.640625
2075		-58.593750
2076		-56.640625
2077		-58.593750
2078		-52.734375
2079		-58.593750
2080		-52.734375
2081		-58.593750
2082		-50.781250
2083		-58.593750
2084		-50.781250
2085		-56.640625
2086		-48.828125
2087		-54.687500
2088		-48.828125
2089		-54.687500
2090		-48.828125
2091		-50.781250
2092		-48.828125
2093		-50.781250
2094		-44.921875
2095		-50.781250
2096		-44.921875
2097		-50.781250
2098		-42.968750
2099		-48.828125
2100		-41.015625
2101		-46.875000
2102		-41.015625
2103		-44.921875
2104		-39.062500
2105		-44.921875
2106		-37.109375
2107		-41.015625
2108		-37.109375
2109		-39.062500
2110		-37.109375
2111		-39.062500
2112		-33.203125
2113		-39.062500
2114		-31.250000
2115		-37.109375
2116		-29.296875
2117		-37.109375
2118		-27.343750
2119		-33.203125
2120		-27.343750
2121		-33.203125
2122		-23.437500
2123		-29.296875
2124		-25.390625
2125		-27.343750
2126		-23.437500
2127		-25.390625
2128		-19.531250
2129		-25.390625
2130		-17.578125
2131		-23.437500
2132		-15.625000
2133		-21.484375
2134		-13.671875
2135		-19.531250
2136		-13.671875
2137		-19.531250
2138		-11.718750
2139		-15.625000
2140		-11.718750
2141		-13.671875
2142		-9.765625
2143		-11.718750
2144		-5.859375
2145		-11.718750
2146		-3.906250
2147		-9.765625
2148		-1.953125
2149		-7.812500
2150		0.000000
2151		-5.859375
2152		1.953125
2153		-5.859375
2154		1.953125
2155		-1.953125
2156		5.859375
2157		1.953125
2158		5.859375
2159		3.906250
2160		7.812500
2161		3.906250
2162		11.718750
2163		5.859375
2164		11.718750
2165		7.812500
2166		13.671875
2167		7.812500
2168		15.625000
2169		11.718750
2170		17.578125
2171		11.718750
2172		19.531250
2173		13.671875
2174		19.531250
2175		17.578125
2176		21.484375
2177		19.531250
2178		23.437500
2179		19.531250
2180		27.343750
2181		21.484375
2182		27.343750
2183		23.437500
2184		31.250000
2185		25.390625
2186		31.250000
2187		27.343750
2188		33.203125
2189		29.296875
2190		33.203125
2191		31.250000
2192		35.156250
2193		33.203125
2194		37.109375
2195		33.203125
2196		39.062500
2197		35.156250
2198		41.015625
2199		37.109375
2200		42.968750
2201		37.109375
2202		44.921875
2203		39.062500
2204		44.921875
2205		41.015625
2206		46.875000
2207		42.968750
2208		46.875000
2209		44.921875
2210		48.828125
2211		46.875000
2212		50.781250
2213		46.875000
2214		52.734375
2215		46.875000
2216		54.687500
2217		48.828125
2218		56.640625
2219		50.781250
2220		56.640625
2221		50.781250
2222		58.593750
2223		52.734375
2224		58.593750
2225		54.687500
2226		58.593750
2227		56.640625
2228		60.546875
2229		56.640625
2230		62.500000
2231		56.640625
2232		64.453125
2233		58.593750
2234		64.453125
2235		58.593750
2236		66.406250
2237		60.546875
2238		66.406250
2239		60.546875
2240		66.406250
2241		64.453125
2242		66.406250
2243		64.453125
2244		66.406250
2245		64.453125
2246		70.312500
2247		64.453125
2248		70.312500
2249		64.453125
2250		72.265625
2251		66.406250
2252		72.265625
2253		66.406250
2254		72.265625
2255		68.359375
2256		72.265625
2257		68.359375
2258		72.265625
2259		70.312500
2260		72.265625
2261		70.312500
2262		74.218750
2263		68.359375
2264		74.218750
2265		68.359375
2266		76.171875
2267		70.312500
2268		76.171875
2269		70.312500
2270		76.171875
2271		70.312500
2272		76.171875
2273		72.265625
2274		76.171875
2275		72.265625
2276		74.218750
2277		72.265625
2278		74.218750
2279		70.312500
2280		78.125000
2281		70.312500
2282		78.125000
2283		70.312500
2284		76.171875
2285		70.312500
2286		76.171875
2287		72.265625
2288		76.171875
2289		72.265625
2290		76.171875
2291		72.265625
2292		76.171875
2293		70.312500
2294		74.218750
2295		70.312500
2296		76.171875
2297		70.312500
2298		76.171875
2299		70.312500
2300		74.218750
2301		68.359375
2302		76.171875
2303		70.312500
2304		74.218750
2305		68.359375
2306		72.265625
2307		68.359375
2308		72.265625
2309		68.359375
2310		70.312500
2311		68.359375
2312		72.265625
2313		66.406250
2314		70.312500
2315		66.406250
2316		70.312500
2317		66.406250
2318		68.359375
2319		64.453125
2320		68.359375
2321		64.453125
2322		68.359375
2323		62.500000
2324		66.406250
2325		62.500000
2326		64.453125
2327		62.500000
2328		64.453125
2329		60.546875
2330		64.453125
2331		58.593750
2332		64.453125
2333		58.593750
2334		62.500000
2335		56.640625
2336		60.546875
2337		56.640625
2338		60.546875
2339		54.687500
2340		58.593750
2341		54.687500
2342		58.593750
2343		52.734375
2344		56.640625
2345		50.781250
2346		54.687500
2347		50.781250
2348		52.734375
2349		48.828125
2350		52.734375
2351		46.875000
2352		50.781250
2353		46.875000
2354		48.828125
2355		44.921875
2356		48.828125
2357		42.968750
2358		46.875000
2359		41.015625
2360		44.921875
2361		41.015625
2362		42.968750
2363		39.062500
2364		42.968750
2365		37.109375
2366		41.015625
2367		35.156250
2368		39.062500
2369		33.203125
2370		37.109375
2371		33.203125
2372		35.156250
2373		31.250000
2374		33.203125
2375		29.296875
2376		33.203125
2377		27.343750
2378		31.250000
2379		25.390625
2380		29.296875
2381		23.437500
2382		27.343750
2383		21.484375
2384		25.390625
2385		19.531250
2386		23.437500
2387		17.578125
2388		21.484375
2389		15.625000
2390		19.531250
2391		13.671875
2392		17.578125
2393		13.671875
2394		15.625000
2395		11.718750
2396		15.625000
2397		9.765625
2398		13.671875
2399		7.812500
2400		11.718750
2401		5.859375
2402		9.765625
2403		3.906250
2404		7.812500
2405		1.953125
2406		5.859375
2407		-1.953125
2408		3.906250
2409		-1.953125
2410		1.953125
2411		-3.906250
2412		0.000000
2413		-5.859375
2414		-1.953125
2415		-7.812500
2416		-1.953125
2417		-9.765625
2418		-5.859375
2419		-11.718750
2420		-5.859375
2421		-13.671875
2422		-9.765625
2423		-13.671875
2424		-11.718750
2425		-17.578125
2426		-11.718750
2427		-17.578125
2428		-15.625000
2429		-21.484375
2430		-17.578125
2431		-21.484375
2432		-17.578125
2433		-23.437500
2434		-19.531250
2435		-25.390625
2436		-21.484375
2437		-27.343750
2438		-23.437500
2439		-29.296875
2440		-25.390625
2441		-29.296875
2442		-27.343750
2443		-31.250000
2444		-29.296875
2445		-33.203125
2446		-31.250000
2447		-35.156250
2448		-31.250000
2449		-37.109375
2450		-33.203125
2451		-39.062500
2452		-35.156250
2453		-39.062500
2454		-37.109375
2455		-41.015625
2456		-37.109375
2457		-42.968750
2458		-39.062500
2459		-44.921875
2460		-39.062500
2461		-44.921875
2462		-41.015625
2463		-46.875000
2464		-42.968750
2465		-46.875000
2466		-44.921875
2467		-48.828125
2468		-44.921875
2469		-50.781250
2470		-46.875000
2471		-52.734375
2472		-46.875000
2473		-52.734375
2474		-48.828125
2475		-54.687500
2476		-50.781250
2477		-54.687500
2478		-52.734375
2479		-54.687500
2480		-52.734375
2481		-56.640625
2482		-52.734375
2483		-58.593750
2484		-54.687500
2485		-58.593750
2486		-54.687500
2487		-58.593750
2488		-54.687500
2489		-60.546875
2490		-56.640625
2491		-60.546875
2492		-56.640625
2493		-60.546875
2494		-58.593750
2495		-62.500000
2496		-58.593750
2497		-64.453125
2498		-58.593750
2499		-62.500000
2500		-60.546875
2501		-62.500000
2502		-60.546875
2503		-64.453125
2504		-60.546875
2505		-64.453125
2506		-60.546875
2507		-64.453125
2508		-60.546875
2509		-64.453125
2510		-62.500000
2511		-64.453125
2512		-62.500000
2513		-64.453125
2514		-60.546875
2515		-64.453125
2516		-62.500000
2517		-64.453125
2518		-62.500000
2519		-64.453125
2520		-62.500000
2521		-64.453125
2522		-60.546875
2523		-64.453125
2524		-62.500000
2525		-64.453125
2526		-60.546875
2527		-64.453125
2528		-60.546875
2529		-64.453125
2530		-60.546875
2531		-64.453125
2532		-60.546875
2533		-62.500000
2534		-60.546875
2535		-62.500000
2536		-60.546875
2537		-62.500000
2538		-58.593750
2539		-62.500000
2540		-58.593750
2541		-60.546875
2542		-58.593750
2543		-60.546875
2544		-56.640625
2545		-58.593750
2546		-56.640625
2547		-58.593750
2548		-54.687500
2549		-58.593750
2550		-54.687500
2551		-56.640625
2552		-52.734375
2553		-56.640625
2554		-52.734375
2555		-56.640625
2556		-52.734375
2557		-54.687500
2558		-50.781250
2559		-54.687500
2560		-48.828125
2561		-52.734375
2562		-48.828125
2563		-50.781250
2564		-48.828125
2565		-50.781250
2566		-46.875000
2567		-48.828125
2568		-44.921875
2569		-48.828125
2570		-44.921875
2571		-46.875000
2572		-42.968750
2573		-44.921875
2574		-41.015625
2575		-44.921875
2576		-41.015625
2577		-42.968750
2578		-39.062500
2579		-41.015625
2580		-37.109375
2581		-39.062500
2582		-35.156250
2583		-37.109375
2584		-35.156250
2585		-37.109375
2586		-33.203125
2587		-35.156250
2588		-31.250000
2589		-33.203125
2590		-29.296875
2591		-31.250000
2592		-27.343750
2593		-31.250000
2594		-27.343750
2595		-27.343750
2596		-25.390625
2597		-27.343750
2598		-21.484375
2599		-25.390625
2600		-21.484375
2601		-23.437500
2602		-19.531250
2603		-21.484375
2604		-17.578125
2605		-19.531250
2606		-15.625000
2607		-17.578125
2608		-13.671875
2609		-15.625000
2610		-11.718750
2611		-13.671875
2612		-11.718750
2613		-11.718750
2614		-9.765625
2615		-9.765625
2616		-5.859375
2617		-9.765625
2618		-5.859375
2619		-7.812500
2620		-3.906250
2621		-5.859375
2622		-1.953125
2623		-3.906250
2624		0.000000
2625		-1.953125
2626		1.953125
2627		0.000000
2628		3.906250
2629		1.953125
2630		5.859375
2631		3.906250
2632		7.812500
2633		5.859375
2634		9.765625
2635		7.812500
2636		11.718750
2637		7.812500
2638		13.671875
2639		11.718750
2640		15.625000
2641		13.671875
2642		15.625000
2643		13.671875
2644		17.578125
2645		17.578125
2646		19.531250
2647		19.531250
2648		21.484375
2649		19.531250
2650		23.437500
2651		21.484375
2652		25.390625
2653		23.437500
2654		27.343750
2655		25.390625
2656		29.296875
2657		27.343750
2658		31.250000
2659		29.296875
2660		33.203125
2661		29.296875
2662		33.203125
2663		33.203125
2664		35.156250
2665		33.203125
2666		37.109375
2667		35.156250
2668		39.062500
2669		37.109375
2670		41.015625
2671		37.109375
2672		42.968750
2673		41.015625
2674		42.968750
2675		41.015625
2676		44.921875
2677		41.015625
2678		46.875000
2679		44.921875
2680		46.875000
2681		46.875000
2682		48.828125
2683		46.875000
2684		50.781250
2685		48.828125
2686		52.734375
2687		48.828125
2688		52.734375
2689		50.781250
2690		54.687500
2691		52.734375
2692		56.640625
2693		52.734375
2694		56.640625
2695		54.687500
2696		58.593750
2697		56.640625
2698		58.593750
2699		56.640625
2700		60.546875
2701		58.593750
2702		62.500000
2703		58.593750
2704		62.500000
2705		60.546875
2706		64.453125
2707		60.546875
2708		64.453125
2709		62.500000
2710		64.453125
2711		62.500000
2712		66.406250
2713		64.453125
2714		66.406250
2715		64.453125
2716		68.359375
2717		66.406250
2718		68.359375
2719		66.406250
2720		70.312500
2721		66.406250
2722		70.312500
2723		66.406250
2724		72.265625
2725		68.359375
2726		72.265625
2727		68.359375
2728		72.265625
2729		68.359375
2730		72.265625
2731		70.312500
2732		72.265625
2733		68.359375
2734		74.218750
2735		70.312500
2736		74.218750
2737		72.265625
2738		74.218750
2739		70.312500
2740		74.218750
2741		72.265625
2742		74.218750
2743		72.265625
2744		74.218750
2745		72.265625
2746		76.171875
2747		72.265625
2748		74.218750
2749		72.265625
2750		76.171875
2751		72.265625
2752		76.171875
2753		72.265625
2754		76.171875
2755		72.265625
2756		76.171875
2757		72.265625
2758		76.171875
2759		72.265625
2760		76.171875
2761		72.265625
2762		76.171875
2763		72.265625
2764		74.218750
2765		70.312500
2766		74.218750
2767		72.265625
2768		74.218750
2769		70.312500
2770		74.218750
2771		70.312500
2772		74.218750
2773		70.312500
2774		74.218750
2775		70.312500
2776		74.218750
2777		68.359375
2778		72.265625
2779		70.312500
2780		72.265625
2781		68.359375
2782		70.312500
2783		68.359375
2784		70.312500
2785		66.406250
2786		70.312500
2787		66.406250
2788		70.312500
2789		64.453125
2790		68.359375
2791		64.453125
2792		68.359375
2793		64.453125
2794		66.406250
2795		62.500000
2796		66.406250
2797		62.500000
2798		64.453125
2799		60.546875
2800		64.453125
2801		60.546875
2802		62.500000
2803		60.546875
2804		62.500000
2805		58.593750
2806		60.546875
2807		56.640625
2808		60.546875
2809		56.640625
2810		58.593750
2811		54.687500
2812		58.593750
2813		52.734375
2814		56.640625
2815		52.734375
2816		54.687500
2817		50.781250
2818		54.687500
2819		48.828125
2820		52.734375
2821		48.828125
2822		50.781250
2823		46.875000
2824		50.781250
2825		44.921875
2826		48.828125
2827		44.921875
2828		46.875000
2829		42.968750
2830		46.875000
2831		41.015625
2832		44.921875
2833		41.015625
2834		42.968750
2835		39.062500
2836		42.968750
2837		37.109375
2838		41.015625
2839		35.156250
2840		39.062500
2841		33.203125
2842		37.109375
2843		31.250000
2844		35.156250
2845		29.296875
2846		33.203125
2847		29.296875
2848		31.250000
2849		25.390625
2850		29.296875
2851		25.390625
2852		29.296875
2853		23.437500
2854		27.343750
2855		21.484375
2856		25.390625
2857		19.531250
2858		23.437500
2859		17.578125
2860		21.484375
2861		15.625000
2862		19.531250
2863		13.671875
2864		17.578125
2865		11.718750
2866		15.625000
2867		9.765625
2868		15.625000
2869		7.812500
2870		13.671875
2871		5.859375
2872		9.765625
2873		5.859375
2874		7.812500
2875		1.953125
2876		7.812500
2877		1.953125
2878		3.906250
2879		0.000000
2880		3.906250
2881		-1.953125
2882		1.953125
2883		-5.859375
2884		0.000000
2885		-5.859375
2886		-1.953125
2887		-7.812500
2888		-3.906250
2889		-9.765625
2890		-5.859375
2891		-11.718750
2892		-7.812500
2893		-13.671875
2894		-9.765625
2895		-15.625000
2896		-11.718750
2897		-17.578125
2898		-13.671875
2899		-19.531250
2900		-15.625000
2901		-21.484375
2902		-17.578125
2903		-23.437500
2904		-19.531250
2905		-25.390625
2906		-19.531250
2907		-27.343750
2908		-21.484375
2909		-27.343750
2910		-23.437500
2911		-29.296875
2912		-25.390625
2913		-31.250000
2914		-25.390625
2915		-31.250000
2916		-29.296875
2917		-35.156250
2918		-31.250000
2919		-35.156250
2920		-31.250000
2921		-37.109375
2922		-33.203125
2923		-39.062500
2924		-35.156250
2925		-41.015625
2926		-37.109375
2927		-41.015625
2928		-39.062500
2929		-42.968750
2930		-39.062500
2931		-44.921875
2932		-41.015625
2933		-46.875000
2934		-42.968750
2935		-46.875000
2936		-42.968750
2937		-48.828125
2938		-44.921875
2939		-48.828125
2940		-46.875000
2941		-50.781250
2942		-46.875000
2943		-52.734375
2944		-48.828125
2945		-54.687500
2946		-50.781250
2947		-54.687500
2948		-50.781250
2949		-54.687500
2950		-52.734375
2951		-56.640625
2952		-52.734375
2953		-56.640625
2954		-52.734375
2955		-58.593750
2956		-54.687500
2957		-58.593750
2958		-56.640625
2959		-60.546875
2960		-56.640625
2961		-60.546875
2962		-56.640625
2963		-62.500000
2964		-56.640625
2965		-60.546875
2966		-58.593750
2967		-62.500000
2968		-58.593750
2969		-62.500000
2970		-58.593750
2971		-62.500000
2972		-60.546875
2973		-64.453125
2974		-60.546875
2975		-64.453125
2976		-60.546875
2977		-64.453125
2978		-60.546875
2979		-64.453125
2980		-60.546875
2981		-64.453125
2982		-62.500000
2983		-64.453125
2984		-62.500000
2985		-66.406250
2986		-62.500000
2987		-64.453125
2988		-62.500000
2989		-64.453125
2990		-62.500000
2991		-64.453125
2992		-62.500000
2993		-64.453125
2994		-62.500000
2995		-64.453125
2996		-62.500000
2997		-64.453125
2998		-60.546875
2999		-64.453125
3000		-62.500000
3001		-64.453125
3002		-60.546875
3003		-64.453125
3004		-60.546875
3005		-62.500000
3006		-60.546875
3007		-62.500000
3008		-60.546875
3009		-62.500000
3010		-58.593750
3011		-62.500000
3012		-58.593750
3013		-60.546875
3014		-58.593750
3015		-60.546875
3016		-56.640625
3017		-58.593750
3018		-56.640625
3019		-58.593750
3020		-56.640625
3021		-58.593750
3022		-54.687500
3023		-56.640625
3024		-54.687500
3025		-56.640625
3026		-52.734375
3027		-54.687500
3028		-50.781250
3029		-54.687500
3030		-50.781250
3031		-52.734375
3032		-50.781250
3033		-52.734375
3034		-48.828125
3035		-50.781250
3036		-46.875000
3037		-50.781250
3038		-46.875000
3039		-48.828125
3040		-44.921875
3041		-46.875000
3042		-44.921875
3043		-46.875000
3044		-42.968750
3045		-44.921875
3046		-41.015625
3047		-44.921875
3048		-39.062500
3049		-41.015625
3050		-39.062500
3051		-41.015625
3052		-37.109375
3053		-39.062500
3054		-35.156250
3055		-37.109375
3056		-35.156250
3057		-37.109375
3058		-33.203125
3059		-35.156250
3060		-31.250000
3061		-33.203125
3062		-29.296875
3063		-31.250000
3064		-27.343750
3065		-29.296875
3066		-25.390625
3067		-27.343750
3068		-25.390625
3069		-27.343750
3070		-21.484375
3071		-25.390625
3072		-19.531250
3073		-23.437500
3074		-19.531250
3075		-21.484375
3076		-17.578125
3077		-19.531250
3078		-15.625000
3079		-17.578125
3080		-13.671875
3081		-15.625000
3082		-11.718750
3083		-13.671875
3084		-9.765625
3085		-11.718750
3086		-7.812500
3087		-9.765625
3088		-5.859375
3089		-7.812500
3090		-3.906250
3091		-5.859375
3092		-1.953125
3093		-5.859375
3094		0.000000
3095		-3.906250
3096		1.953125
3097		-1.953125
3098		1.953125
3099		0.000000
3100		3.906250
3101		1.953125
3102		5.859375
3103		3.906250
3104		7.812500
3105		5.859375
3106		9.765625
3107		7.812500
3108		11.718750
3109		9.765625
3110		13.671875
3111		11.718750
3112		15.625000
3113		13.671875
3114		17.578125
3115		13.671875
3116		19.531250
3117		17.578125
3118		21.484375
3119		17.578125
3120		23.437500
3121		21.484375
3122		25.390625
3123		21.484375
3124		25.390625
3125		23.437500
3126		27.343750
3127		25.390625
3128		29.296875
3129		27.343750
3130		31.250000
3131		29.296875
3132		33.203125
3133		31.250000
3134		33.203125
3135		31.250000
3136		37.109375
3137		33.203125
3138		37.109375
3139		35.156250
3140		39.062500
3141		37.109375
3142		41.015625
3143		39.062500
3144		42.968750
3145		41.015625
3146		42.968750
3147		41.015625
3148		44.921875
3149		42.968750
3150		46.875000
3151		44.921875
3152		46.875000
3153		44.921875
3154		48.828125
3155		46.875000
3156		50.781250
3157		48.828125
3158		52.734375
3159		50.781250
3160		52.734375
3161		50.781250
3162		54.687500
3163		52.734375
3164		56.640625
3165		52.734375
3166		56.640625
3167		54.687500
3168		58.593750
3169		56.640625
3170		60.546875
3171		56.640625
3172		60.546875
3173		58.593750
3174		60.546875
3175		58.593750
3176		62.500000
3177		60.546875
3178		62.500000
3179		60.546875
3180		64.453125
3181		60.546875
3182		66.406250
3183		62.500000
3184		66.406250
3185		64.453125
3186		66.406250
3187		64.453125
3188		68.359375
3189		66.406250
3190		68.359375
3191		66.406250
3192		70.312500
3193		66.406250
3194		70.312500
3195		68.359375
3196		70.312500
3197		68.359375
3198		70.312500
3199		68.359375
3200		72.265625
3201		70.312500
3202		72.265625
3203		68.359375
3204		72.265625
3205		70.312500
3206		74.218750
3207		70.312500
3208		74.218750
3209		70.312500
3210		74.218750
3211		72.265625
3212		74.218750
3213		72.265625
3214		74.218750
3215		72.265625
3216		76.171875
3217		72.265625
3218		74.218750
3219		72.265625
3220		76.171875
3221		72.265625
3222		74.218750
3223		72.265625
3224		76.171875
3225		72.265625
3226		76.171875
3227		72.265625
3228		76.171875
3229		72.265625
3230		76.171875
3231		70.312500
3232		76.171875
3233		72.265625
3234		74.218750
3235		72.265625
3236		74.218750
3237		70.312500
3238		76.171875
3239		70.312500
3240		74.218750
3241		70.312500
3242		74.218750
3243		70.312500
3244		74.218750
3245		70.312500
3246		74.218750
3247		70.312500
3248		72.265625
3249		68.359375
3250		72.265625
3251		68.359375
3252		72.265625
3253		68.359375
3254		70.312500
3255		66.406250
3256		70.312500
3257		66.406250
3258		70.312500
3259		66.406250
3260		70.312500
3261		64.453125
3262		68.359375
3263		64.453125
3264		68.359375
3265		62.500000
3266		66.406250
3267		62.500000
3268		64.453125
3269		62.500000
3270		64.453125
3271		60.546875
3272		64.453125
3273		60.546875
3274		62.500000
3275		58.593750
3276		62.500000
3277		56.640625
3278		60.546875
3279		56.640625
3280		60.546875
3281		54.687500
3282		58.593750
3283		54.687500
3284		58.593750
3285		52.734375
3286		56.640625
3287		50.781250
3288		54.687500
3289		50.781250
3290		54.687500
3291		48.828125
3292		52.734375
3293		46.875000
3294		50.781250
3295		46.875000
3296		48.828125
3297		44.921875
3298		48.828125
3299		42.968750
3300		46.875000
3301		41.015625
3302		44.921875
3303		39.062500
3304		42.968750
3305		39.062500
3306		42.968750
3307		37.109375
3308		41.015625
3309		35.156250
3310		39.062500
3311		35.156250
3312		37.109375
3313		31.250000
3314		35.156250
3315		29.296875
3316		35.156250
3317		29.296875
3318		33.203125
3319		27.343750
3320		31.250000
3321		25.390625
3322		29.296875
3323		23.437500
3324		27.343750
3325		21.484375
3326		25.390625
3327		19.531250
3328		23.437500
3329		17.578125
3330		23.437500
3331		15.625000
3332		19.531250
3333		15.625000
3334		19.531250
3335		13.671875
3336		17.578125
3337		9.765625
3338		15.625000
3339		9.765625
3340		13.671875
3341		7.812500
3342		11.718750
3343		5.859375
3344		9.765625
3345		3.906250
3346		7.812500
3347		1.953125
3348		5.859375
3349		0.000000
3350		3.906250
3351		-1.953125
3352		1.953125
3353		-3.906250
3354		0.000000
3355		-5.859375
3356		-1.953125
3357		-7.812500
3358		-3.906250
3359		-9.765625
3360		-5.859375
3361		-11.718750
3362		-7.812500
3363		-11.718750
3364		-9.765625
3365		-15.625000
3366		-11.718750
3367		-15.625000
3368		-11.718750
3369		-17.578125
3370		-15.625000
3371		-19.531250
3372		-15.625000
3373		-21.484375
3374		-17.578125
3375		-23.437500
3376		-19.531250
3377		-25.390625
3378		-21.484375
3379		-27.343750
3380		-23.437500
3381		-29.296875
3382		-23.437500
3383		-31.250000
3384		-27.343750
3385		-31.250000
3386		-29.296875
3387		-33.203125
3388		-29.296875
3389		-35.156250
3390		-31.250000
3391		-37.109375
3392		-33.203125
3393		-39.062500
3394		-35.156250
3395		-39.062500
3396		-37.109375
3397		-41.015625
3398		-37.109375
3399		-42.968750
3400		-39.062500
3401		-42.968750
3402		-41.015625
3403		-44.921875
3404		-42.968750
3405		-46.875000
3406		-42.968750
3407		-48.828125
3408		-44.921875
3409		-50.781250
3410		-46.875000
3411		-50.781250
3412		-46.875000
3413		-50.781250
3414		-48.828125
3415		-52.734375
3416		-48.828125
3417		-52.734375
3418		-50.781250
3419		-54.687500
3420		-52.734375
3421		-56.640625
3422		-52.734375
3423		-56.640625
3424		-52.734375
3425		-56.640625
3426		-54.687500
3427		-58.593750
3428		-56.640625
3429		-60.546875
3430		-56.640625
3431		-60.546875
3432		-56.640625
3433		-60.546875
3434		-56.640625
3435		-60.546875
3436		-58.593750
3437		-62.500000
3438		-58.593750
3439		-62.500000
3440		-58.593750
3441		-62.500000
3442		-60.546875
3443		-64.453125
3444		-60.546875
3445		-64.453125
3446		-60.546875
3447		-64.453125
3448		-60.546875
3449		-66.406250
3450		-62.500000
3451		-66.406250
3452		-60.546875
3453		-64.453125
3454		-62.500000
3455		-64.453125
3456		-62.500000
3457		-66.406250
3458		-62.500000
3459		-66.406250
3460		-62.500000
3461		-64.453125
3462		-62.500000
3463		-66.406250
3464		-62.500000
3465		-66.406250
3466		-62.500000
3467		-64.453125
3468		-60.546875
3469		-64.453125
3470		-62.500000
3471		-64.453125
3472		-62.500000
3473		-64.453125
3474		-60.546875
3475		-64.453125
3476		-60.546875
3477		-64.453125
3478		-58.593750
3479		-62.500000
3480		-58.593750
3481		-62.500000
3482		-58.593750
3483		-62.500000
3484		-58.593750
3485		-60.546875
3486		-58.593750
3487		-60.546875
3488		-56.640625
3489		-60.546875
3490		-56.640625
3491		-58.593750
3492		-56.640625
3493		-58.593750
3494		-54.687500
3495		-56.640625
3496		-54.687500
3497		-56.640625
3498		-52.734375
3499		-54.687500
3500		-50.781250
3501		-54.687500
3502		-50.781250
3503		-52.734375
3504		-50.781250
3505		-52.734375
3506		-46.875000
3507		-50.781250
3508		-46.875000
3509		-48.828125
3510		-46.875000
3511		-48.828125
3512		-44.921875
3513		-46.875000
3514		-42.968750
3515		-44.921875
3516		-42.968750
3517		-44.921875
3518		-41.015625
3519		-42.968750
3520		-39.062500
3521		-41.015625
3522		-39.062500
3523		-41.015625
3524		-37.109375
3525		-39.062500
3526		-35.156250
3527		-37.109375
3528		-33.203125
3529		-35.156250
3530		-31.250000
3531		-33.203125
3532		-31.250000
3533		-33.203125
3534		-27.343750
3535		-31.250000
3536		-27.343750
3537		-29.296875
3538		-25.390625
3539		-27.343750
3540		-23.437500
3541		-25.390625
3542		-21.484375
3543		-25.390625
3544		-19.531250
3545		-23.437500
3546		-19.531250
3547		-21.484375
3548		-17.578125
3549		-19.531250
3550		-15.625000
3551		-17.578125
3552		-13.671875
3553		-15.625000
3554		-11.718750
3555		-13.671875
3556		-9.765625
3557		-13.671875
3558		-7.812500
3559		-9.765625
3560		-5.859375
3561		-7.812500
3562		-3.906250
3563		-5.859375
3564		-1.953125
3565		-3.906250
3566		0.000000
3567		-1.953125
3568		1.953125
3569		0.000000
3570		1.953125
3571		1.953125
3572		5.859375
3573		1.953125
3574		5.859375
3575		3.906250
3576		7.812500
3577		5.859375
3578		11.718750
3579		7.812500
3580		11.718750
3581		9.765625
3582		13.671875
3583		11.718750
3584		15.625000
3585		13.671875
3586		17.578125
3587		15.625000
3588		19.531250
3589		17.578125
3590		21.484375
3591		19.531250
3592		23.437500
3593		21.484375
3594		25.390625
3595		21.484375
3596		25.390625
3597		23.437500
3598		27.343750
3599		25.390625
3600		29.296875
3601		27.343750
3602		31.250000
3603		29.296875
3604		33.203125
3605		31.250000
3606		35.156250
3607		31.250000
3608		37.109375
3609		35.156250
3610		37.109375
3611		35.156250
3612		39.062500
3613		37.109375
3614		41.015625
3615		39.062500
3616		41.015625
3617		39.062500
3618		44.921875
3619		41.015625
3620		44.921875
3621		42.968750
3622		46.875000
3623		44.921875
3624		48.828125
3625		46.875000
3626		48.828125
3627		46.875000
3628		50.781250
3629		48.828125
3630		52.734375
3631		50.781250
3632		52.734375
3633		50.781250
3634		54.687500
3635		50.781250
3636		56.640625
3637		54.687500
3638		56.640625
3639		54.687500
3640		58.593750
3641		56.640625
3642		58.593750
3643		56.640625
3644		60.546875
3645		58.593750
3646		60.546875
3647		58.593750
3648		62.500000
3649		60.546875
3650		62.500000
3651		60.546875
3652		64.453125
3653		62.500000
3654		64.453125
3655		62.500000
3656		66.406250
3657		64.453125
3658		66.406250
3659		64.453125
3660		68.359375
3661		66.406250
3662		68.359375
3663		66.406250
3664		68.359375
3665		66.406250
3666		70.312500
3667		66.406250
3668		70.312500
3669		66.406250
3670		70.312500
3671		68.359375
3672		70.312500
3673		68.359375
3674		72.265625
3675		68.359375
3676		72.265625
3677		70.312500
3678		72.265625
3679		70.312500
3680		72.265625
3681		70.312500
3682		74.218750
3683		70.312500
3684		74.218750
3685		70.312500
3686		74.218750
3687		72.265625
3688		74.218750
3689		72.265625
3690		74.218750
3691		70.312500
3692		76.171875
3693		72.265625
3694		74.218750
3695		72.265625
3696		74.218750
3697		72.265625
3698		74.218750
3699		72.265625
3700		74.218750
3701		72.265625
3702		74.218750
3703		70.312500
3704		74.218750
3705		72.265625
3706		74.218750
3707		70.312500
3708		74.218750
3709		70.312500
3710		74.218750
3711		70.312500
3712		74.218750
3713		70.312500
3714		74.218750
3715		70.312500
3716		72.265625
3717		68.359375
3718		72.265625
3719		68.359375
3720		72.265625
3721		68.359375
3722		70.312500
3723		68.359375
3724		70.312500
3725		66.406250
3726		70.312500
3727		66.406250
3728		70.312500
3729		66.406250
3730		68.359375
3731		64.453125
3732		68.359375
3733		64.453125
3734		66.406250
3735		64.453125
3736		66.406250
3737		62.500000
3738		66.406250
3739		62.500000
3740		64.453125
3741		60.546875
3742		64.453125
3743		58.593750
3744		62.500000
3745		58.593750
3746		62.500000
3747		58.593750
3748		62.500000
3749		56.640625
3750		60.546875
3751		54.687500
3752		58.593750
3753		54.687500
3754		58.593750
3755		52.734375
3756		56.640625
3757		50.781250
3758		56.640625
3759		50.781250
3760		54.687500
3761		48.828125
3762		52.734375
3763		48.828125
3764		50.781250
3765		46.875000
3766		48.828125
3767		44.921875
3768		48.828125
3769		42.968750
3770		46.875000
3771		42.968750
3772		44.921875
3773		41.015625
3774		44.921875
3775		39.062500
3776		42.968750
3777		37.109375
3778		41.015625
3779		37.109375
3780		41.015625
3781		35.156250
3782		37.109375
3783		33.203125
3784		37.109375
3785		31.250000
3786		35.156250
3787		29.296875
3788		33.203125
3789		27.343750
3790		31.250000
3791		25.390625
3792		29.296875
3793		23.437500
3794		29.296875
3795		23.437500
3796		27.343750
3797		21.484375
3798		25.390625
3799		19.531250
3800		23.437500
3801		17.578125
3802		21.484375
3803		15.625000
3804		19.531250
3805		13.671875
3806		17.578125
3807		11.718750
3808		15.625000
3809		9.765625
3810		13.671875
3811		7.812500
3812		11.718750
3813		5.859375
3814		9.765625
3815		3.906250
3816		9.765625
3817		1.953125
3818		5.859375
3819		0.000000
3820		5.859375
3821		-1.953125
3822		3.906250
3823		-1.953125
3824		0.000000
3825		-5.859375
3826		-1.953125
3827		-5.859375
3828		-1.953125
3829		-7.812500
3830		-5.859375
3831		-9.765625
3832		-5.859375
3833		-11.718750
3834		-7.812500
3835		-13.671875
3836		-9.765625
3837		-15.625000
3838		-11.718750
3839		-17.578125
3840		-13.671875
3841		-19.531250
3842		-15.625000
3843		-21.484375
3844		-17.578125
3845		-23.437500
3846		-19.531250
3847		-25.390625
3848		-21.484375
3849		-25.390625
3850		-23.437500
3851		-27.343750
3852		-23.437500
3853		-31.250000
3854		-25.390625
3855		-31.250000
3856		-27.343750
3857		-33.203125
3858		-29.296875
3859		-35.156250
3860		-31.250000
3861		-35.156250
3862		-33.203125
3863		-37.109375
3864		-33.203125
3865		-39.062500
3866		-37.109375
3867		-41.015625
3868		-37.109375
3869		-42.968750
3870		-39.062500
3871		-44.921875
3872		-39.062500
3873		-44.921875
3874		-41.015625
3875		-46.875000
3876		-42.968750
3877		-48.828125
3878		-44.921875
3879		-48.828125
3880		-44.921875
3881		-50.781250
3882		-46.875000
3883		-50.781250
3884		-46.875000
3885		-52.734375
3886		-48.828125
3887		-54.687500
3888		-50.781250
3889		-54.687500
3890		-52.734375
3891		-54.687500
3892		-52.734375
3893		-56.640625
3894		-52.734375
3895		-58.593750
3896		-54.687500
3897		-58.593750
3898		-54.687500
3899		-60.546875
3900		-56.640625
3901		-60.546875
3902		-56.640625
3903		-60.546875
3904		-56.640625
3905		-60.546875
3906		-58.593750
3907		-62.500000
3908		-58.593750
3909		-64.453125
3910		-58.593750
3911		-64.453125
3912		-60.546875
3913		-64.453125
3914		-60.546875
3915		-64.453125
3916		-60.546875
3917		-64.453125
3918		-62.500000
3919		-64.453125
3920		-62.500000
3921		-66.406250
3922		-62.500000
3923		-64.453125
3924		-62.500000
3925		-66.406250
3926		-62.500000
3927		-66.406250
3928		-62.500000
3929		-66.406250
3930		-62.500000
3931		-66.406250
3932		-62.500000
3933		-66.406250
3934		-62.500000
3935		-66.406250
3936		-62.500000
3937		-66.406250
3938		-62.500000
3939		-64.453125
3940		-62.500000
3941		-64.453125
3942		-62.500000
3943		-64.453125
3944		-62.500000
3945		-64.453125
3946		-60.546875
3947		-64.453125
3948		-60.546875
3949		-64.453125
3950		-60.546875
3951		-62.500000
3952		-60.546875
3953		-62.500000
3954		-58.593750
3955		-62.500000
3956		-58.593750
3957		-60.546875
3958		-58.593750
3959		-62.500000
3960		-56.640625
3961		-60.546875
3962		-56.640625
3963		-58.593750
3964		-56.640625
3965		-58.593750
3966		-54.687500
3967		-58.593750
3968		-52.734375
3969		-56.640625
3970		-52.734375
3971		-56.640625
3972		-52.734375
3973		-54.687500
3974		-50.781250
3975		-52.734375
3976		-50.781250
3977		-52.734375
3978		-48.828125
3979		-50.781250
3980		-46.875000
3981		-50.781250
3982		-46.875000
3983		-48.828125
3984		-44.921875
3985		-46.875000
3986		-44.921875
3987		-44.921875
3988		-42.968750
3989		-44.921875
3990		-41.015625
3991		-42.968750
3992		-39.062500
3993		-42.968750
3994		-37.109375
3995		-41.015625
3996		-37.109375
3997		-39.062500
3998		-35.156250
3999		-37.109375
4000		-33.203125
4001		-35.156250
4002		-33.203125
4003		-35.156250
4004		-31.250000
4005		-33.203125
4006		-29.296875
4007		-31.250000
4008		-27.343750
4009		-29.296875
4010		-25.390625
4011		-27.343750
4012		-23.437500
4013		-25.390625
4014		-21.484375
4015		-25.390625
4016		-21.484375
4017		-23.437500
4018		-17.578125
4019		-21.484375
4020		-15.625000
4021		-19.531250
4022		-15.625000
4023		-17.578125
4024		-13.671875
4025		-15.625000
4026		-11.718750
4027		-13.671875
4028		-9.765625
4029		-11.718750
4030		-7.812500
4031		-9.765625
4032		-5.859375
4033		-7.812500
4034		-3.906250
4035		-5.859375
4036		-1.953125
4037		-3.906250
4038		0.000000
4039		-1.953125
4040		1.953125
4041		0.000000
4042		3.906250
4043		1.953125
4044		5.859375
4045		1.953125
4046		5.859375
4047		3.906250
4048		9.765625
4049		5.859375
4050		9.765625
4051		7.812500
4052		13.671875
4053		9.765625
4054		13.671875
4055		11.718750
4056		15.625000
4057		13.671875
4058		17.578125
4059		15.625000
4060		19.531250
4061		15.625000
4062		21.484375
4063		19.531250
4064		23.437500
4065		21.484375
4066		25.390625
4067		23.437500
4068		27.343750
4069		25.390625
4070		27.343750
4071		25.390625
4072		29.296875
4073		25.390625
4074		31.250000
4075		29.296875
4076		33.203125
4077		31.250000
4078		35.156250
4079		33.203125
4080		37.109375
4081		35.156250
4082		39.062500
4083		35.156250
4084		39.062500
4085		37.109375
4086		41.015625
4087		39.062500
4088		42.968750
4089		41.015625
4090		44.921875
4091		42.968750
4092		44.921875
4093		42.968750
4094		46.875000
4095		44.921875
4096		48.828125
4097		44.921875
4098		48.828125
4099		46.875000
4100		50.781250
4101		48.828125
4102		52.734375
4103		48.828125
4104		52.734375
4105		50.781250
4106		54.687500
4107		52.734375
4108		56.640625
4109		54.687500
4110		56.640625
4111		54.687500
4112		58.593750
4113		54.687500
4114		58.593750
4115		56.640625
4116		60.546875
4117		58.593750
4118		62.500000
4119		58.593750
4120		62.500000
4121		60.546875
4122		62.500000
4123		60.546875
4124		64.453125
4125		62.500000
4126		64.453125
4127		62.500000
4128		66.406250
4129		62.500000
4130		66.406250
4131		64.453125
4132		68.359375
4133		66.406250
4134		68.359375
4135		66.406250
4136		68.359375
4137		66.406250
4138		70.312500
4139		66.406250
4140		70.312500
4141		68.359375
4142		70.312500
4143		68.359375
4144		70.312500
4145		68.359375
4146		72.265625
4147		68.359375
4148		72.265625
4149		70.312500
4150		72.265625
4151		70.312500
4152		72.265625
4153		70.312500
4154		72.265625
4155		70.312500
4156		74.218750
4157		70.312500
4158		74.218750
4159		70.312500
4160		74.218750
4161		70.312500
4162		74.218750
4163		70.312500
4164		74.218750
4165		72.265625
4166		74.218750
4167		72.265625
4168		74.218750
4169		72.265625
4170		74.218750
4171		70.312500
4172		74.218750
4173		72.265625
4174		74.218750
4175		72.265625
4176		74.218750
4177		72.265625
4178		74.218750
4179		70.312500
4180		74.218750
4181		70.312500
4182		74.218750
4183		70.312500
4184		72.265625
4185		70.312500
4186		72.265625
4187		68.359375
4188		72.265625
4189		68.359375
4190		72.265625
4191		68.359375
4192		70.312500
4193		68.359375
4194		70.312500
4195		66.406250
4196		70.312500
4197		66.406250
4198		70.312500
4199		66.406250
4200		68.359375
4201		64.453125
4202		68.359375
4203		64.453125
4204		68.359375
4205		64.453125
4206		66.406250
4207		62.500000
4208		66.406250
4209		62.500000
4210		64.453125
4211		60.546875
4212		64.453125
4213		60.546875
4214		62.500000
4215		58.593750
4216		62.500000
4217		58.593750
4218		62.500000
4219		56.640625
4220		60.546875
4221		56.640625
4222		58.593750
4223		54.687500
4224		58.593750
4225		54.687500
4226		56.640625
4227		52.734375
4228		56.640625
4229		50.781250
4230		54.687500
4231		48.828125
4232		52.734375
4233		48.828125
4234		52.734375
4235		46.875000
4236		50.781250
4237		46.875000
4238		48.828125
4239		44.921875
4240		48.828125
4241		42.968750
4242		46.875000
4243		41.015625
4244		44.921875
4245		39.062500
4246		44.921875
4247		39.062500
4248		42.968750
4249		37.109375
4250		41.015625
4251		35.156250
4252		39.062500
4253		33.203125
4254		37.109375
4255		31.250000
4256		37.109375
4257		31.250000
4258		35.156250
4259		29.296875
4260		33.203125
4261		27.343750
4262		31.250000
4263		25.390625
4264		31.250000
4265		23.437500
4266		27.343750
4267		21.484375
4268		25.390625
4269		21.484375
4270		23.437500
4271		17.578125
4272		21.484375
4273		15.625000
4274		21.484375
4275		15.625000
4276		19.531250
4277		13.671875
4278		17.578125
4279		11.718750
4280		15.625000
4281		9.765625
4282		13.671875
4283		7.812500
4284		11.718750
4285		5.859375
4286		9.765625
4287		3.906250
4288		7.812500
4289		1.953125
4290		5.859375
4291		0.000000
4292		3.906250
4293		-1.953125
4294		1.953125
4295		-3.906250
4296		0.000000
4297		-5.859375
4298		-1.953125
4299		-7.812500
4300		-3.906250
4301		-9.765625
4302		-5.859375
4303		-11.718750
4304		-5.859375
4305		-13.671875
4306		-9.765625
4307		-15.625000
4308		-9.765625
4309		-15.625000
4310		-11.718750
4311		-17.578125
4312		-13.671875
4313		-19.531250
4314		-15.625000
4315		-21.484375
4316		-17.578125
4317		-23.437500
4318		-19.531250
4319		-25.390625
4320		-21.484375
4321		-27.343750
4322		-23.437500
4323		-29.296875
4324		-25.390625
4325		-29.296875
4326		-25.390625
4327		-31.250000
4328		-27.343750
4329		-33.203125
4330		-29.296875
4331		-35.156250
4332		-31.250000
4333		-37.109375
4334		-33.203125
4335		-37.109375
4336		-35.156250
4337		-39.062500
4338		-35.156250
4339		-41.015625
4340		-37.109375
4341		-42.968750
4342		-39.062500
4343		-42.968750
4344		-41.015625
4345		-44.921875
4346		-42.968750
4347		-46.875000
4348		-42.968750
4349		-48.828125
4350		-44.921875
4351		-48.828125
4352		-44.921875
4353		-50.781250
4354		-46.875000
4355		-52.734375
4356		-48.828125
4357		-52.734375
4358		-48.828125
4359		-54.687500
4360		-50.781250
4361		-54.687500
4362		-52.734375
4363		-56.640625
4364		-52.734375
4365		-56.640625
4366		-52.734375
4367		-58.593750
4368		-54.687500
4369		-60.546875
4370		-54.687500
4371		-60.546875
4372		-56.640625
4373		-60.546875
4374		-56.640625
4375		-60.546875
4376		-58.593750
4377		-62.500000
4378		-58.593750
4379		-62.500000
4380		-58.593750
4381		-64.453125
4382		-58.593750
4383		-64.453125
4384		-60.546875
4385		-64.453125
4386		-60.546875
4387		-64.453125
4388		-60.546875
4389		-64.453125
4390		-60.546875
4391		-64.453125
4392		-60.546875
4393		-64.453125
4394		-62.500000
4395		-64.453125
4396		-62.500000
4397		-66.406250
4398		-62.500000
4399		-66.406250
4400		-62.500000
4401		-66.406250
4402		-62.500000
4403		-66.406250
4404		-62.500000
4405		-66.406250
4406		-62.500000
4407		-66.406250
4408		-62.500000
4409		-66.406250
4410		-62.500000
4411		-64.453125
4412		-62.500000
4413		-64.453125
4414		-60.546875
4415		-64.453125
4416		-60.546875
4417		-64.453125
4418		-60.546875
4419		-64.453125
4420		-58.593750
4421		-64.453125
4422		-58.593750
4423		-64.453125
4424		-58.593750
4425		-62.500000
4426		-58.593750
4427		-60.546875
4428		-58.593750
4429		-60.546875
4430		-58.593750
4431		-60.546875
4432		-56.640625
4433		-60.546875
4434		-54.687500
4435		-58.593750
4436		-54.687500
4437		-58.593750
4438		-52.734375
4439		-58.593750
4440		-52.734375
4441		-56.640625
4442		-50.781250
4443		-54.687500
4444		-50.781250
4445		-54.687500
4446		-50.781250
4447		-52.734375
4448		-48.828125
4449		-52.734375
4450		-46.875000
4451		-50.781250
4452		-46.875000
4453		-50.781250
4454		-44.921875
4455		-48.828125
4456		-42.968750
4457		-46.875000
4458		-42.968750
4459		-46.875000
4460		-41.015625
4461		-42.968750
4462		-41.015625
4463		-42.968750
4464		-37.109375
4465		-41.015625
4466		-37.109375
4467		-41.015625
4468		-35.156250
4469		-39.062500
4470		-33.203125
4471		-37.109375
4472		-31.250000
4473		-35.156250
4474		-31.250000
4475		-33.203125
4476		-29.296875
4477		-31.250000
4478		-27.343750
4479		-29.296875
4480		-27.343750
4481		-29.296875
4482		-25.390625
4483		-27.343750
4484		-23.437500
4485		-25.390625
4486		-21.484375
4487		-23.437500
4488		-19.531250
4489		-21.484375
4490		-17.578125
4491		-19.531250
4492		-15.625000
4493		-17.578125
4494		-13.671875
4495		-15.625000
4496		-13.671875
4497		-13.671875
4498		-9.765625
4499		-11.718750
4500		-9.765625
4501		-11.718750
4502		-7.812500
4503		-9.765625
4504		-5.859375
4505		-7.812500
4506		-3.906250
4507		-5.859375
4508		-1.953125
4509		-3.906250
4510		0.000000
4511		-1.953125
4512		1.953125
4513		0.000000
4514		3.906250
4515		1.953125
4516		5.859375
4517		3.906250
4518		7.812500
4519		5.859375
4520		9.765625
4521		7.812500
4522		11.718750
4523		9.765625
4524		11.718750
4525		11.718750
4526		15.625000
4527		13.671875
4528		17.578125
4529		15.625000
4530		17.578125
4531		15.625000
4532		19.531250
4533		17.578125
4534		21.484375
4535		19.531250
4536		23.437500
4537		21.484375
4538		25.390625
4539		23.437500
4540		27.343750
4541		25.390625
4542		29.296875
4543		27.343750
4544		29.296875
4545		29.296875
4546		31.250000
4547		31.250000
4548		33.203125
4549		31.250000
4550		35.156250
4551		33.203125
4552		37.109375
4553		35.156250
4554		39.062500
4555		37.109375
4556		41.015625
4557		39.062500
4558		41.015625
4559		39.062500
4560		42.968750
4561		41.015625
4562		44.921875
4563		42.968750
4564		46.875000
4565		44.921875
4566		46.875000
4567		44.921875
4568		48.828125
4569		46.875000
4570		48.828125
4571		48.828125
4572		50.781250
4573		48.828125
4574		52.734375
4575		50.781250
4576		52.734375
4577		52.734375
4578		54.687500
4579		52.734375
4580		56.640625
4581		52.734375
4582		60.546875
4583		52.734375
4584		62.500000
4585		54.687500
4586		62.500000
4587		54.687500
4588		62.500000
4589		58.593750
4590		62.500000
4591		60.546875
4592		62.500000
4593		60.546875
4594		62.500000
4595		60.546875
4596		64.453125
4597		62.500000
4598		64.453125
4599		60.546875
4600		68.359375
4601		60.546875
4602		68.359375
4603		62.500000
4604		70.312500
4605		66.406250
4606		68.359375
4607		66.406250
4608		68.359375
4609		66.406250
4610		70.312500
4611		68.359375
4612		70.312500
4613		68.359375
4614		70.312500
4615		66.406250
4616		74.218750
4617		66.406250
4618		74.218750
4619		66.406250
4620		76.171875
4621		70.312500
4622		72.265625
4623		70.312500
4624		72.265625
4625		70.312500
4626		74.218750
4627		70.312500
4628		74.218750
4629		72.265625
4630		74.218750
4631		68.359375
4632		76.171875
4633		68.359375
4634		78.125000
4635		68.359375
4636		78.125000
4637		68.359375
4638		78.125000
4639		72.265625
4640		74.218750
4641		72.265625
4642		74.218750
4643		72.265625
4644		74.218750
4645		72.265625
4646		74.218750
4647		72.265625
4648		74.218750
4649		68.359375
4650		76.171875
4651		68.359375
4652		76.171875
4653		68.359375
4654		76.171875
4655		70.312500
4656		72.265625
4657		70.312500
4658		72.265625
4659		70.312500
4660		72.265625
4661		68.359375
4662		72.265625
4663		68.359375
4664		70.312500
4665		64.453125
4666		74.218750
4667		64.453125
4668		74.218750
4669		64.453125
4670		72.265625
4671		64.453125
4672		72.265625
4673		64.453125
4674		68.359375
4675		64.453125
4676		68.359375
4677		64.453125
4678		66.406250
4679		62.500000
4680		66.406250
4681		62.500000
4682		64.453125
4683		58.593750
4684		68.359375
4685		56.640625
4686		66.406250
4687		56.640625
4688		64.453125
4689		58.593750
4690		60.546875
4691		56.640625
4692		60.546875
4693		56.640625
4694		58.593750
4695		54.687500
4696		58.593750
4697		52.734375
4698		56.640625
4699		48.828125
4700		58.593750
4701		48.828125
4702		58.593750
4703		46.875000
4704		56.640625
4705		48.828125
4706		50.781250
4707		46.875000
4708		50.781250
4709		46.875000
4710		48.828125
4711		44.921875
4712		46.875000
4713		42.968750
4714		46.875000
4715		37.109375
4716		44.921875
4717		37.109375
4718		46.875000
4719		35.156250
4720		44.921875
4721		35.156250
4722		42.968750
4723		35.156250
4724		39.062500
4725		33.203125
4726		37.109375
4727		31.250000
4728		35.156250
4729		31.250000
4730		33.203125
4731		29.296875
4732		33.203125
4733		23.437500
4734		33.203125
4735		21.484375
4736		31.250000
4737		21.484375
4738		29.296875
4739		21.484375
4740		25.390625
4741		19.531250
4742		23.437500
4743		17.578125
4744		21.484375
4745		15.625000
4746		19.531250
4747		13.671875
4748		17.578125
4749		9.765625
4750		17.578125
4751		7.812500
4752		17.578125
4753		5.859375
4754		15.625000
4755		5.859375
4756		13.671875
4757		5.859375
4758		7.812500
4759		3.906250
4760		7.812500
4761		1.953125
4762		5.859375
4763		0.000000
4764		3.906250
4765		-1.953125
4766		1.953125
4767		-3.906250
4768		0.000000
4769		-7.812500
4770		0.000000
4771		-9.765625
4772		-1.953125
4773		-9.765625
4774		-5.859375
4775		-11.718750
4776		-7.812500
4777		-13.671875
4778		-9.765625
4779		-15.625000
4780		-11.718750
4781		-17.578125
4782		-13.671875
4783		-19.531250
4784		-15.625000
4785		-23.437500
4786		-15.625000
4787		-23.437500
4788		-17.578125
4789		-23.437500
4790		-21.484375
4791		-25.390625
4792		-23.437500
4793		-27.343750
4794		-23.437500
4795		-29.296875
4796		-25.390625
4797		-31.250000
4798		-27.343750
4799		-33.203125
4800		-29.296875
4801		-35.156250
4802		-29.296875
4803		-37.109375
4804		-31.250000
4805		-37.109375
4806		-33.203125
4807		-39.062500
4808		-35.156250
4809		-41.015625
4810		-37.109375
4811		-42.968750
4812		-39.062500
4813		-42.968750
4814		-41.015625
4815		-44.921875
4816		-41.015625
4817		-46.875000
4818		-42.968750
4819		-46.875000
4820		-44.921875
4821		-48.828125
4822		-44.921875
4823		-50.781250
4824		-46.875000
4825		-50.781250
4826		-48.828125
4827		-52.734375
4828		-48.828125
4829		-52.734375
4830		-50.781250
4831		-54.687500
4832		-50.781250
4833		-56.640625
4834		-52.734375
4835		-56.640625
4836		-52.734375
4837		-56.640625
4838		-54.687500
4839		-58.593750
4840		-56.640625
4841		-58.593750
4842		-56.640625
4843		-60.546875
4844		-56.640625
4845		-60.546875
4846		-58.593750
4847		-60.546875
4848		-58.593750
4849		-62.500000
4850		-58.593750
4851		-62.500000
4852		-60.546875
4853		-62.500000
4854		-60.546875
4855		-64.453125
4856		-60.546875
4857		-64.453125
4858		-62.500000
4859		-64.453125
4860		-62.500000
4861		-64.453125
4862		-62.500000
4863		-64.453125
4864		-62.500000
4865		-64.453125
4866		-62.500000
4867		-66.406250
4868		-62.500000
4869		-66.406250
4870		-62.500000
4871		-66.406250
4872		-64.453125
4873		-66.406250
4874		-62.500000
4875		-66.406250
4876		-62.500000
4877		-66.406250
4878		-62.500000
4879		-66.406250
4880		-62.500000
4881		-66.406250
4882		-62.500000
4883		-66.406250
4884		-60.546875
4885		-66.406250
4886		-62.500000
4887		-64.453125
4888		-62.500000
4889		-64.453125
4890		-62.500000
4891		-64.453125
4892		-60.546875
4893		-64.453125
4894		-60.546875
4895		-62.500000
4896		-60.546875
4897		-62.500000
4898		-60.546875
4899		-60.546875
4900		-58.593750
4901		-62.500000
4902		-58.593750
4903		-60.546875
4904		-56.640625
4905		-58.593750
4906		-56.640625
4907		-58.593750
4908		-54.687500
4909		-58.593750
4910		-54.687500
4911		-56.640625
4912		-52.734375
4913		-56.640625
4914		-52.734375
4915		-54.687500
4916		-52.734375
4917		-54.687500
4918		-48.828125
4919		-52.734375
4920		-48.828125
4921		-50.781250
4922		-48.828125
4923		-50.781250
4924		-46.875000
4925		-48.828125
4926		-44.921875
4927		-48.828125
4928		-44.921875
4929		-46.875000
4930		-42.968750
4931		-44.921875
4932		-41.015625
4933		-42.968750
4934		-41.015625
4935		-42.968750
4936		-39.062500
4937		-41.015625
4938		-37.109375
4939		-39.062500
4940		-35.156250
4941		-37.109375
4942		-35.156250
4943		-37.109375
4944		-33.203125
4945		-35.156250
4946		-31.250000
4947		-33.203125
4948		-29.296875
4949		-31.250000
4950		-27.343750
4951		-31.250000
4952		-23.437500
4953		-29.296875
4954		-25.390625
4955		-27.343750
4956		-23.437500
4957		-25.390625
4958		-21.484375
4959		-23.437500
4960		-19.531250
4961		-21.484375
4962		-17.578125
4963		-19.531250
4964		-15.625000
4965		-17.578125
4966		-13.671875
4967		-17.578125
4968		-11.718750
4969		-15.625000
4970		-9.765625
4971		-13.671875
4972		-9.765625
4973		-11.718750
4974		-7.812500
4975		-9.765625
4976		-3.906250
4977		-7.812500
4978		-3.906250
4979		-5.859375
4980		-1.953125
4981		-3.906250
4982		0.000000
4983		-1.953125
4984		1.953125
4985		0.000000
4986		3.906250
4987		1.953125
4988		5.859375
4989		3.906250
4990		7.812500
4991		5.859375
4992		9.765625
4993		7.812500
4994		11.718750
4995		9.765625
4996		13.671875
4997		11.718750
4998		13.671875
4999		13.671875
5000		15.625000
5001		13.671875
5002		19.531250
5003		15.625000
5004		21.484375
5005		17.578125
5006		21.484375
5007		19.531250
5008		23.437500
5009		21.484375
5010		25.390625
5011		23.437500
5012		27.343750
5013		25.390625
5014		29.296875
5015		27.343750
5016		31.250000
5017		29.296875
5018		33.203125
5019		29.296875
5020		35.156250
5021		31.250000
5022		35.156250
5023		33.203125
5024		37.109375
5025		35.156250
5026		39.062500
5027		35.156250
5028		41.015625
5029		39.062500
5030		41.015625
5031		39.062500
5032		42.968750
5033		41.015625
5034		44.921875
5035		41.015625
5036		46.875000
5037		44.921875
5038		46.875000
5039		44.921875
5040		48.828125
5041		46.875000
5042		50.781250
5043		46.875000
5044		50.781250
5045		48.828125
5046		52.734375
5047		50.781250
5048		54.687500
5049		52.734375
5050		54.687500
5051		52.734375
5052		56.640625
5053		54.687500
5054		56.640625
5055		56.640625
5056		58.593750
5057		56.640625
5058		60.546875
5059		58.593750
5060		60.546875
5061		58.593750
5062		60.546875
5063		60.546875
5064		62.500000
5065		60.546875
5066		62.500000
5067		60.546875
5068		64.453125
5069		62.500000
5070		64.453125
5071		62.500000
5072		66.406250
5073		64.453125
5074		66.406250
5075		64.453125
5076		68.359375
5077		64.453125
5078		68.359375
5079		66.406250
5080		68.359375
5081		66.406250
5082		70.312500
5083		68.359375
5084		70.312500
5085		68.359375
5086		70.312500
5087		68.359375
5088		70.312500
5089		68.359375
5090		72.265625
5091		68.359375
5092		72.265625
5093		70.312500
5094		72.265625
5095		70.312500
5096		72.265625
5097		70.312500
5098		74.218750
5099		70.312500
5100		74.218750
5101		70.312500
5102		74.218750
5103		72.265625
5104		74.218750
5105		72.265625
5106		74.218750
5107		72.265625
5108		74.218750
5109		72.265625
5110		74.218750
5111		70.312500
5112		74.218750
5113		72.265625
5114		74.218750
5115		72.265625
5116		74.218750
5117		72.265625
5118		74.218750
5119		70.312500
5120		72.265625
5121		70.312500
5122		72.265625
5123		70.312500
5124		72.265625
5125		70.312500
5126		72.265625
5127		70.312500
5128		72.265625
5129		70.312500
5130		72.265625
5131		68.359375
5132		72.265625
5133		68.359375
5134		70.312500
5135		68.359375
5136		70.312500
5137		68.359375
5138		70.312500
5139		66.406250
5140		68.359375
5141		66.406250
5142		68.359375
5143		64.453125
5144		68.359375
5145		64.453125
5146		66.406250
5147		64.453125
5148		66.406250
5149		62.500000
5150		66.406250
5151		62.500000
5152		64.453125
5153		60.546875
5154		64.453125
5155		60.546875
5156		62.500000
5157		58.593750
5158		62.500000
5159		58.593750
5160		60.546875
5161		56.640625
5162		60.546875
5163		56.640625
5164		58.593750
5165		54.687500
5166		58.593750
5167		54.687500
5168		56.640625
5169		50.781250
5170		54.687500
5171		50.781250
5172		54.687500
5173		50.781250
5174		52.734375
5175		48.828125
5176		52.734375
5177		48.828125
5178		50.781250
5179		46.875000
5180		48.828125
5181		44.921875
5182		46.875000
5183		42.968750
5184		46.875000
5185		41.015625
5186		44.921875
5187		39.062500
5188		44.921875
5189		39.062500
5190		41.015625
5191		37.109375
5192		41.015625
5193		35.156250
5194		39.062500
5195		33.203125
5196		37.109375
5197		33.203125
5198		35.156250
5199		31.250000
5200		33.203125
5201		29.296875
5202		33.203125
5203		25.390625
5204		31.250000
5205		25.390625
5206		29.296875
5207		23.437500
5208		27.343750
5209		21.484375
5210		25.390625
5211		21.484375
5212		23.437500
5213		17.578125
5214		21.484375
5215		17.578125
5216		19.531250
5217		15.625000
5218		19.531250
5219		13.671875
5220		17.578125
5221		9.765625
5222		17.578125
5223		9.765625
5224		15.625000
5225		7.812500
5226		11.718750
5227		5.859375
5228		9.765625
5229		3.906250
5230		7.812500
5231		1.953125
5232		5.859375
5233		0.000000
5234		3.906250
5235		-1.953125
5236		1.953125
5237		-3.906250
5238		1.953125
5239		-5.859375
5240		0.000000
5241		-7.812500
5242		-3.906250
5243		-7.812500
5244		-5.859375
5245		-9.765625
5246		-7.812500
5247		-11.718750
5248		-9.765625
5249		-13.671875
5250		-11.718750
5251		-15.625000
5252		-13.671875
5253		-19.531250
5254		-13.671875
5255		-21.484375
5256		-15.625000
5257		-21.484375
5258		-15.625000
5259		-23.437500
5260		-19.531250
5261		-25.390625
5262		-21.484375
5263		-27.343750
5264		-23.437500
5265		-29.296875
5266		-25.390625
5267		-29.296875
5268		-27.343750
5269		-31.250000
5270		-29.296875
5271		-35.156250
5272		-29.296875
5273		-37.109375
5274		-31.250000
5275		-37.109375
5276		-33.203125
5277		-39.062500
5278		-35.156250
5279		-39.062500
5280		-37.109375
5281		-41.015625
5282		-39.062500
5283		-42.968750
5284		-39.062500
5285		-44.921875
5286		-41.015625
5287		-46.875000
5288		-41.015625
5289		-48.828125
5290		-42.968750
5291		-48.828125
5292		-44.921875
5293		-48.828125
5294		-46.875000
5295		-50.781250
5296		-48.828125
5297		-52.734375
5298		-48.828125
5299		-52.734375
5300		-50.781250
5301		-54.687500
5302		-50.781250
5303		-54.687500
5304		-52.734375
5305		-58.593750
5306		-52.734375
5307		-58.593750
5308		-52.734375
5309		-58.593750
5310		-56.640625
5311		-58.593750
5312		-56.640625
5313		-60.546875
5314		-56.640625
5315		-60.546875
5316		-58.593750
5317		-62.500000
5318		-58.593750
5319		-62.500000
5320		-60.546875
5321		-64.453125
5322		-58.593750
5323		-64.453125
5324		-58.593750
5325		-64.453125
5326		-62.500000
5327		-64.453125
5328		-62.500000
5329		-64.453125
5330		-62.500000
5331		-64.453125
5332		-62.500000
5333		-66.406250
5334		-62.500000
5335		-66.406250
5336		-64.453125
5337		-68.359375
5338		-62.500000
5339		-68.359375
5340		-62.500000
5341		-68.359375
5342		-62.500000
5343		-66.406250
5344		-64.453125
5345		-66.406250
5346		-64.453125
5347		-66.406250
5348		-64.453125
5349		-66.406250
5350		-64.453125
5351		-66.406250
5352		-64.453125
5353		-66.406250
5354		-64.453125
5355		-68.359375
5356		-62.500000
5357		-66.406250
5358		-62.500000
5359		-64.453125
5360		-62.500000
5361		-64.453125
5362		-62.500000
5363		-64.453125
5364		-62.500000
5365		-64.453125
5366		-62.500000
5367		-64.453125
5368		-60.546875
5369		-62.500000
5370		-60.546875
5371		-62.500000
5372		-58.593750
5373		-62.500000
5374		-56.640625
5375		-60.546875
5376		-58.593750
5377		-60.546875
5378		-56.640625
5379		-58.593750
5380		-56.640625
5381		-58.593750
5382		-54.687500
5383		-56.640625
5384		-54.687500
5385		-56.640625
5386		-52.734375
5387		-54.687500
5388		-52.734375
5389		-54.687500
5390		-50.781250
5391		-52.734375
5392		-50.781250
5393		-52.734375
5394		-48.828125
5395		-50.781250
5396		-46.875000
5397		-48.828125
5398		-46.875000
5399		-48.828125
5400		-44.921875
5401		-46.875000
5402		-42.968750
5403		-44.921875
5404		-42.968750
5405		-44.921875
5406		-39.062500
5407		-42.968750
5408		-39.062500
5409		-41.015625
5410		-37.109375
5411		-39.062500
5412		-37.109375
5413		-37.109375
5414		-35.156250
5415		-37.109375
5416		-33.203125
5417		-35.156250
5418		-31.250000
5419		-33.203125
5420		-29.296875
5421		-31.250000
5422		-27.343750
5423		-31.250000
5424		-27.343750
5425		-27.343750
5426		-25.390625
5427		-27.343750
5428		-23.437500
5429		-25.390625
5430		-21.484375
5431		-23.437500
5432		-19.531250
5433		-21.484375
5434		-17.578125
5435		-19.531250
5436		-15.625000
5437		-17.578125
5438		-15.625000
5439		-15.625000
5440		-11.718750
5441		-13.671875
5442		-11.718750
5443		-13.671875
5444		-9.765625
5445		-11.718750
5446		-7.812500
5447		-9.765625
5448		-5.859375
5449		-7.812500
5450		-3.906250
5451		-5.859375
5452		-1.953125
5453		-3.906250
5454		0.000000
5455		-1.953125
5456		1.953125
5457		0.000000
5458		3.906250
5459		1.953125
5460		5.859375
5461		3.906250
5462		7.812500
5463		5.859375
5464		9.765625
5465		7.812500
5466		9.765625
5467		9.765625
5468		13.671875
5469		11.718750
5470		15.625000
5471		13.671875
5472		15.625000
5473		15.625000
5474		17.578125
5475		15.625000
5476		19.531250
5477		17.578125
5478		21.484375
5479		19.531250
5480		23.437500
5481		21.484375
5482		25.390625
5483		23.437500
5484		27.343750
5485		25.390625
5486		29.296875
5487		27.343750
5488		29.296875
5489		29.296875
5490		31.250000
5491		31.250000
5492		33.203125
5493		31.250000
5494		35.156250
5495		33.203125
5496		37.109375
5497		35.156250
5498		39.062500
5499		37.109375
5500		39.062500
5501		39.062500
5502		41.015625
5503		39.062500
5504		42.968750
5505		41.015625
5506		44.921875
5507		42.968750
5508		44.921875
5509		44.921875
5510		46.875000
5511		44.921875
5512		48.828125
5513		46.875000
5514		48.828125
5515		48.828125
5516		50.781250
5517		48.828125
5518		52.734375
5519		50.781250
5520		52.734375
5521		52.734375
5522		54.687500
5523		52.734375
5524		56.640625
5525		54.687500
5526		56.640625
5527		54.687500
5528		58.593750
5529		56.640625
5530		58.593750
5531		56.640625
5532		60.546875
5533		58.593750
5534		60.546875
5535		58.593750
5536		62.500000
5537		60.546875
5538		62.500000
5539		60.546875
5540		64.453125
5541		62.500000
5542		64.453125
5543		62.500000
5544		66.406250
5545		64.453125
5546		66.406250
5547		64.453125
5548		66.406250
5549		64.453125
5550		68.359375
5551		66.406250
5552		68.359375
5553		66.406250
5554		68.359375
5555		66.406250
5556		70.312500
5557		68.359375
5558		70.312500
5559		68.359375
5560		70.312500
5561		68.359375
5562		70.312500
5563		68.359375
5564		72.265625
5565		68.359375
5566		72.265625
5567		70.312500
5568		72.265625
5569		70.312500
5570		72.265625
5571		70.312500
5572		72.265625
5573		70.312500
5574		72.265625
5575		70.312500
5576		72.265625
5577		70.312500
5578		72.265625
5579		70.312500
5580		72.265625
5581		70.312500
5582		72.265625
5583		70.312500
5584		72.265625
5585		70.312500
5586		72.265625
5587		70.312500
5588		72.265625
5589		70.312500
5590		72.265625
5591		70.312500
5592		74.218750
5593		70.312500
5594		72.265625
5595		70.312500
5596		72.265625
5597		70.312500
5598		72.265625
5599		68.359375
5600		70.312500
5601		68.359375
5602		70.312500
5603		68.359375
5604		70.312500
5605		68.359375
5606		70.312500
5607		66.406250
5608		70.312500
5609		66.406250
5610		68.359375
5611		66.406250
5612		68.359375
5613		64.453125
5614		68.359375
5615		64.453125
5616		66.406250
5617		64.453125
5618		66.406250
5619		62.500000
5620		64.453125
5621		62.500000
5622		64.453125
5623		60.546875
5624		64.453125
5625		60.546875
5626		62.500000
5627		58.593750
5628		62.500000
5629		58.593750
5630		60.546875
5631		56.640625
5632		60.546875
5633		56.640625
5634		58.593750
5635		54.687500
5636		58.593750
5637		54.687500
5638		56.640625
5639		52.734375
5640		54.687500
5641		50.781250
5642		54.687500
5643		50.781250
5644		52.734375
5645		48.828125
5646		52.734375
5647		46.875000
5648		50.781250
5649		46.875000
5650		48.828125
5651		44.921875
5652		46.875000
5653		42.968750
5654		46.875000
5655		41.015625
5656		44.921875
5657		41.015625
5658		42.968750
5659		39.062500
5660		41.015625
5661		37.109375
5662		41.015625
5663		35.156250
5664		39.062500
5665		35.156250
5666		37.109375
5667		33.203125
5668		35.156250
5669		31.250000
5670		33.203125
5671		29.296875
5672		33.203125
5673		27.343750
5674		31.250000
5675		25.390625
5676		29.296875
5677		23.437500
5678		27.343750
5679		21.484375
5680		25.390625
5681		19.531250
5682		23.437500
5683		19.531250
5684		21.484375
5685		17.578125
5686		21.484375
5687		15.625000
5688		17.578125
5689		13.671875
5690		17.578125
5691		11.718750
5692		15.625000
5693		9.765625
5694		13.671875
5695		7.812500
5696		11.718750
5697		5.859375
5698		9.765625
5699		3.906250
5700		7.812500
5701		1.953125
5702		5.859375
5703		0.000000
5704		3.906250
5705		-1.953125
5706		1.953125
5707		-3.906250
5708		0.000000
5709		-5.859375
5710		-1.953125
5711		-7.812500
5712		-3.906250
5713		-9.765625
5714		-5.859375
5715		-11.718750
5716		-7.812500
5717		-11.718750
5718		-7.812500
5719		-13.671875
5720		-11.718750
5721		-15.625000
5722		-13.671875
5723		-17.578125
5724		-13.671875
5725		-19.531250
5726		-15.625000
5727		-21.484375
5728		-17.578125
5729		-23.437500
5730		-19.531250
5731		-25.390625
5732		-21.484375
5733		-27.343750
5734		-23.437500
5735		-29.296875
5736		-25.390625
5737		-29.296875
5738		-27.343750
5739		-31.250000
5740		-29.296875
5741		-33.203125
5742		-29.296875
5743		-35.156250
5744		-31.250000
5745		-37.109375
5746		-33.203125
5747		-39.062500
5748		-35.156250
5749		-41.015625
5750		-37.109375
5751		-41.015625
5752		-39.062500
5753		-42.968750
5754		-39.062500
5755		-44.921875
5756		-41.015625
5757		-44.921875
5758		-42.968750
5759		-46.875000
5760		-44.921875
5761		-48.828125
5762		-44.921875
5763		-50.781250
5764		-46.875000
5765		-50.781250
5766		-48.828125
5767		-52.734375
5768		-48.828125
5769		-54.687500
5770		-50.781250
5771		-54.687500
5772		-52.734375
5773		-56.640625
5774		-52.734375
5775		-56.640625
5776		-54.687500
5777		-58.593750
5778		-54.687500
5779		-58.593750
5780		-56.640625
5781		-58.593750
5782		-56.640625
5783		-60.546875
5784		-58.593750
5785		-60.546875
5786		-58.593750
5787		-62.500000
5788		-60.546875
5789		-62.500000
5790		-60.546875
5791		-64.453125
5792		-60.546875
5793		-64.453125
5794		-62.500000
5795		-64.453125
5796		-62.500000
5797		-64.453125
5798		-62.500000
5799		-66.406250
5800		-62.500000
5801		-66.406250
5802		-64.453125
5803		-66.406250
5804		-64.453125
5805		-66.406250
5806		-64.453125
5807		-66.406250
5808		-64.453125
5809		-68.359375
5810		-64.453125
5811		-68.359375
5812		-64.453125
5813		-68.359375
5814		-64.453125
5815		-68.359375
5816		-66.406250
5817		-68.359375
5818		-64.453125
5819		-68.359375
5820		-66.406250
5821		-66.406250
5822		-64.453125
5823		-66.406250
5824		-64.453125
5825		-66.406250
5826		-64.453125
5827		-66.406250
5828		-64.453125
5829		-66.406250
5830		-64.453125
5831		-66.406250
5832		-64.453125
5833		-66.406250
5834		-62.500000
5835		-64.453125
5836		-62.500000
5837		-64.453125
5838		-62.500000
5839		-64.453125
5840		-60.546875
5841		-64.453125
5842		-60.546875
5843		-62.500000
5844		-60.546875
5845		-62.500000
5846		-60.546875
5847		-62.500000
5848		-58.593750
5849		-60.546875
5850		-58.593750
5851		-60.546875
5852		-56.640625
5853		-58.593750
5854		-56.640625
5855		-58.593750
5856		-54.687500
5857		-56.640625
5858		-54.687500
5859		-54.687500
5860		-52.734375
5861		-54.687500
5862		-50.781250
5863		-52.734375
5864		-50.781250
5865		-52.734375
5866		-48.828125
5867		-50.781250
5868		-48.828125
5869		-50.781250
5870		-46.875000
5871		-48.828125
5872		-44.921875
5873		-46.875000
5874		-44.921875
5875		-44.921875
5876		-42.968750
5877		-44.921875
5878		-41.015625
5879		-42.968750
5880		-39.062500
5881		-41.015625
5882		-39.062500
5883		-39.062500
5884		-37.109375
5885		-39.062500
5886		-35.156250
5887		-37.109375
5888		-33.203125
5889		-35.156250
5890		-31.250000
5891		-33.203125
5892		-31.250000
5893		-31.250000
5894		-29.296875
5895		-31.250000
5896		-27.343750
5897		-29.296875
5898		-25.390625
5899		-27.343750
5900		-23.437500
5901		-25.390625
5902		-21.484375
5903		-23.437500
5904		-19.531250
5905		-21.484375
5906		-17.578125
5907		-19.531250
5908		-17.578125
5909		-17.578125
5910		-15.625000
5911		-15.625000
5912		-13.671875
5913		-13.671875
5914		-11.718750
5915		-11.718750
5916		-9.765625
5917		-11.718750
5918		-7.812500
5919		-9.765625
5920		-5.859375
5921		-7.812500
5922		-3.906250
5923		-5.859375
5924		-1.953125
5925		-3.906250
5926		0.000000
5927		-1.953125
5928		1.953125
5929		0.000000
5930		3.906250
5931		1.953125
5932		5.859375
5933		3.906250
5934		7.812500
5935		5.859375
5936		9.765625
5937		7.812500
5938		9.765625
5939		9.765625
5940		13.671875
5941		11.718750
5942		15.625000
5943		13.671875
5944		17.578125
5945		15.625000
5946		17.578125
5947		17.578125
5948		19.531250
5949		17.578125
5950		21.484375
5951		19.531250
5952		23.437500
5953		21.484375
5954		25.390625
5955		23.437500
5956		27.343750
5957		25.390625
5958		27.343750
5959		27.343750
5960		29.296875
5961		29.296875
5962		31.250000
5963		29.296875
5964		33.203125
5965		31.250000
5966		35.156250
5967		33.203125
5968		37.109375
5969		35.156250
5970		37.109375
5971		37.109375
5972		39.062500
5973		37.109375
5974		41.015625
5975		39.062500
5976		42.968750
5977		41.015625
5978		44.921875
5979		42.968750
5980		44.921875
5981		42.968750
5982		46.875000
5983		44.921875
5984		48.828125
5985		44.921875
5986		48.828125
5987		46.875000
5988		50.781250
5989		48.828125
5990		50.781250
5991		50.781250
5992		52.734375
5993		50.781250
5994		54.687500
5995		52.734375
5996		56.640625
5997		52.734375
5998		56.640625
5999		54.687500
6000		58.593750
6001		56.640625
6002		58.593750
6003		56.640625
6004		60.546875
6005		58.593750
6006		60.546875
6007		58.593750
6008		62.500000
6009		60.546875
6010		62.500000
6011		60.546875
6012		62.500000
6013		62.500000
6014		64.453125
6015		62.500000
6016		64.453125
6017		62.500000
6018		66.406250
6019		64.453125
6020		66.406250
6021		64.453125
6022		66.406250
6023		64.453125
6024		68.359375
6025		66.406250
6026		68.359375
6027		66.406250
6028		68.359375
6029		66.406250
6030		70.312500
6031		68.359375
6032		70.312500
6033		68.359375
6034		70.312500
6035		68.359375
6036		70.312500
6037		68.359375
6038		70.312500
6039		68.359375
6040		72.265625
6041		70.312500
6042		72.265625
6043		70.312500
6044		72.265625
6045		70.312500
6046		72.265625
6047		70.312500
6048		72.265625
6049		70.312500
6050		72.265625
6051		70.312500
6052		72.265625
6053		70.312500
6054		72.265625
6055		70.312500
6056		72.265625
6057		70.312500
6058		72.265625
6059		70.312500
6060		72.265625
6061		68.359375
6062		72.265625
6063		70.312500
6064		72.265625
6065		68.359375
6066		72.265625
6067		68.359375
6068		70.312500
6069		68.359375
6070		70.312500
6071		68.359375
6072		70.312500
6073		66.406250
6074		70.312500
6075		66.406250
6076		70.312500
6077		66.406250
6078		68.359375
6079		66.406250
6080		68.359375
6081		66.406250
6082		68.359375
6083		64.453125
6084		68.359375
6085		64.453125
6086		66.406250
6087		62.500000
6088		66.406250
6089		62.500000
6090		64.453125
6091		62.500000
6092		64.453125
6093		60.546875
6094		64.453125
6095		60.546875
6096		64.453125
6097		58.593750
6098		62.500000
6099		58.593750
6100		60.546875
6101		56.640625
6102		60.546875
6103		56.640625
6104		58.593750
6105		54.687500
6106		58.593750
6107		54.687500
6108		56.640625
6109		52.734375
6110		56.640625
6111		50.781250
6112		54.687500
6113		50.781250
6114		52.734375
6115		48.828125
6116		52.734375
6117		46.875000
6118		50.781250
6119		46.875000
6120		48.828125
6121		44.921875
6122		48.828125
6123		42.968750
6124		46.875000
6125		42.968750
6126		44.921875
6127		41.015625
6128		44.921875
6129		39.062500
6130		42.968750
6131		37.109375
6132		41.015625
6133		37.109375
6134		39.062500
6135		35.156250
6136		37.109375
6137		33.203125
6138		37.109375
6139		31.250000
6140		35.156250
6141		29.296875
6142		33.203125
6143		27.343750
6144		31.250000
6145		27.343750
6146		29.296875
6147		25.390625
6148		27.343750
6149		23.437500
6150		25.390625
6151		21.484375
6152		25.390625
6153		19.531250
6154		23.437500
6155		17.578125
6156		21.484375
6157		15.625000
6158		19.531250
6159		13.671875
6160		17.578125
6161		11.718750
6162		15.625000
6163		9.765625
6164		13.671875
6165		7.812500
6166		11.718750
6167		5.859375
6168		9.765625
6169		3.906250
6170		7.812500
6171		1.953125
6172		5.859375
6173		0.000000
6174		3.906250
6175		-1.953125
6176		1.953125
6177		-1.953125
6178		0.000000
6179		-3.906250
6180		-1.953125
6181		-5.859375
6182		-1.953125
6183		-7.812500
6184		-3.906250
6185		-9.765625
6186		-5.859375
6187		-11.718750
6188		-7.812500
6189		-13.671875
6190		-9.765625
6191		-15.625000
6192		-11.718750
6193		-17.578125
6194		-13.671875
6195		-19.531250
6196		-15.625000
6197		-21.484375
6198		-17.578125
6199		-23.437500
6200		-19.531250
6201		-25.390625
6202		-21.484375
6203		-25.390625
6204		-23.437500
6205		-27.343750
6206		-25.390625
6207		-29.296875
6208		-27.343750
6209		-31.250000
6210		-27.343750
6211		-33.203125
6212		-29.296875
6213		-35.156250
6214		-31.250000
6215		-37.109375
6216		-33.203125
6217		-39.062500
6218		-35.156250
6219		-39.062500
6220		-37.109375
6221		-41.015625
6222		-39.062500
6223		-42.968750
6224		-39.062500
6225		-44.921875
6226		-41.015625
6227		-44.921875
6228		-42.968750
6229		-46.875000
6230		-42.968750
6231		-48.828125
6232		-44.921875
6233		-50.781250
6234		-44.921875
6235		-50.781250
6236		-48.828125
6237		-52.734375
6238		-46.875000
6239		-52.734375
6240		-50.781250
6241		-54.687500
6242		-52.734375
6243		-54.687500
6244		-52.734375
6245		-56.640625
6246		-54.687500
6247		-58.593750
6248		-54.687500
6249		-60.546875
6250		-54.687500
6251		-60.546875
6252		-56.640625
6253		-60.546875
6254		-56.640625
6255		-62.500000
6256		-56.640625
6257		-64.453125
6258		-58.593750
6259		-62.500000
6260		-60.546875
6261		-64.453125
6262		-60.546875
6263		-64.453125
6264		-60.546875
6265		-64.453125
6266		-62.500000
6267		-68.359375
6268		-62.500000
6269		-66.406250
6270		-62.500000
6271		-68.359375
6272		-62.500000
6273		-66.406250
6274		-64.453125
6275		-70.312500
6276		-62.500000
6277		-66.406250
6278		-64.453125
6279		-68.359375
6280		-64.453125
6281		-68.359375
6282		-64.453125
6283		-70.312500
6284		-64.453125
6285		-68.359375
6286		-64.453125
6287		-70.312500
6288		-64.453125
6289		-68.359375
6290		-66.406250
6291		-70.312500
6292		-62.500000
6293		-68.359375
6294		-66.406250
6295		-68.359375
6296		-66.406250
6297		-68.359375
6298		-62.500000
6299		-70.312500
6300		-62.500000
6301		-68.359375
6302		-64.453125
6303		-66.406250
6304		-62.500000
6305		-66.406250
6306		-62.500000
6307		-66.406250
6308		-60.546875
6309		-64.453125
6310		-62.500000
6311		-64.453125
6312		-62.500000
6313		-64.453125
6314		-60.546875
6315		-66.406250
6316		-58.593750
6317		-64.453125
6318		-58.593750
6319		-62.500000
6320		-58.593750
6321		-62.500000
6322		-54.687500
6323		-62.500000
6324		-54.687500
6325		-62.500000
6326		-54.687500
6327		-58.593750
6328		-54.687500
6329		-56.640625
6330		-52.734375
6331		-56.640625
6332		-50.781250
6333		-56.640625
6334		-50.781250
6335		-54.687500
6336		-48.828125
6337		-52.734375
6338		-48.828125
6339		-54.687500
6340		-44.921875
6341		-52.734375
6342		-44.921875
6343		-48.828125
6344		-44.921875
6345		-46.875000
6346		-44.921875
6347		-46.875000
6348		-41.015625
6349		-46.875000
6350		-39.062500
6351		-44.921875
6352		-39.062500
6353		-41.015625
6354		-39.062500
6355		-42.968750
6356		-33.203125
6357		-39.062500
6358		-35.156250
6359		-41.015625
6360		-31.250000
6361		-35.156250
6362		-31.250000
6363		-33.203125
6364		-29.296875
6365		-33.203125
6366		-25.390625
6367		-31.250000
6368		-25.390625
6369		-29.296875
6370		-25.390625
6371		-27.343750
6372		-21.484375
6373		-27.343750
6374		-19.531250
6375		-25.390625
6376		-17.578125
6377		-21.484375
6378		-17.578125
6379		-19.531250
6380		-15.625000
6381		-19.531250
6382		-13.671875
6383		-19.531250
6384		-9.765625
6385		-13.671875
6386		-11.718750
6387		-13.671875
6388		-9.765625
6389		-11.718750
6390		-3.906250
6391		-9.765625
6392		-1.953125
6393		-7.812500
6394		-3.906250
6395		-5.859375
6396		-1.953125
6397		-3.906250
6398		1.953125
6399		-3.906250
6400		3.906250
6401		-1.953125
6402		3.906250
6403		1.953125
6404		5.859375
6405		1.953125
6406		9.765625
6407		1.953125
6408		11.718750
6409		3.906250
6410		13.671875
6411		9.765625
6412		13.671875
6413		11.718750
6414		15.625000
6415		11.718750
6416		19.531250
6417		11.718750
6418		19.531250
6419		15.625000
6420		19.531250
6421		17.578125
6422		21.484375
6423		17.578125
6424		27.343750
6425		19.531250
6426		27.343750
6427		23.437500
6428		27.343750
6429		25.390625
6430		29.296875
6431		25.390625
6432		31.250000
6433		25.390625
6434		35.156250
6435		29.296875
6436		33.203125
6437		31.250000
6438		35.156250
6439		31.250000
6440		41.015625
6441		31.250000
6442		41.015625
6443		33.203125
6444		41.015625
6445		37.109375
6446		41.015625
6447		39.062500
6448		42.968750
6449		39.062500
6450		46.875000
6451		42.968750
6452		46.875000
6453		42.968750
6454		46.875000
6455		42.968750
6456		48.828125
6457		42.968750
6458		52.734375
6459		46.875000
6460		52.734375
6461		48.828125
6462		52.734375
6463		50.781250
6464		52.734375
6465		50.781250
6466		56.640625
6467		50.781250
6468		58.593750
6469		52.734375
6470		56.640625
6471		54.687500
6472		58.593750
6473		52.734375
6474		62.500000
6475		54.687500
6476		62.500000
6477		58.593750
6478		60.546875
6479		58.593750
6480		60.546875
6481		60.546875
6482		62.500000
6483		58.593750
6484		66.406250
6485		58.593750
6486		66.406250
6487		62.500000
6488		64.453125
6489		60.546875
6490		68.359375
6491		60.546875
6492		68.359375
6493		62.500000
6494		70.312500
6495		64.453125
6496		68.359375
6497		64.453125
6498		68.359375
6499		64.453125
6500		70.312500
6501		64.453125
6502		72.265625
6503		66.406250
6504		70.312500
6505		66.406250
6506		70.312500
6507		66.406250
6508		72.265625
6509		66.406250
6510		74.218750
6511		68.359375
6512		70.312500
6513		68.359375
6514		70.312500
6515		68.359375
6516		72.265625
6517		68.359375
6518		74.218750
6519		66.406250
6520		72.265625
6521		70.312500
6522		72.265625
6523		68.359375
6524		74.218750
6525		70.312500
6526		72.265625
6527		68.359375
6528		72.265625
6529		68.359375
6530		72.265625
6531		70.312500
6532		72.265625
6533		68.359375
6534		72.265625
6535		66.406250
6536		72.265625
6537		68.359375
6538		70.312500
6539		66.406250
6540		72.265625
6541		68.359375
6542		70.312500
6543		66.406250
6544		70.312500
6545		66.406250
6546		70.312500
6547		66.406250
6548		68.359375
6549		66.406250
6550		70.312500
6551		66.406250
6552		68.359375
6553		64.453125
6554		66.406250
6555		64.453125
6556		66.406250
6557		64.453125
6558		66.406250
6559		62.500000
6560		64.453125
6561		60.546875
6562		64.453125
6563		60.546875
6564		64.453125
6565		60.546875
6566		64.453125
6567		58.593750
6568		62.500000
6569		58.593750
6570		60.546875
6571		56.640625
6572		60.546875
6573		56.640625
6574		58.593750
6575		54.687500
6576		58.593750
6577		52.734375
6578		56.640625
6579		52.734375
6580		56.640625
6581		50.781250
6582		54.687500
6583		50.781250
6584		54.687500
6585		48.828125
6586		54.687500
6587		44.921875
6588		52.734375
6589		44.921875
6590		50.781250
6591		42.968750
6592		48.828125
6593		42.968750
6594		48.828125
6595		42.968750
6596		44.921875
6597		41.015625
6598		44.921875
6599		39.062500
6600		42.968750
6601		37.109375
6602		42.968750
6603		35.156250
6604		41.015625
6605		35.156250
6606		39.062500
6607		33.203125
6608		37.109375
6609		31.250000
6610		35.156250
6611		29.296875
6612		35.156250
6613		27.343750
6614		31.250000
6615		25.390625
6616		31.250000
6617		25.390625
6618		29.296875
6619		21.484375
6620		27.343750
6621		19.531250
6622		25.390625
6623		17.578125
6624		25.390625
6625		17.578125
6626		23.437500
6627		15.625000
6628		21.484375
6629		13.671875
6630		17.578125
6631		13.671875
6632		15.625000
6633		9.765625
6634		15.625000
6635		7.812500
6636		13.671875
6637		5.859375
6638		13.671875
6639		3.906250
6640		9.765625
6641		1.953125
6642		7.812500
6643		0.000000
6644		5.859375
6645		0.000000
6646		3.906250
6647		-1.953125
6648		1.953125
6649		-5.859375
6650		0.000000
6651		-5.859375
6652		-1.953125
6653		-7.812500
6654		-3.906250
6655		-11.718750
6656		-5.859375
6657		-11.718750
6658		-5.859375
6659		-13.671875
6660		-9.765625
6661		-15.625000
6662		-11.718750
6663		-17.578125
6664		-13.671875
6665		-19.531250
6666		-15.625000
6667		-21.484375
6668		-15.625000
6669		-23.437500
6670		-17.578125
6671		-25.390625
6672		-21.484375
6673		-27.343750
6674		-19.531250
6675		-27.343750
6676		-23.437500
6677		-31.250000
6678		-25.390625
6679		-31.250000
6680		-27.343750
6681		-33.203125
6682		-29.296875
6683		-35.156250
6684		-31.250000
6685		-37.109375
6686		-33.203125
6687		-37.109375
6688		-33.203125
6689		-41.015625
6690		-35.156250
6691		-41.015625
6692		-37.109375
6693		-42.968750
6694		-39.062500
6695		-44.921875
6696		-39.062500
6697		-44.921875
6698		-42.968750
6699		-46.875000
6700		-42.968750
6701		-48.828125
6702		-44.921875
6703		-48.828125
6704		-46.875000
6705		-52.734375
6706		-46.875000
6707		-52.734375
6708		-48.828125
6709		-54.687500
6710		-50.781250
6711		-56.640625
6712		-50.781250
6713		-56.640625
6714		-52.734375
6715		-56.640625
6716		-54.687500
6717		-58.593750
6718		-54.687500
6719		-58.593750
6720		-56.640625
6721		-60.546875
6722		-56.640625
6723		-62.500000
6724		-56.640625
6725		-62.500000
6726		-58.593750
6727		-62.500000
6728		-58.593750
6729		-62.500000
6730		-60.546875
6731		-64.453125
6732		-60.546875
6733		-66.406250
6734		-60.546875
6735		-66.406250
6736		-62.500000
6737		-66.406250
6738		-62.500000
6739		-68.359375
6740		-62.500000
6741		-68.359375
6742		-62.500000
6743		-68.359375
6744		-64.453125
6745		-68.359375
6746		-64.453125
6747		-68.359375
6748		-66.406250
6749		-68.359375
6750		-66.406250
6751		-68.359375
6752		-66.406250
6753		-70.312500
6754		-66.406250
6755		-70.312500
6756		-64.453125
6757		-70.312500
6758		-64.453125
6759		-68.359375
6760		-66.406250
6761		-70.312500
6762		-66.406250
6763		-70.312500
6764		-66.406250
6765		-68.359375
6766		-66.406250
6767		-68.359375
6768		-66.406250
6769		-68.359375
6770		-66.406250
6771		-68.359375
6772		-64.453125
6773		-68.359375
6774		-64.453125
6775		-68.359375
6776		-64.453125
6777		-66.406250
6778		-64.453125
6779		-66.406250
6780		-62.500000
6781		-64.453125
6782		-62.500000
6783		-66.406250
6784		-62.500000
6785		-64.453125
6786		-60.546875
6787		-64.453125
6788		-60.546875
6789		-64.453125
6790		-58.593750
6791		-62.500000
6792		-58.593750
6793		-62.500000
6794		-56.640625
6795		-60.546875
6796		-56.640625
6797		-58.593750
6798		-56.640625
6799		-58.593750
6800		-54.687500
6801		-58.593750
6802		-52.734375
6803		-56.640625
6804		-52.734375
6805		-54.687500
6806		-50.781250
6807		-54.687500
6808		-50.781250
6809		-52.734375
6810		-48.828125
6811		-50.781250
6812		-46.875000
6813		-50.781250
6814		-46.875000
6815		-48.828125
6816		-44.921875
6817		-48.828125
6818		-42.968750
6819		-46.875000
6820		-42.968750
6821		-44.921875
6822		-41.015625
6823		-44.921875
6824		-39.062500
6825		-42.968750
6826		-37.109375
6827		-41.015625
6828		-37.109375
6829		-39.062500
6830		-35.156250
6831		-37.109375
6832		-33.203125
6833		-35.156250
6834		-31.250000
6835		-35.156250
6836		-31.250000
6837		-33.203125
6838		-27.343750
6839		-31.250000
6840		-27.343750
6841		-29.296875
6842		-25.390625
6843		-27.343750
6844		-23.437500
6845		-25.390625
6846		-21.484375
6847		-25.390625
6848		-19.531250
6849		-21.484375
6850		-17.578125
6851		-19.531250
6852		-15.625000
6853		-19.531250
6854		-13.671875
6855		-15.625000
6856		-13.671875
6857		-15.625000
6858		-9.765625
6859		-13.671875
6860		-7.812500
6861		-11.718750
6862		-7.812500
6863		-9.765625
6864		-5.859375
6865		-7.812500
6866		-3.906250
6867		-5.859375
6868		0.000000
6869		-3.906250
6870		0.000000
6871		-1.953125
6872		1.953125
6873		0.000000
6874		3.906250
6875		1.953125
6876		5.859375
6877		3.906250
6878		7.812500
6879		5.859375
6880		9.765625
6881		7.812500
6882		11.718750
6883		9.765625
6884		13.671875
6885		9.765625
6886		15.625000
6887		13.671875
6888		17.578125
6889		13.671875
6890		19.531250
6891		15.625000
6892		19.531250
6893		17.578125
6894		21.484375
6895		19.531250
6896		23.437500
6897		19.531250
6898		25.390625
6899		23.437500
6900		27.343750
6901		25.390625
6902		29.296875
6903		25.390625
6904		29.296875
6905		29.296875
6906		33.203125
6907		29.296875
6908		33.203125
6909		31.250000
6910		37.109375
6911		33.203125
6912		37.109375
6913		35.156250
6914		39.062500
6915		37.109375
6916		39.062500
6917		37.109375
6918		41.015625
6919		39.062500
6920		42.968750
6921		41.015625
6922		44.921875
6923		41.015625
6924		44.921875
6925		42.968750
6926		46.875000
6927		44.921875
6928		48.828125
6929		46.875000
6930		50.781250
6931		46.875000
6932		50.781250
6933		48.828125
6934		52.734375
6935		48.828125
6936		52.734375
6937		50.781250
6938		54.687500
6939		52.734375
6940		56.640625
6941		52.734375
6942		56.640625
6943		54.687500
6944		58.593750
6945		54.687500
6946		58.593750
6947		56.640625
6948		60.546875
6949		58.593750
6950		60.546875
6951		58.593750
6952		62.500000
6953		58.593750
6954		62.500000
6955		60.546875
6956		64.453125
6957		60.546875
6958		64.453125
6959		62.500000
6960		64.453125
6961		62.500000
6962		66.406250
6963		62.500000
6964		66.406250
6965		64.453125
6966		66.406250
6967		64.453125
6968		68.359375
6969		64.453125
6970		68.359375
6971		66.406250
6972		68.359375
6973		66.406250
6974		70.312500
6975		66.406250
6976		70.312500
6977		66.406250
6978		70.312500
6979		68.359375
6980		70.312500
6981		66.406250
6982		70.312500
6983		68.359375
6984		70.312500
6985		68.359375
6986		72.265625
6987		68.359375
6988		72.265625
6989		68.359375
6990		72.265625
6991		68.359375
6992		72.265625
6993		68.359375
6994		72.265625
6995		68.359375
6996		72.265625
6997		68.359375
6998		72.265625
6999		68.359375
7000		72.265625
7001		68.359375
7002		70.312500
7003		68.359375
7004		72.265625
7005		68.359375
7006		72.265625
7007		68.359375
7008		72.265625
7009		68.359375
7010		72.265625
7011		66.406250
7012		70.312500
7013		66.406250
7014		70.312500
7015		66.406250
7016		70.312500
7017		66.406250
7018		68.359375
7019		64.453125
7020		68.359375
7021		64.453125
7022		68.359375
7023		64.453125
7024		68.359375
7025		64.453125
7026		66.406250
7027		62.500000
7028		66.406250
7029		62.500000
7030		66.406250
7031		62.500000
7032		66.406250
7033		60.546875
7034		64.453125
7035		58.593750
7036		64.453125
7037		58.593750
7038		62.500000
7039		58.593750
7040		62.500000
7041		56.640625
7042		60.546875
7043		56.640625
7044		60.546875
7045		56.640625
7046		58.593750
7047		52.734375
7048		56.640625
7049		52.734375
7050		56.640625
7051		52.734375
7052		54.687500
7053		50.781250
7054		54.687500
7055		50.781250
7056		52.734375
7057		48.828125
7058		52.734375
7059		46.875000
7060		50.781250
7061		44.921875
7062		48.828125
7063		44.921875
7064		48.828125
7065		42.968750
7066		46.875000
7067		42.968750
7068		44.921875
7069		39.062500
7070		42.968750
7071		39.062500
7072		42.968750
7073		37.109375
7074		41.015625
7075		35.156250
7076		41.015625
7077		33.203125
7078		39.062500
7079		33.203125
7080		37.109375
7081		31.250000
7082		35.156250
7083		29.296875
7084		33.203125
7085		27.343750
7086		31.250000
7087		25.390625
7088		31.250000
7089		23.437500
7090		27.343750
7091		23.437500
7092		25.390625
7093		21.484375
7094		25.390625
7095		19.531250
7096		23.437500
7097		17.578125
7098		21.484375
7099		15.625000
7100		19.531250
7101		13.671875
7102		17.578125
7103		11.718750
7104		15.625000
7105		9.765625
7106		13.671875
7107		7.812500
7108		11.718750
7109		5.859375
7110		9.765625
7111		3.906250
7112		7.812500
7113		1.953125
7114		5.859375
7115		0.000000
7116		3.906250
7117		-1.953125
7118		1.953125
7119		-3.906250
7120		0.000000
7121		-5.859375
7122		-1.953125
7123		-5.859375
7124		-1.953125
7125		-7.812500
7126		-3.906250
7127		-9.765625
7128		-7.812500
7129		-11.718750
7130		-7.812500
7131		-15.625000
7132		-9.765625
7133		-15.625000
7134		-11.718750
7135		-17.578125
7136		-13.671875
7137		-19.531250
7138		-15.625000
7139		-21.484375
7140		-17.578125
7141		-23.437500
7142		-19.531250
7143		-25.390625
7144		-21.484375
7145		-27.343750
7146		-21.484375
7147		-29.296875
7148		-25.390625
7149		-29.296875
7150		-25.390625
7151		-31.250000
7152		-27.343750
7153		-35.156250
7154		-29.296875
7155		-35.156250
7156		-31.250000
7157		-37.109375
7158		-33.203125
7159		-39.062500
7160		-35.156250
7161		-41.015625
7162		-37.109375
7163		-41.015625
7164		-37.109375
7165		-42.968750
7166		-39.062500
7167		-44.921875
7168		-41.015625
7169		-44.921875
7170		-42.968750
7171		-46.875000
7172		-42.968750
7173		-48.828125
7174		-44.921875
7175		-50.781250
7176		-46.875000
7177		-50.781250
7178		-48.828125
7179		-52.734375
7180		-48.828125
7181		-54.687500
7182		-50.781250
7183		-56.640625
7184		-50.781250
7185		-56.640625
7186		-52.734375
7187		-56.640625
7188		-54.687500
7189		-58.593750
7190		-54.687500
7191		-60.546875
7192		-56.640625
7193		-60.546875
7194		-56.640625
7195		-60.546875
7196		-58.593750
7197		-62.500000
7198		-58.593750
7199		-64.453125
7200		-58.593750
7201		-64.453125
7202		-60.546875
7203		-64.453125
7204		-62.500000
7205		-64.453125
7206		-62.500000
7207		-66.406250
7208		-62.500000
7209		-66.406250
7210		-62.500000
7211		-66.406250
7212		-64.453125
7213		-68.359375
7214		-64.453125
7215		-68.359375
7216		-64.453125
7217		-68.359375
7218		-64.453125
7219		-68.359375
7220		-66.406250
7221		-70.312500
7222		-64.453125
7223		-68.359375
7224		-66.406250
7225		-68.359375
7226		-66.406250
7227		-68.359375
7228		-66.406250
7229		-68.359375
7230		-66.406250
7231		-70.312500
7232		-66.406250
7233		-68.359375
7234		-66.406250
7235		-68.359375
7236		-66.406250
7237		-70.312500
7238		-64.453125
7239		-68.359375
7240		-66.406250
7241		-68.359375
7242		-64.453125
7243		-68.359375
7244		-64.453125
7245		-68.359375
7246		-64.453125
7247		-68.359375
7248		-64.453125
7249		-66.406250
7250		-62.500000
7251		-66.406250
7252		-64.453125
7253		-66.406250
7254		-62.500000
7255		-66.406250
7256		-60.546875
7257		-64.453125
7258		-60.546875
7259		-64.453125
7260		-60.546875
7261		-64.453125
7262		-58.593750
7263		-62.500000
7264		-58.593750
7265		-62.500000
7266		-58.593750
7267		-60.546875
7268		-56.640625
7269		-58.593750
7270		-56.640625
7271		-58.593750
7272		-54.687500
7273		-56.640625
7274		-52.734375
7275		-56.640625
7276		-50.781250
7277		-54.687500
7278		-50.781250
7279		-54.687500
7280		-50.781250
7281		-52.734375
7282		-48.828125
7283		-50.781250
7284		-46.875000
7285		-48.828125
7286		-46.875000
7287		-48.828125
7288		-44.921875
7289		-46.875000
7290		-42.968750
7291		-46.875000
7292		-41.015625
7293		-44.921875
7294		-41.015625
7295		-42.968750
7296		-39.062500
7297		-41.015625
7298		-37.109375
7299		-39.062500
7300		-35.156250
7301		-37.109375
7302		-35.156250
7303		-35.156250
7304		-33.203125
7305		-35.156250
7306		-31.250000
7307		-33.203125
7308		-29.296875
7309		-31.250000
7310		-27.343750
7311		-29.296875
7312		-25.390625
7313		-27.343750
7314		-23.437500
7315		-25.390625
7316		-23.437500
7317		-25.390625
7318		-21.484375
7319		-21.484375
7320		-19.531250
7321		-21.484375
7322		-15.625000
7323		-19.531250
7324		-15.625000
7325		-17.578125
7326		-13.671875
7327		-15.625000
7328		-11.718750
7329		-13.671875
7330		-9.765625
7331		-11.718750
7332		-7.812500
7333		-9.765625
7334		-5.859375
7335		-7.812500
7336		-3.906250
7337		-5.859375
7338		-1.953125
7339		-5.859375
7340		0.000000
7341		-3.906250
7342		1.953125
7343		0.000000
7344		3.906250
7345		1.953125
7346		3.906250
7347		1.953125
7348		5.859375
7349		3.906250
7350		7.812500
7351		5.859375
7352		9.765625
7353		7.812500
7354		11.718750
7355		9.765625
7356		13.671875
7357		11.718750
7358		15.625000
7359		13.671875
7360		17.578125
7361		15.625000
7362		19.531250
7363		17.578125
7364		21.484375
7365		19.531250
7366		23.437500
7367		21.484375
7368		25.390625
7369		21.484375
7370		25.390625
7371		23.437500
7372		27.343750
7373		25.390625
7374		29.296875
7375		27.343750
7376		31.250000
7377		29.296875
7378		33.203125
7379		31.250000
7380		35.156250
7381		31.250000
7382		37.109375
7383		33.203125
7384		37.109375
7385		35.156250
7386		39.062500
7387		37.109375
7388		41.015625
7389		39.062500
7390		42.968750
7391		39.062500
7392		44.921875
7393		41.015625
7394		44.921875
7395		42.968750
7396		46.875000
7397		42.968750
7398		48.828125
7399		44.921875
7400		48.828125
7401		46.875000
7402		50.781250
7403		48.828125
7404		50.781250
7405		48.828125
7406		52.734375
7407		50.781250
7408		54.687500
7409		50.781250
7410		54.687500
7411		52.734375
7412		56.640625
7413		52.734375
7414		56.640625
7415		54.687500
7416		58.593750
7417		56.640625
7418		60.546875
7419		56.640625
7420		60.546875
7421		58.593750
7422		60.546875
7423		58.593750
7424		62.500000
7425		60.546875
7426		64.453125
7427		60.546875
7428		64.453125
7429		62.500000
7430		64.453125
7431		62.500000
7432		64.453125
7433		62.500000
7434		66.406250
7435		64.453125
7436		66.406250
7437		64.453125
7438		66.406250
7439		64.453125
7440		68.359375
7441		66.406250
7442		68.359375
7443		64.453125
7444		70.312500
7445		66.406250
7446		70.312500
7447		66.406250
7448		70.312500
7449		66.406250
7450		70.312500
7451		68.359375
7452		70.312500
7453		68.359375
7454		70.312500
7455		68.359375
7456		70.312500
7457		68.359375
7458		72.265625
7459		68.359375
7460		72.265625
7461		68.359375
7462		72.265625
7463		68.359375
7464		72.265625
7465		68.359375
7466		72.265625
7467		68.359375
7468		72.265625
7469		68.359375
7470		72.265625
7471		68.359375
7472		72.265625
7473		68.359375
7474		72.265625
7475		68.359375
7476		72.265625
7477		68.359375
7478		72.265625
7479		68.359375
7480		70.312500
7481		68.359375
7482		72.265625
7483		66.406250
7484		70.312500
7485		66.406250
7486		70.312500
7487		66.406250
7488		68.359375
7489		66.406250
7490		68.359375
7491		66.406250
7492		68.359375
7493		64.453125
7494		68.359375
7495		64.453125
7496		68.359375
7497		64.453125
7498		66.406250
7499		62.500000
7500		66.406250
7501		62.500000
7502		66.406250
7503		62.500000
7504		64.453125
7505		60.546875
7506		64.453125
7507		58.593750
7508		62.500000
7509		58.593750
7510		62.500000
7511		58.593750
7512		62.500000
7513		56.640625
7514		60.546875
7515		56.640625
7516		60.546875
7517		54.687500
7518		58.593750
7519		54.687500
7520		58.593750
7521		52.734375
7522		56.640625
7523		50.781250
7524		54.687500
7525		50.781250
7526		54.687500
7527		48.828125
7528		52.734375
7529		48.828125
7530		50.781250
7531		46.875000
7532		50.781250
7533		44.921875
7534		48.828125
7535		42.968750
7536		46.875000
7537		42.968750
7538		46.875000
7539		41.015625
7540		44.921875
7541		39.062500
7542		42.968750
7543		37.109375
7544		42.968750
7545		37.109375
7546		41.015625
7547		35.156250
7548		39.062500
7549		33.203125
7550		37.109375
7551		31.250000
7552		35.156250
7553		29.296875
7554		35.156250
7555		29.296875
7556		31.250000
7557		27.343750
7558		31.250000
7559		25.390625
7560		29.296875
7561		23.437500
7562		27.343750
7563		21.484375
7564		25.390625
7565		19.531250
7566		23.437500
7567		17.578125
7568		21.484375
7569		15.625000
7570		21.484375
7571		13.671875
7572		17.578125
7573		11.718750
7574		15.625000
7575		9.765625
7576		15.625000
7577		7.812500
7578		13.671875
7579		7.812500
7580		11.718750
7581		3.906250
7582		9.765625
7583		3.906250
7584		7.812500
7585		0.000000
7586		5.859375
7587		0.000000
7588		3.906250
7589		-1.953125
7590		1.953125
7591		-3.906250
7592		0.000000
7593		-5.859375
7594		-1.953125
7595		-7.812500
7596		-3.906250
7597		-9.765625
7598		-5.859375
7599		-11.718750
7600		-7.812500
7601		-13.671875
7602		-9.765625
7603		-15.625000
7604		-11.718750
7605		-17.578125
7606		-13.671875
7607		-19.531250
7608		-15.625000
7609		-19.531250
7610		-17.578125
7611		-23.437500
7612		-19.531250
7613		-23.437500
7614		-21.484375
7615		-25.390625
7616		-21.484375
7617		-27.343750
7618		-23.437500
7619		-29.296875
7620		-25.390625
7621		-31.250000
7622		-27.343750
7623		-33.203125
7624		-29.296875
7625		-33.203125
7626		-29.296875
7627		-37.109375
7628		-31.250000
7629		-37.109375
7630		-33.203125
7631		-39.062500
7632		-35.156250
7633		-41.015625
7634		-37.109375
7635		-42.968750
7636		-39.062500
7637		-44.921875
7638		-39.062500
7639		-44.921875
7640		-41.015625
7641		-46.875000
7642		-42.968750
7643		-48.828125
7644		-44.921875
7645		-48.828125
7646		-46.875000
7647		-50.781250
7648		-46.875000
7649		-52.734375
7650		-48.828125
7651		-54.687500
7652		-48.828125
7653		-54.687500
7654		-50.781250
7655		-54.687500
7656		-52.734375
7657		-58.593750
7658		-54.687500
7659		-58.593750
7660		-54.687500
7661		-60.546875
7662		-56.640625
7663		-58.593750
7664		-56.640625
7665		-60.546875
7666		-58.593750
7667		-62.500000
7668		-58.593750
7669		-62.500000
7670		-58.593750
7671		-62.500000
7672		-60.546875
7673		-64.453125
7674		-60.546875
7675		-64.453125
7676		-60.546875
7677		-66.406250
7678		-62.500000
7679		-66.406250
7680		-62.500000
7681		-66.406250
7682		-64.453125
7683		-66.406250
7684		-64.453125
7685		-68.359375
7686		-64.453125
7687		-68.359375
7688		-64.453125
7689		-68.359375
7690		-64.453125
7691		-70.312500
7692		-66.406250
7693		-68.359375
7694		-66.406250
7695		-70.312500
7696		-66.406250
7697		-68.359375
7698		-66.406250
7699		-70.312500
7700		-66.406250
7701		-68.359375
7702		-66.406250
7703		-70.312500
7704		-64.453125
7705		-68.359375
7706		-66.406250
7707		-68.359375
7708		-66.406250
7709		-70.312500
7710		-66.406250
7711		-68.359375
7712		-64.453125
7713		-68.359375
7714		-64.453125
7715		-68.359375
7716		-64.453125
7717		-68.359375
7718		-64.453125
7719		-66.406250
7720		-64.453125
7721		-66.406250
7722		-64.453125
7723		-66.406250
7724		-62.500000
7725		-66.406250
7726		-62.500000
7727		-64.453125
7728		-60.546875
7729		-64.453125
7730		-60.546875
7731		-64.453125
7732		-60.546875
7733		-62.500000
7734		-58.593750
7735		-62.500000
7736		-58.593750
7737		-60.546875
7738		-56.640625
7739		-58.593750
7740		-56.640625
7741		-58.593750
7742		-54.687500
7743		-58.593750
7744		-54.687500
7745		-56.640625
7746		-52.734375
7747		-56.640625
7748		-52.734375
7749		-54.687500
7750		-50.781250
7751		-52.734375
7752		-48.828125
7753		-52.734375
7754		-46.875000
7755		-50.781250
7756		-46.875000
7757		-48.828125
7758		-44.921875
7759		-48.828125
7760		-44.921875
7761		-46.875000
7762		-42.968750
7763		-44.921875
7764		-41.015625
7765		-42.968750
7766		-39.062500
7767		-42.968750
7768		-39.062500
7769		-41.015625
7770		-37.109375
7771		-39.062500
7772		-35.156250
7773		-37.109375
7774		-33.203125
7775		-35.156250
7776		-31.250000
7777		-35.156250
7778		-29.296875
7779		-33.203125
7780		-29.296875
7781		-31.250000
7782		-27.343750
7783		-29.296875
7784		-25.390625
7785		-27.343750
7786		-23.437500
7787		-25.390625
7788		-21.484375
7789		-23.437500
7790		-19.531250
7791		-21.484375
7792		-17.578125
7793		-21.484375
7794		-15.625000
7795		-17.578125
7796		-13.671875
7797		-17.578125
7798		-13.671875
7799		-13.671875
7800		-11.718750
7801		-13.671875
7802		-9.765625
7803		-11.718750
7804		-7.812500
7805		-9.765625
7806		-5.859375
7807		-7.812500
7808		-3.906250
7809		-5.859375
7810		-1.953125
7811		-3.906250
7812		0.000000
7813		-1.953125
7814		1.953125
7815		0.000000
7816		3.906250
7817		1.953125
7818		5.859375
7819		3.906250
7820		7.812500
7821		5.859375
7822		9.765625
7823		7.812500
7824		11.718750
7825		9.765625
7826		13.671875
7827		9.765625
7828		13.671875
7829		11.718750
7830		15.625000
7831		13.671875
7832		17.578125
7833		15.625000
7834		19.531250
7835		17.578125
7836		21.484375
7837		19.531250
7838		23.437500
7839		21.484375
7840		25.390625
7841		23.437500
7842		27.343750
7843		23.437500
7844		29.296875
7845		27.343750
7846		31.250000
7847		27.343750
7848		33.203125
7849		29.296875
7850		33.203125
7851		31.250000
7852		35.156250
7853		33.203125
7854		37.109375
7855		33.203125
7856		37.109375
7857		37.109375
7858		39.062500
7859		37.109375
7860		41.015625
7861		39.062500
7862		42.968750
7863		41.015625
7864		42.968750
7865		41.015625
7866		44.921875
7867		42.968750
7868		46.875000
7869		44.921875
7870		46.875000
7871		46.875000
7872		48.828125
7873		46.875000
7874		50.781250
7875		48.828125
7876		50.781250
7877		50.781250
7878		52.734375
7879		50.781250
7880		54.687500
7881		50.781250
7882		54.687500
7883		52.734375
7884		56.640625
7885		54.687500
7886		58.593750
7887		54.687500
7888		58.593750
7889		54.687500
7890		60.546875
7891		58.593750
7892		60.546875
7893		58.593750
7894		60.546875
7895		58.593750
7896		62.500000
7897		60.546875
7898		64.453125
7899		60.546875
7900		64.453125
7901		60.546875
7902		64.453125
7903		62.500000
7904		66.406250
7905		62.500000
7906		66.406250
7907		64.453125
7908		66.406250
7909		64.453125
7910		68.359375
7911		64.453125
7912		68.359375
7913		64.453125
7914		70.312500
7915		66.406250
7916		70.312500
7917		66.406250
7918		70.312500
7919		66.406250
7920		70.312500
7921		66.406250
7922		70.312500
7923		68.359375
7924		70.312500
7925		68.359375
7926		70.312500
7927		66.406250
7928		72.265625
7929		68.359375
7930		72.265625
7931		68.359375
7932		72.265625
7933		68.359375
7934		72.265625
7935		68.359375
7936		72.265625
7937		68.359375
7938		72.265625
7939		68.359375
7940		72.265625
7941		70.312500
7942		72.265625
7943		68.359375
7944		72.265625
7945		68.359375
7946		72.265625
7947		68.359375
7948		72.265625
7949		68.359375
7950		70.312500
7951		68.359375
7952		72.265625
7953		68.359375
7954		70.312500
7955		66.406250
7956		70.312500
7957		66.406250
7958		70.312500
7959		66.406250
7960		68.359375
7961		66.406250
7962		70.312500
7963		66.406250
7964		68.359375
7965		64.453125
7966		68.359375
7967		64.453125
7968		66.406250
7969		62.500000
7970		66.406250
7971		62.500000
7972		66.406250
7973		62.500000
7974		66.406250
7975		62.500000
7976		64.453125
7977		60.546875
7978		64.453125
7979		60.546875
7980		62.500000
7981		58.593750
7982		62.500000
7983		58.593750
7984		60.546875
7985		56.640625
7986		60.546875
7987		54.687500
7988		60.546875
7989		54.687500
7990		58.593750
7991		54.687500
7992		56.640625
7993		52.734375
7994		54.687500
7995		50.781250
7996		54.687500
7997		48.828125
7998		52.734375
7999		48.828125
8000		52.734375
8001		46.875000
8002		50.781250
8003		46.875000
8004		48.828125
8005		44.921875
8006		48.828125
8007		42.968750
8008		46.875000
8009		42.968750
8010		44.921875
8011		41.015625
8012		44.921875
8013		39.062500
8014		42.968750
8015		37.109375
8016		41.015625
8017		37.109375
8018		39.062500
8019		35.156250
8020		37.109375
8021		33.203125
8022		37.109375
8023		31.250000
8024		35.156250
8025		29.296875
8026		33.203125
8027		27.343750
8028		31.250000
8029		25.390625
8030		29.296875
8031		23.437500
8032		27.343750
8033		23.437500
8034		27.343750
8035		21.484375
8036		25.390625
8037		19.531250
8038		23.437500
8039		17.578125
8040		21.484375
8041		15.625000
8042		19.531250
8043		13.671875
8044		17.578125
8045		11.718750
8046		15.625000
8047		9.765625
8048		13.671875
8049		7.812500
8050		13.671875
8051		5.859375
8052		9.765625
8053		3.906250
8054		7.812500
8055		1.953125
8056		7.812500
8057		1.953125
8058		5.859375
8059		0.000000
8060		1.953125
8061		-3.906250
8062		1.953125
8063		-3.906250
8064		0.000000
8065		-5.859375
8066		-1.953125
8067		-7.812500
8068		-3.906250
8069		-9.765625
8070		-5.859375
8071		-11.718750
8072		-7.812500
8073		-13.671875
8074		-9.765625
8075		-15.625000
8076		-11.718750
8077		-17.578125
8078		-13.671875
8079		-19.531250
8080		-15.625000
8081		-21.484375
8082		-17.578125
8083		-23.437500
8084		-19.531250
8085		-25.390625
8086		-21.484375
8087		-27.343750
8088		-23.437500
8089		-27.343750
8090		-23.437500
8091		-29.296875
8092		-25.390625
8093		-31.250000
8094		-27.343750
8095		-33.203125
8096		-29.296875
8097		-35.156250
8098		-31.250000
8099		-37.109375
8100		-33.203125
8101		-39.062500
8102		-35.156250
8103		-39.062500
8104		-37.109375
8105		-41.015625
8106		-37.109375
8107		-42.968750
8108		-39.062500
8109		-44.921875
8110		-41.015625
8111		-46.875000
8112		-42.968750
8113		-48.828125
8114		-42.968750
8115		-48.828125
8116		-44.921875
8117		-48.828125
8118		-46.875000
8119		-50.781250
8120		-46.875000
8121		-52.734375
8122		-48.828125
8123		-54.687500
8124		-50.781250
8125		-54.687500
8126		-52.734375
8127		-56.640625
8128		-52.734375
8129		-56.640625
8130		-52.734375
8131		-58.593750
8132		-54.687500
8133		-60.546875
8134		-56.640625
8135		-60.546875
8136		-56.640625
8137		-60.546875
8138		-56.640625
8139		-62.500000
8140		-58.593750
8141		-64.453125
8142		-60.546875
8143		-62.500000
8144		-60.546875
8145		-64.453125
8146		-60.546875
8147		-64.453125
8148		-62.500000
8149		-66.406250
8150		-62.500000
8151		-66.406250
8152		-62.500000
8153		-66.406250
8154		-64.453125
8155		-66.406250
8156		-64.453125
8157		-68.359375
8158		-64.453125
8159		-68.359375
8160		-66.406250
8161		-68.359375
8162		-66.406250
8163		-68.359375
8164		-64.453125
8165		-68.359375
8166		-66.406250
8167		-68.359375
8168		-66.406250
8169		-68.359375
8170		-66.406250
8171		-70.312500
8172		-66.406250
8173		-70.312500
8174		-66.406250
8175		-70.312500
8176		-66.406250
8177		-68.359375
8178		-66.406250
8179		-70.312500
8180		-66.406250
8181		-68.359375
8182		-64.453125
8183		-68.359375
8184		-64.453125
8185		-68.359375
8186		-64.453125
8187		-68.359375
8188		-64.453125
8189		-68.359375
8190		-64.453125
8191		-66.406250
8192		-64.453125
8193		-66.406250
8194		-64.453125
8195		-66.406250
8196		-62.500000
8197		-66.406250
8198		-62.500000
8199		-64.453125
8200		-60.546875
8201		-64.453125
8202		-60.546875
8203		-62.500000
8204		-60.546875
8205		-62.500000
8206		-58.593750
8207		-62.500000
8208		-56.640625
8209		-60.546875
8210		-56.640625
8211		-58.593750
8212		-56.640625
8213		-58.593750
8214		-54.687500
8215		-56.640625
8216		-52.734375
8217		-56.640625
8218		-52.734375
8219		-54.687500
8220		-50.781250
8221		-52.734375
8222		-48.828125
8223		-52.734375
8224		-48.828125
8225		-52.734375
8226		-48.828125
8227		-48.828125
8228		-46.875000
8229		-48.828125
8230		-44.921875
8231		-46.875000
8232		-42.968750
8233		-44.921875
8234		-42.968750
8235		-44.921875
8236		-41.015625
8237		-42.968750
8238		-39.062500
8239		-41.015625
8240		-37.109375
8241		-39.062500
8242		-35.156250
8243		-39.062500
8244		-35.156250
8245		-37.109375
8246		-33.203125
8247		-35.156250
8248		-31.250000
8249		-33.203125
8250		-29.296875
8251		-31.250000
8252		-27.343750
8253		-29.296875
8254		-25.390625
8255		-29.296875
8256		-25.390625
8257		-27.343750
8258		-21.484375
8259		-25.390625
8260		-21.484375
8261		-23.437500
8262		-19.531250
8263		-21.484375
8264		-17.578125
8265		-19.531250
8266		-15.625000
8267		-17.578125
8268		-13.671875
8269		-15.625000
8270		-11.718750
8271		-13.671875
8272		-9.765625
8273		-11.718750
8274		-7.812500
8275		-9.765625
8276		-5.859375
8277		-7.812500
8278		-5.859375
8279		-5.859375
8280		-1.953125
8281		-5.859375
8282		-1.953125
8283		-1.953125
8284		0.000000
8285		0.000000
8286		1.953125
8287		0.000000
8288		3.906250
8289		1.953125
8290		5.859375
8291		3.906250
8292		9.765625
8293		5.859375
8294		9.765625
8295		7.812500
8296		11.718750
8297		9.765625
8298		13.671875
8299		11.718750
8300		15.625000
8301		13.671875
8302		17.578125
8303		15.625000
8304		19.531250
8305		15.625000
8306		21.484375
8307		17.578125
8308		21.484375
8309		19.531250
8310		23.437500
8311		21.484375
8312		25.390625
8313		23.437500
8314		27.343750
8315		25.390625
8316		29.296875
8317		27.343750
8318		31.250000
8319		29.296875
8320		33.203125
8321		31.250000
8322		35.156250
8323		33.203125
8324		35.156250
8325		33.203125
8326		37.109375
8327		35.156250
8328		39.062500
8329		37.109375
8330		39.062500
8331		37.109375
8332		41.015625
8333		39.062500
8334		42.968750
8335		41.015625
8336		44.921875
8337		42.968750
8338		46.875000
8339		42.968750
8340		46.875000
8341		44.921875
8342		48.828125
8343		46.875000
8344		50.781250
8345		48.828125
8346		50.781250
8347		48.828125
8348		52.734375
8349		50.781250
8350		54.687500
8351		50.781250
8352		54.687500
8353		52.734375
8354		56.640625
8355		54.687500
8356		56.640625
8357		54.687500
8358		58.593750
8359		54.687500
8360		58.593750
8361		56.640625
8362		60.546875
8363		58.593750
8364		62.500000
8365		58.593750
8366		62.500000
8367		58.593750
8368		62.500000
8369		60.546875
8370		62.500000
8371		60.546875
8372		64.453125
8373		62.500000
8374		66.406250
8375		62.500000
8376		66.406250
8377		64.453125
8378		66.406250
8379		64.453125
8380		66.406250
8381		64.453125
8382		68.359375
8383		64.453125
8384		68.359375
8385		66.406250
8386		68.359375
8387		66.406250
8388		68.359375
8389		66.406250
8390		70.312500
8391		66.406250
8392		70.312500
8393		68.359375
8394		70.312500
8395		68.359375
8396		70.312500
8397		68.359375
8398		72.265625
8399		68.359375
8400		72.265625
8401		68.359375
8402		72.265625
8403		68.359375
8404		72.265625
8405		68.359375
8406		72.265625
8407		68.359375
8408		72.265625
8409		68.359375
8410		72.265625
8411		68.359375
8412		72.265625
8413		68.359375
8414		72.265625
8415		68.359375
8416		72.265625
8417		68.359375
8418		72.265625
8419		68.359375
8420		72.265625
8421		68.359375
8422		72.265625
8423		68.359375
8424		70.312500
8425		66.406250
8426		70.312500
8427		66.406250
8428		70.312500
8429		66.406250
8430		70.312500
8431		66.406250
8432		70.312500
8433		66.406250
8434		68.359375
8435		64.453125
8436		68.359375
8437		64.453125
8438		68.359375
8439		64.453125
8440		66.406250
8441		64.453125
8442		66.406250
8443		62.500000
8444		66.406250
8445		62.500000
8446		64.453125
8447		60.546875
8448		64.453125
8449		60.546875
8450		64.453125
8451		58.593750
8452		62.500000
8453		58.593750
8454		62.500000
8455		56.640625
8456		60.546875
8457		56.640625
8458		60.546875
8459		54.687500
8460		58.593750
8461		54.687500
8462		56.640625
8463		52.734375
8464		56.640625
8465		50.781250
8466		56.640625
8467		50.781250
8468		54.687500
8469		50.781250
8470		52.734375
8471		48.828125
8472		52.734375
8473		46.875000
8474		50.781250
8475		46.875000
8476		48.828125
8477		44.921875
8478		48.828125
8479		42.968750
8480		46.875000
8481		41.015625
8482		44.921875
8483		41.015625
8484		44.921875
8485		39.062500
8486		42.968750
8487		37.109375
8488		41.015625
8489		35.156250
8490		39.062500
8491		35.156250
8492		37.109375
8493		31.250000
8494		37.109375
8495		31.250000
8496		35.156250
8497		29.296875
8498		33.203125
8499		27.343750
8500		31.250000
8501		25.390625
8502		29.296875
8503		23.437500
8504		29.296875
8505		21.484375
8506		25.390625
8507		19.531250
8508		25.390625
8509		17.578125
8510		23.437500
8511		17.578125
8512		21.484375
8513		15.625000
8514		19.531250
8515		13.671875
8516		17.578125
8517		11.718750
8518		15.625000
8519		9.765625
8520		13.671875
8521		7.812500
8522		13.671875
8523		5.859375
8524		9.765625
8525		3.906250
8526		7.812500
8527		1.953125
8528		5.859375
8529		0.000000
8530		3.906250
8531		-1.953125
8532		1.953125
8533		-3.906250
8534		1.953125
8535		-5.859375
8536		-1.953125
8537		-5.859375
8538		-1.953125
8539		-7.812500
8540		-5.859375
8541		-11.718750
8542		-5.859375
8543		-11.718750
8544		-7.812500
8545		-13.671875
8546		-9.765625
8547		-15.625000
8548		-11.718750
8549		-17.578125
8550		-13.671875
8551		-19.531250
8552		-15.625000
8553		-21.484375
8554		-17.578125
8555		-23.437500
8556		-19.531250
8557		-25.390625
8558		-21.484375
8559		-27.343750
8560		-23.437500
8561		-29.296875
8562		-25.390625
8563		-29.296875
8564		-27.343750
8565		-33.203125
8566		-29.296875
8567		-33.203125
8568		-29.296875
8569		-35.156250
8570		-31.250000
8571		-37.109375
8572		-33.203125
8573		-39.062500
8574		-35.156250
8575		-41.015625
8576		-37.109375
8577		-42.968750
8578		-39.062500
8579		-42.968750
8580		-39.062500
8581		-44.921875
8582		-41.015625
8583		-46.875000
8584		-42.968750
8585		-46.875000
8586		-42.968750
8587		-48.828125
8588		-44.921875
8589		-50.781250
8590		-46.875000
8591		-52.734375
8592		-46.875000
8593		-52.734375
8594		-48.828125
8595		-54.687500
8596		-48.828125
8597		-54.687500
8598		-52.734375
8599		-56.640625
8600		-52.734375
8601		-56.640625
8602		-54.687500
8603		-58.593750
8604		-54.687500
8605		-58.593750
8606		-56.640625
8607		-60.546875
8608		-56.640625
8609		-60.546875
8610		-56.640625
8611		-62.500000
8612		-58.593750
8613		-62.500000
8614		-60.546875
8615		-62.500000
8616		-60.546875
8617		-64.453125
8618		-60.546875
8619		-64.453125
8620		-62.500000
8621		-64.453125
8622		-62.500000
8623		-66.406250
8624		-62.500000
8625		-66.406250
8626		-64.453125
8627		-66.406250
8628		-62.500000
8629		-68.359375
8630		-64.453125
8631		-66.406250
8632		-64.453125
8633		-68.359375
8634		-64.453125
8635		-68.359375
8636		-64.453125
8637		-68.359375
8638		-64.453125
8639		-68.359375
8640		-66.406250
8641		-68.359375
8642		-66.406250
8643		-70.312500
8644		-64.453125
8645		-68.359375
8646		-64.453125
8647		-68.359375
8648		-66.406250
8649		-70.312500
8650		-64.453125
8651		-70.312500
8652		-64.453125
8653		-68.359375
8654		-64.453125
8655		-68.359375
8656		-64.453125
8657		-68.359375
8658		-62.500000
8659		-66.406250
8660		-64.453125
8661		-68.359375
8662		-62.500000
8663		-66.406250
8664		-62.500000
8665		-64.453125
8666		-62.500000
8667		-66.406250
8668		-60.546875
8669		-64.453125
8670		-60.546875
8671		-62.500000
8672		-60.546875
8673		-62.500000
8674		-60.546875
8675		-62.500000
8676		-58.593750
8677		-62.500000
8678		-56.640625
8679		-60.546875
8680		-56.640625
8681		-58.593750
8682		-56.640625
8683		-60.546875
8684		-52.734375
8685		-58.593750
8686		-50.781250
8687		-58.593750
8688		-50.781250
8689		-54.687500
8690		-52.734375
8691		-54.687500
8692		-48.828125
8693		-54.687500
8694		-46.875000
8695		-52.734375
8696		-46.875000
8697		-50.781250
8698		-46.875000
8699		-48.828125
8700		-46.875000
8701		-48.828125
8702		-42.968750
8703		-46.875000
8704		-41.015625
8705		-46.875000
8706		-41.015625
8707		-44.921875
8708		-39.062500
8709		-42.968750
8710		-37.109375
8711		-42.968750
8712		-35.156250
8713		-41.015625
8714		-35.156250
8715		-37.109375
8716		-33.203125
8717		-37.109375
8718		-31.250000
8719		-35.156250
8720		-29.296875
8721		-33.203125
8722		-27.343750
8723		-33.203125
8724		-25.390625
8725		-29.296875
8726		-23.437500
8727		-29.296875
8728		-21.484375
8729		-27.343750
8730		-21.484375
8731		-23.437500
8732		-19.531250
8733		-21.484375
8734		-17.578125
8735		-21.484375
8736		-15.625000
8737		-19.531250
8738		-13.671875
8739		-17.578125
8740		-11.718750
8741		-17.578125
8742		-9.765625
8743		-15.625000
8744		-7.812500
8745		-13.671875
8746		-5.859375
8747		-9.765625
8748		-5.859375
8749		-7.812500
8750		-3.906250
8751		-5.859375
8752		0.000000
8753		-5.859375
8754		1.953125
8755		-3.906250
8756		3.906250
8757		-1.953125
8758		3.906250
8759		0.000000
8760		7.812500
8761		1.953125
8762		9.765625
8763		5.859375
8764		9.765625
8765		7.812500
8766		11.718750
8767		7.812500
8768		15.625000
8769		9.765625
8770		15.625000
8771		11.718750
8772		17.578125
8773		13.671875
8774		19.531250
8775		15.625000
8776		21.484375
8777		15.625000
8778		23.437500
8779		17.578125
8780		25.390625
8781		21.484375
8782		25.390625
8783		23.437500
8784		27.343750
8785		23.437500
8786		29.296875
8787		25.390625
8788		31.250000
8789		25.390625
8790		33.203125
8791		27.343750
8792		35.156250
8793		29.296875
8794		37.109375
8795		31.250000
8796		39.062500
8797		35.156250
8798		39.062500
8799		37.109375
8800		39.062500
8801		37.109375
8802		42.968750
8803		37.109375
8804		44.921875
8805		39.062500
8806		46.875000
8807		41.015625
8808		48.828125
8809		42.968750
8810		48.828125
8811		42.968750
8812		48.828125
8813		44.921875
8814		50.781250
8815		48.828125
8816		50.781250
8817		48.828125
8818		52.734375
8819		48.828125
8820		56.640625
8821		48.828125
8822		56.640625
8823		50.781250
8824		56.640625
8825		52.734375
8826		58.593750
8827		52.734375
8828		60.546875
8829		54.687500
8830		60.546875
8831		56.640625
8832		60.546875
8833		58.593750
8834		60.546875
8835		56.640625
8836		64.453125
8837		58.593750
8838		64.453125
8839		58.593750
8840		66.406250
8841		58.593750
8842		66.406250
8843		60.546875
8844		66.406250
8845		60.546875
8846		68.359375
8847		62.500000
8848		66.406250
8849		64.453125
8850		68.359375
8851		64.453125
8852		70.312500
8853		64.453125
8854		70.312500
8855		64.453125
8856		70.312500
8857		64.453125
8858		72.265625
8859		66.406250
8860		72.265625
8861		66.406250
8862		72.265625
8863		66.406250
8864		72.265625
8865		68.359375
8866		72.265625
8867		68.359375
8868		72.265625
8869		66.406250
8870		74.218750
8871		66.406250
8872		74.218750
8873		66.406250
8874		74.218750
8875		68.359375
8876		74.218750
8877		68.359375
8878		74.218750
8879		68.359375
8880		74.218750
8881		70.312500
8882		72.265625
8883		70.312500
8884		72.265625
8885		66.406250
8886		74.218750
8887		68.359375
8888		74.218750
8889		66.406250
8890		74.218750
8891		68.359375
8892		74.218750
8893		66.406250
8894		72.265625
8895		66.406250
8896		74.218750
8897		66.406250
8898		72.265625
8899		68.359375
8900		70.312500
8901		66.406250
8902		70.312500
8903		64.453125
8904		72.265625
8905		64.453125
8906		70.312500
8907		64.453125
8908		70.312500
8909		64.453125
8910		70.312500
8911		62.500000
8912		70.312500
8913		62.500000
8914		68.359375
8915		64.453125
8916		66.406250
8917		62.500000
8918		66.406250
8919		60.546875
8920		66.406250
8921		58.593750
8922		66.406250
8923		58.593750
8924		64.453125
8925		56.640625
8926		64.453125
8927		56.640625
8928		62.500000
8929		54.687500
8930		62.500000
8931		56.640625
8932		60.546875
8933		54.687500
8934		58.593750
8935		52.734375
8936		58.593750
8937		50.781250
8938		56.640625
8939		50.781250
8940		56.640625
8941		48.828125
8942		54.687500
8943		46.875000
8944		54.687500
8945		46.875000
8946		52.734375
8947		44.921875
8948		50.781250
8949		44.921875
8950		48.828125
8951		42.968750
8952		46.875000
8953		41.015625
8954		46.875000
8955		39.062500
8956		46.875000
8957		37.109375
8958		44.921875
8959		35.156250
8960		42.968750
8961		35.156250
8962		41.015625
8963		33.203125
8964		41.015625
8965		33.203125
8966		37.109375
8967		31.250000
8968		35.156250
8969		27.343750
8970		33.203125
8971		25.390625
8972		33.203125
8973		25.390625
8974		31.250000
8975		23.437500
8976		29.296875
8977		21.484375
8978		29.296875
8979		19.531250
8980		27.343750
8981		17.578125
8982		25.390625
8983		17.578125
8984		21.484375
8985		15.625000
8986		19.531250
8987		11.718750
8988		19.531250
8989		9.765625
8990		17.578125
8991		9.765625
8992		15.625000
8993		7.812500
8994		13.671875
8995		3.906250
8996		11.718750
8997		3.906250
8998		9.765625
8999		3.906250
9000		5.859375
9001		1.953125
9002		5.859375
9003		-1.953125
9004		3.906250
9005		-3.906250
9006		1.953125
9007		-5.859375
9008		1.953125
9009		-7.812500
9010		0.000000
9011		-9.765625
9012		-3.906250
9013		-11.718750
9014		-3.906250
9015		-11.718750
9016		-5.859375
9017		-13.671875
9018		-9.765625
9019		-17.578125
9020		-11.718750
9021		-19.531250
9022		-11.718750
9023		-21.484375
9024		-13.671875
9025		-23.437500
9026		-15.625000
9027		-25.390625
9028		-17.578125
9029		-25.390625
9030		-19.531250
9031		-27.343750
9032		-21.484375
9033		-27.343750
9034		-25.390625
9035		-29.296875
9036		-25.390625
9037		-33.203125
9038		-25.390625
9039		-35.156250
9040		-27.343750
9041		-37.109375
9042		-29.296875
9043		-39.062500
9044		-31.250000
9045		-39.062500
9046		-33.203125
9047		-41.015625
9048		-33.203125
9049		-41.015625
9050		-37.109375
9051		-42.968750
9052		-39.062500
9053		-46.875000
9054		-39.062500
9055		-46.875000
9056		-41.015625
9057		-48.828125
9058		-41.015625
9059		-50.781250
9060		-42.968750
9061		-52.734375
9062		-44.921875
9063		-52.734375
9064		-44.921875
9065		-52.734375
9066		-46.875000
9067		-52.734375
9068		-50.781250
9069		-54.687500
9070		-50.781250
9071		-56.640625
9072		-50.781250
9073		-58.593750
9074		-50.781250
9075		-58.593750
9076		-52.734375
9077		-60.546875
9078		-52.734375
9079		-62.500000
9080		-54.687500
9081		-62.500000
9082		-54.687500
9083		-60.546875
9084		-58.593750
9085		-62.500000
9086		-58.593750
9087		-64.453125
9088		-58.593750
9089		-66.406250
9090		-58.593750
9091		-66.406250
9092		-60.546875
9093		-66.406250
9094		-60.546875
9095		-66.406250
9096		-60.546875
9097		-68.359375
9098		-60.546875
9099		-68.359375
9100		-60.546875
9101		-66.406250
9102		-64.453125
9103		-68.359375
9104		-62.500000
9105		-68.359375
9106		-64.453125
9107		-68.359375
9108		-62.500000
9109		-68.359375
9110		-64.453125
9111		-70.312500
9112		-64.453125
9113		-70.312500
9114		-64.453125
9115		-68.359375
9116		-64.453125
9117		-68.359375
9118		-64.453125
9119		-68.359375
9120		-66.406250
9121		-70.312500
9122		-62.500000
9123		-70.312500
9124		-62.500000
9125		-68.359375
9126		-62.500000
9127		-68.359375
9128		-62.500000
9129		-68.359375
9130		-62.500000
9131		-68.359375
9132		-62.500000
9133		-66.406250
9134		-62.500000
9135		-64.453125
9136		-62.500000
9137		-66.406250
9138		-60.546875
9139		-66.406250
9140		-60.546875
9141		-64.453125
9142		-58.593750
9143		-64.453125
9144		-58.593750
9145		-64.453125
9146		-56.640625
9147		-62.500000
9148		-56.640625
9149		-62.500000
9150		-56.640625
9151		-58.593750
9152		-56.640625
9153		-58.593750
9154		-54.687500
9155		-60.546875
9156		-52.734375
9157		-58.593750
9158		-50.781250
9159		-58.593750
9160		-50.781250
9161		-56.640625
9162		-48.828125
9163		-54.687500
9164		-46.875000
9165		-52.734375
9166		-46.875000
9167		-50.781250
9168		-46.875000
9169		-48.828125
9170		-46.875000
9171		-48.828125
9172		-42.968750
9173		-48.828125
9174		-41.015625
9175		-46.875000
9176		-41.015625
9177		-46.875000
9178		-39.062500
9179		-44.921875
9180		-37.109375
9181		-42.968750
9182		-35.156250
9183		-41.015625
9184		-35.156250
9185		-37.109375
9186		-35.156250
9187		-37.109375
9188		-31.250000
9189		-37.109375
9190		-29.296875
9191		-35.156250
9192		-27.343750
9193		-33.203125
9194		-25.390625
9195		-31.250000
9196		-23.437500
9197		-31.250000
9198		-23.437500
9199		-29.296875
9200		-21.484375
9201		-25.390625
9202		-21.484375
9203		-23.437500
9204		-19.531250
9205		-21.484375
9206		-15.625000
9207		-21.484375
9208		-13.671875
9209		-19.531250
9210		-11.718750
9211		-17.578125
9212		-9.765625
9213		-15.625000
9214		-7.812500
9215		-13.671875
9216		-5.859375
9217		-11.718750
9218		-5.859375
9219		-7.812500
9220		-5.859375
9221		-7.812500
9222		-1.953125
9223		-5.859375
9224		0.000000
9225		-3.906250
9226		3.906250
9227		-1.953125
9228		3.906250
9229		-1.953125
9230		5.859375
9231		1.953125
9232		7.812500
9233		1.953125
9234		9.765625
9235		5.859375
9236		9.765625
9237		7.812500
9238		11.718750
9239		7.812500
9240		15.625000
9241		9.765625
9242		17.578125
9243		11.718750
9244		19.531250
9245		13.671875
9246		21.484375
9247		15.625000
9248		23.437500
9249		17.578125
9250		23.437500
9251		19.531250
9252		23.437500
9253		21.484375
9254		25.390625
9255		23.437500
9256		29.296875
9257		23.437500
9258		31.250000
9259		25.390625
9260		33.203125
9261		27.343750
9262		35.156250
9263		29.296875
9264		35.156250
9265		31.250000
9266		37.109375
9267		31.250000
9268		37.109375
9269		35.156250
9270		39.062500
9271		37.109375
9272		41.015625
9273		37.109375
9274		42.968750
9275		37.109375
9276		44.921875
9277		39.062500
9278		46.875000
9279		41.015625
9280		48.828125
9281		42.968750
9282		48.828125
9283		44.921875
9284		50.781250
9285		46.875000
9286		50.781250
9287		48.828125
9288		52.734375
9289		46.875000
9290		54.687500
9291		48.828125
9292		54.687500
9293		48.828125
9294		56.640625
9295		50.781250
9296		58.593750
9297		52.734375
9298		60.546875
9299		54.687500
9300		60.546875
9301		54.687500
9302		60.546875
9303		56.640625
9304		60.546875
9305		56.640625
9306		64.453125
9307		58.593750
9308		64.453125
9309		58.593750
9310		64.453125
9311		60.546875
9312		66.406250
9313		60.546875
9314		66.406250
9315		60.546875
9316		68.359375
9317		62.500000
9318		68.359375
9319		64.453125
9320		66.406250
9321		64.453125
9322		68.359375
9323		64.453125
9324		70.312500
9325		64.453125
9326		70.312500
9327		64.453125
9328		70.312500
9329		64.453125
9330		72.265625
9331		66.406250
9332		72.265625
9333		66.406250
9334		72.265625
9335		66.406250
9336		72.265625
9337		68.359375
9338		72.265625
9339		68.359375
9340		74.218750
9341		66.406250
9342		74.218750
9343		66.406250
9344		74.218750
9345		68.359375
9346		74.218750
9347		68.359375
9348		74.218750
9349		68.359375
9350		74.218750
9351		68.359375
9352		74.218750
9353		70.312500
9354		72.265625
9355		68.359375
9356		74.218750
9357		68.359375
9358		74.218750
9359		68.359375
9360		74.218750
9361		68.359375
9362		74.218750
9363		66.406250
9364		74.218750
9365		66.406250
9366		74.218750
9367		66.406250
9368		72.265625
9369		68.359375
9370		70.312500
9371		68.359375
9372		70.312500
9373		66.406250
9374		72.265625
9375		64.453125
9376		72.265625
9377		64.453125
9378		70.312500
9379		64.453125
9380		70.312500
9381		62.500000
9382		70.312500
9383		62.500000
9384		70.312500
9385		62.500000
9386		68.359375
9387		64.453125
9388		66.406250
9389		60.546875
9390		66.406250
9391		60.546875
9392		66.406250
9393		58.593750
9394		66.406250
9395		58.593750
9396		64.453125
9397		56.640625
9398		64.453125
9399		56.640625
9400		62.500000
9401		56.640625
9402		62.500000
9403		56.640625
9404		58.593750
9405		54.687500
9406		58.593750
9407		50.781250
9408		58.593750
9409		50.781250
9410		56.640625
9411		48.828125
9412		56.640625
9413		48.828125
9414		54.687500
9415		46.875000
9416		54.687500
9417		44.921875
9418		52.734375
9419		44.921875
9420		50.781250
9421		44.921875
9422		48.828125
9423		41.015625
9424		46.875000
9425		41.015625
9426		46.875000
9427		39.062500
9428		44.921875
9429		37.109375
9430		44.921875
9431		35.156250
9432		42.968750
9433		35.156250
9434		41.015625
9435		33.203125
9436		39.062500
9437		33.203125
9438		35.156250
9439		29.296875
9440		35.156250
9441		27.343750
9442		35.156250
9443		25.390625
9444		33.203125
9445		23.437500
9446		31.250000
9447		23.437500
9448		29.296875
9449		21.484375
9450		27.343750
9451		19.531250
9452		25.390625
9453		19.531250
9454		23.437500
9455		17.578125
9456		21.484375
9457		13.671875
9458		19.531250
9459		11.718750
9460		19.531250
9461		9.765625
9462		17.578125
9463		7.812500
9464		15.625000
9465		5.859375
9466		13.671875
9467		3.906250
9468		11.718750
9469		3.906250
9470		9.765625
9471		1.953125
9472		5.859375
9473		-1.953125
9474		3.906250
9475		-1.953125
9476		3.906250
9477		-3.906250
9478		1.953125
9479		-5.859375
9480		0.000000
9481		-7.812500
9482		-1.953125
9483		-11.718750
9484		-3.906250
9485		-11.718750
9486		-3.906250
9487		-11.718750
9488		-7.812500
9489		-13.671875
9490		-9.765625
9491		-17.578125
9492		-9.765625
9493		-19.531250
9494		-11.718750
9495		-21.484375
9496		-13.671875
9497		-23.437500
9498		-15.625000
9499		-25.390625
9500		-17.578125
9501		-25.390625
9502		-19.531250
9503		-27.343750
9504		-21.484375
9505		-29.296875
9506		-25.390625
9507		-31.250000
9508		-25.390625
9509		-33.203125
9510		-27.343750
9511		-37.109375
9512		-27.343750
9513		-37.109375
9514		-29.296875
9515		-39.062500
9516		-31.250000
9517		-41.015625
9518		-33.203125
9519		-41.015625
9520		-35.156250
9521		-41.015625
9522		-39.062500
9523		-42.968750
9524		-39.062500
9525		-46.875000
9526		-39.062500
9527		-46.875000
9528		-41.015625
9529		-48.828125
9530		-42.968750
9531		-50.781250
9532		-42.968750
9533		-52.734375
9534		-44.921875
9535		-52.734375
9536		-44.921875
9537		-52.734375
9538		-46.875000
9539		-52.734375
9540		-50.781250
9541		-56.640625
9542		-50.781250
9543		-58.593750
9544		-50.781250
9545		-58.593750
9546		-50.781250
9547		-60.546875
9548		-52.734375
9549		-60.546875
9550		-52.734375
9551		-62.500000
9552		-54.687500
9553		-60.546875
9554		-56.640625
9555		-60.546875
9556		-58.593750
9557		-64.453125
9558		-58.593750
9559		-64.453125
9560		-58.593750
9561		-66.406250
9562		-58.593750
9563		-66.406250
9564		-58.593750
9565		-66.406250
9566		-60.546875
9567		-68.359375
9568		-60.546875
9569		-68.359375
9570		-60.546875
9571		-66.406250
9572		-64.453125
9573		-66.406250
9574		-64.453125
9575		-68.359375
9576		-62.500000
9577		-68.359375
9578		-62.500000
9579		-70.312500
9580		-62.500000
9581		-70.312500
9582		-62.500000
9583		-70.312500
9584		-62.500000
9585		-70.312500
9586		-62.500000
9587		-70.312500
9588		-64.453125
9589		-68.359375
9590		-64.453125
9591		-70.312500
9592		-62.500000
9593		-70.312500
9594		-62.500000
9595		-70.312500
9596		-62.500000
9597		-68.359375
9598		-62.500000
9599		-68.359375
9600		-62.500000
9601		-68.359375
9602		-60.546875
9603		-68.359375
9604		-62.500000
9605		-64.453125
9606		-62.500000
9607		-66.406250
9608		-60.546875
9609		-66.406250
9610		-60.546875
9611		-66.406250
9612		-58.593750
9613		-64.453125
9614		-58.593750
9615		-64.453125
9616		-56.640625
9617		-64.453125
9618		-56.640625
9619		-62.500000
9620		-56.640625
9621		-60.546875
9622		-56.640625
9623		-58.593750
9624		-56.640625
9625		-58.593750
9626		-52.734375
9627		-58.593750
9628		-52.734375
9629		-58.593750
9630		-50.781250
9631		-56.640625
9632		-50.781250
9633		-56.640625
9634		-48.828125
9635		-54.687500
9636		-46.875000
9637		-52.734375
9638		-46.875000
9639		-50.781250
9640		-46.875000
9641		-50.781250
9642		-42.968750
9643		-50.781250
9644		-42.968750
9645		-48.828125
9646		-41.015625
9647		-46.875000
9648		-39.062500
9649		-44.921875
9650		-37.109375
9651		-42.968750
9652		-37.109375
9653		-42.968750
9654		-35.156250
9655		-39.062500
9656		-35.156250
9657		-37.109375
9658		-33.203125
9659		-37.109375
9660		-29.296875
9661		-35.156250
9662		-29.296875
9663		-33.203125
9664		-27.343750
9665		-33.203125
9666		-25.390625
9667		-31.250000
9668		-23.437500
9669		-29.296875
9670		-21.484375
9671		-27.343750
9672		-21.484375
9673		-23.437500
9674		-19.531250
9675		-21.484375
9676		-17.578125
9677		-23.437500
9678		-15.625000
9679		-21.484375
9680		-13.671875
9681		-17.578125
9682		-11.718750
9683		-15.625000
9684		-9.765625
9685		-15.625000
9686		-7.812500
9687		-13.671875
9688		-7.812500
9689		-9.765625
9690		-5.859375
9691		-7.812500
9692		-3.906250
9693		-7.812500
9694		0.000000
9695		-5.859375
9696		1.953125
9697		-3.906250
9698		3.906250
9699		-1.953125
9700		5.859375
9701		0.000000
9702		5.859375
9703		1.953125
9704		9.765625
9705		5.859375
9706		9.765625
9707		7.812500
9708		9.765625
9709		7.812500
9710		13.671875
9711		9.765625
9712		15.625000
9713		9.765625
9714		17.578125
9715		11.718750
9716		19.531250
9717		15.625000
9718		21.484375
9719		15.625000
9720		23.437500
9721		17.578125
9722		23.437500
9723		21.484375
9724		25.390625
9725		23.437500
9726		27.343750
9727		23.437500
9728		29.296875
9729		25.390625
9730		31.250000
9731		25.390625
9732		33.203125
9733		27.343750
9734		35.156250
9735		29.296875
9736		37.109375
9737		31.250000
9738		39.062500
9739		35.156250
9740		37.109375
9741		37.109375
9742		39.062500
9743		37.109375
9744		42.968750
9745		37.109375
9746		44.921875
9747		39.062500
9748		44.921875
9749		39.062500
9750		46.875000
9751		41.015625
9752		48.828125
9753		42.968750
9754		50.781250
9755		44.921875
9756		50.781250
9757		48.828125
9758		50.781250
9759		48.828125
9760		54.687500
9761		48.828125
9762		54.687500
9763		48.828125
9764		56.640625
9765		50.781250
9766		56.640625
9767		52.734375
9768		58.593750
9769		52.734375
9770		60.546875
9771		54.687500
9772		60.546875
9773		56.640625
9774		60.546875
9775		58.593750
9776		60.546875
9777		56.640625
9778		64.453125
9779		58.593750
9780		64.453125
9781		58.593750
9782		66.406250
9783		60.546875
9784		66.406250
9785		60.546875
9786		68.359375
9787		62.500000
9788		68.359375
9789		64.453125
9790		66.406250
9791		64.453125
9792		68.359375
9793		62.500000
9794		70.312500
9795		64.453125
9796		70.312500
9797		64.453125
9798		70.312500
9799		64.453125
9800		72.265625
9801		66.406250
9802		72.265625
9803		66.406250
9804		72.265625
9805		66.406250
9806		72.265625
9807		68.359375
9808		72.265625
9809		68.359375
9810		74.218750
9811		66.406250
9812		74.218750
9813		68.359375
9814		74.218750
9815		68.359375
9816		74.218750
9817		68.359375
9818		74.218750
9819		68.359375
9820		74.218750
9821		68.359375
9822		74.218750
9823		70.312500
9824		72.265625
9825		70.312500
9826		72.265625
9827		68.359375
9828		74.218750
9829		68.359375
9830		74.218750
9831		68.359375
9832		74.218750
9833		68.359375
9834		74.218750
9835		66.406250
9836		74.218750
9837		68.359375
9838		74.218750
9839		68.359375
9840		72.265625
9841		68.359375
9842		70.312500
9843		66.406250
9844		72.265625
9845		66.406250
9846		72.265625
9847		66.406250
9848		72.265625
9849		64.453125
9850		72.265625
9851		64.453125
9852		70.312500
9853		64.453125
9854		70.312500
9855		64.453125
9856		70.312500
9857		64.453125
9858		66.406250
9859		64.453125
9860		66.406250
9861		60.546875
9862		66.406250
9863		60.546875
9864		66.406250
9865		58.593750
9866		66.406250
9867		58.593750
9868		64.453125
9869		56.640625
9870		64.453125
9871		56.640625
9872		62.500000
9873		56.640625
9874		60.546875
9875		56.640625
9876		58.593750
9877		52.734375
9878		58.593750
9879		50.781250
9880		58.593750
9881		50.781250
9882		56.640625
9883		48.828125
9884		56.640625
9885		48.828125
9886		54.687500
9887		46.875000
9888		54.687500
9889		46.875000
9890		52.734375
9891		46.875000
9892		48.828125
9893		42.968750
9894		48.828125
9895		41.015625
9896		48.828125
9897		39.062500
9898		46.875000
9899		39.062500
9900		46.875000
9901		37.109375
9902		44.921875
9903		35.156250
9904		42.968750
9905		35.156250
9906		41.015625
9907		33.203125
9908		37.109375
9909		33.203125
9910		35.156250
9911		29.296875
9912		35.156250
9913		27.343750
9914		33.203125
9915		25.390625
9916		33.203125
9917		23.437500
9918		31.250000
9919		21.484375
9920		29.296875
9921		21.484375
9922		27.343750
9923		19.531250
9924		25.390625
9925		19.531250
9926		21.484375
9927		15.625000
9928		21.484375
9929		13.671875
9930		19.531250
9931		11.718750
9932		19.531250
9933		9.765625
9934		17.578125
9935		7.812500
9936		15.625000
9937		5.859375
9938		11.718750
9939		3.906250
9940		11.718750
9941		3.906250
9942		7.812500
9943		1.953125
9944		5.859375
9945		-1.953125
9946		5.859375
9947		-1.953125
9948		3.906250
9949		-5.859375
9950		1.953125
9951		-7.812500
9952		0.000000
9953		-9.765625
9954		-1.953125
9955		-11.718750
9956		-1.953125
9957		-9.765625
9958		-5.859375
9959		-11.718750
9960		-9.765625
9961		-17.578125
9962		-9.765625
9963		-17.578125
9964		-9.765625
9965		-19.531250
9966		-13.671875
9967		-21.484375
9968		-15.625000
9969		-23.437500
9970		-15.625000
9971		-25.390625
9972		-17.578125
9973		-25.390625
9974		-19.531250
9975		-27.343750
9976		-23.437500
9977		-31.250000
9978		-23.437500
9979		-33.203125
9980		-25.390625
9981		-33.203125
9982		-27.343750
9983		-35.156250
9984		-27.343750
9985		-37.109375
9986		-29.296875
9987		-39.062500
9988		-31.250000
9989		-41.015625
9990		-33.203125
9991		-39.062500
9992		-37.109375
9993		-41.015625
9994		-39.062500
9995		-44.921875
9996		-39.062500
9997		-46.875000
9998		-39.062500
9999		-48.828125
10000		-41.015625
