Channel              :		CH1
Frequency            :		1.061kHz
Period               :		0.942ms
PK-PK                :		300.8mV
Probe attenuation    :		1X
Voltage per ADC value:		0.122070mV
Time interval        :		2.00000us

index		CH1_Voltage(mV)
1		105.468750
2		105.468750
3		99.609375
4		103.515625
5		95.703125
6		99.609375
7		91.796875
8		97.656250
9		89.843750
10		95.703125
11		87.890625
12		91.796875
13		83.984375
14		89.843750
15		82.031250
16		85.937500
17		78.125000
18		82.031250
19		74.218750
20		80.078125
21		72.265625
22		76.171875
23		68.359375
24		74.218750
25		64.453125
26		70.312500
27		60.546875
28		66.406250
29		56.640625
30		62.500000
31		54.687500
32		58.593750
33		50.781250
34		56.640625
35		46.875000
36		52.734375
37		42.968750
38		50.781250
39		39.062500
40		44.921875
41		37.109375
42		41.015625
43		33.203125
44		37.109375
45		29.296875
46		33.203125
47		23.437500
48		29.296875
49		21.484375
50		27.343750
51		17.578125
52		21.484375
53		13.671875
54		19.531250
55		9.765625
56		15.625000
57		5.859375
58		11.718750
59		1.953125
60		7.812500
61		-3.906250
62		3.906250
63		-5.859375
64		0.000000
65		-9.765625
66		-3.906250
67		-13.671875
68		-7.812500
69		-17.578125
70		-11.718750
71		-21.484375
72		-15.625000
73		-25.390625
74		-19.531250
75		-29.296875
76		-25.390625
77		-33.203125
78		-27.343750
79		-37.109375
80		-31.250000
81		-41.015625
82		-35.156250
83		-44.921875
84		-39.062500
85		-48.828125
86		-42.968750
87		-52.734375
88		-46.875000
89		-56.640625
90		-50.781250
91		-60.546875
92		-54.687500
93		-62.500000
94		-58.593750
95		-66.406250
96		-58.593750
97		-70.312500
98		-64.453125
99		-74.218750
100		-68.359375
101		-76.171875
102		-72.265625
103		-80.078125
104		-76.171875
105		-83.984375
106		-78.125000
107		-87.890625
108		-82.031250
109		-89.843750
110		-83.984375
111		-93.750000
112		-87.890625
113		-97.656250
114		-91.796875
115		-99.609375
116		-93.750000
117		-101.562500
118		-97.656250
119		-105.468750
120		-99.609375
121		-107.421875
122		-101.562500
123		-111.328125
124		-105.468750
125		-113.281250
126		-105.468750
127		-117.187500
128		-109.375000
129		-119.140625
130		-111.328125
131		-119.140625
132		-115.234375
133		-121.093750
134		-117.187500
135		-123.046875
136		-119.140625
137		-126.953125
138		-121.093750
139		-128.906250
140		-123.046875
141		-130.859375
142		-125.000000
143		-132.812500
144		-126.953125
145		-134.765625
146		-126.953125
147		-136.718750
148		-130.859375
149		-136.718750
150		-130.859375
151		-136.718750
152		-132.812500
153		-138.671875
154		-132.812500
155		-140.625000
156		-132.812500
157		-140.625000
158		-134.765625
159		-142.578125
160		-134.765625
161		-142.578125
162		-134.765625
163		-142.578125
164		-136.718750
165		-142.578125
166		-136.718750
167		-140.625000
168		-138.671875
169		-142.578125
170		-138.671875
171		-144.531250
172		-136.718750
173		-144.531250
174		-136.718750
175		-142.578125
176		-136.718750
177		-144.531250
178		-136.718750
179		-142.578125
180		-136.718750
181		-142.578125
182		-136.718750
183		-140.625000
184		-136.718750
185		-138.671875
186		-136.718750
187		-138.671875
188		-132.812500
189		-138.671875
190		-132.812500
191		-136.718750
192		-130.859375
193		-136.718750
194		-130.859375
195		-134.765625
196		-128.906250
197		-132.812500
198		-126.953125
199		-130.859375
200		-125.000000
201		-128.906250
202		-125.000000
203		-126.953125
204		-123.046875
205		-126.953125
206		-119.140625
207		-125.000000
208		-117.187500
209		-123.046875
210		-115.234375
211		-121.093750
212		-113.281250
213		-119.140625
214		-111.328125
215		-115.234375
216		-107.421875
217		-111.328125
218		-107.421875
219		-109.375000
220		-105.468750
221		-107.421875
222		-99.609375
223		-105.468750
224		-97.656250
225		-101.562500
226		-95.703125
227		-99.609375
228		-89.843750
229		-95.703125
230		-87.890625
231		-93.750000
232		-85.937500
233		-89.843750
234		-83.984375
235		-83.984375
236		-80.078125
237		-82.031250
238		-76.171875
239		-80.078125
240		-72.265625
241		-76.171875
242		-66.406250
243		-72.265625
244		-64.453125
245		-68.359375
246		-60.546875
247		-66.406250
248		-56.640625
249		-60.546875
250		-54.687500
251		-56.640625
252		-50.781250
253		-52.734375
254		-46.875000
255		-48.828125
256		-42.968750
257		-46.875000
258		-37.109375
259		-42.968750
260		-35.156250
261		-39.062500
262		-31.250000
263		-35.156250
264		-27.343750
265		-31.250000
266		-21.484375
267		-25.390625
268		-19.531250
269		-21.484375
270		-15.625000
271		-17.578125
272		-9.765625
273		-15.625000
274		-5.859375
275		-9.765625
276		-3.906250
277		-7.812500
278		0.000000
279		-3.906250
280		5.859375
281		1.953125
282		9.765625
283		3.906250
284		11.718750
285		9.765625
286		15.625000
287		13.671875
288		19.531250
289		15.625000
290		25.390625
291		21.484375
292		29.296875
293		23.437500
294		33.203125
295		27.343750
296		37.109375
297		31.250000
298		39.062500
299		35.156250
300		42.968750
301		41.015625
302		44.921875
303		44.921875
304		48.828125
305		46.875000
306		52.734375
307		48.828125
308		58.593750
309		52.734375
310		62.500000
311		56.640625
312		64.453125
313		60.546875
314		68.359375
315		62.500000
316		70.312500
317		66.406250
318		72.265625
319		72.265625
320		76.171875
321		74.218750
322		80.078125
323		76.171875
324		83.984375
325		78.125000
326		85.937500
327		82.031250
328		89.843750
329		85.937500
330		91.796875
331		87.890625
332		95.703125
333		89.843750
334		97.656250
335		95.703125
336		99.609375
337		97.656250
338		101.562500
339		99.609375
340		105.468750
341		101.562500
342		109.375000
343		103.515625
344		111.328125
345		105.468750
346		113.281250
347		107.421875
348		115.234375
349		111.328125
350		119.140625
351		111.328125
352		119.140625
353		117.187500
354		121.093750
355		117.187500
356		123.046875
357		119.140625
358		126.953125
359		121.093750
360		128.906250
361		123.046875
362		128.906250
363		123.046875
364		132.812500
365		126.953125
366		132.812500
367		126.953125
368		134.765625
369		130.859375
370		134.765625
371		132.812500
372		136.718750
373		130.859375
374		138.671875
375		132.812500
376		138.671875
377		134.765625
378		140.625000
379		134.765625
380		142.578125
381		136.718750
382		144.531250
383		136.718750
384		144.531250
385		138.671875
386		142.578125
387		140.625000
388		144.531250
389		140.625000
390		146.484375
391		140.625000
392		148.437500
393		140.625000
394		148.437500
395		142.578125
396		148.437500
397		142.578125
398		148.437500
399		142.578125
400		148.437500
401		142.578125
402		148.437500
403		144.531250
404		146.484375
405		144.531250
406		148.437500
407		142.578125
408		150.390625
409		142.578125
410		148.437500
411		142.578125
412		148.437500
413		142.578125
414		150.390625
415		142.578125
416		148.437500
417		142.578125
418		148.437500
419		144.531250
420		146.484375
421		142.578125
422		144.531250
423		140.625000
424		146.484375
425		140.625000
426		146.484375
427		138.671875
428		144.531250
429		138.671875
430		144.531250
431		136.718750
432		144.531250
433		136.718750
434		142.578125
435		136.718750
436		142.578125
437		136.718750
438		138.671875
439		132.812500
440		138.671875
441		130.859375
442		138.671875
443		128.906250
444		136.718750
445		128.906250
446		134.765625
447		126.953125
448		134.765625
449		125.000000
450		132.812500
451		125.000000
452		130.859375
453		123.046875
454		126.953125
455		121.093750
456		125.000000
457		117.187500
458		125.000000
459		115.234375
460		123.046875
461		113.281250
462		121.093750
463		111.328125
464		119.140625
465		109.375000
466		117.187500
467		105.468750
468		115.234375
469		105.468750
470		111.328125
471		103.515625
472		107.421875
473		99.609375
474		105.468750
475		95.703125
476		103.515625
477		93.750000
478		101.562500
479		91.796875
480		99.609375
481		87.890625
482		97.656250
483		85.937500
484		93.750000
485		83.984375
486		89.843750
487		80.078125
488		85.937500
489		76.171875
490		82.031250
491		72.265625
492		80.078125
493		68.359375
494		76.171875
495		66.406250
496		74.218750
497		62.500000
498		72.265625
499		58.593750
500		66.406250
501		56.640625
502		64.453125
503		54.687500
504		58.593750
505		50.781250
506		54.687500
507		44.921875
508		52.734375
509		41.015625
510		48.828125
511		39.062500
512		46.875000
513		33.203125
514		42.968750
515		29.296875
516		39.062500
517		27.343750
518		33.203125
519		23.437500
520		31.250000
521		19.531250
522		25.390625
523		13.671875
524		21.484375
525		11.718750
526		19.531250
527		7.812500
528		15.625000
529		3.906250
530		11.718750
531		0.000000
532		7.812500
533		-3.906250
534		3.906250
535		-7.812500
536		0.000000
537		-11.718750
538		-5.859375
539		-13.671875
540		-9.765625
541		-19.531250
542		-11.718750
543		-23.437500
544		-15.625000
545		-27.343750
546		-19.531250
547		-33.203125
548		-23.437500
549		-35.156250
550		-27.343750
551		-41.015625
552		-31.250000
553		-41.015625
554		-37.109375
555		-44.921875
556		-41.015625
557		-50.781250
558		-44.921875
559		-54.687500
560		-44.921875
561		-58.593750
562		-48.828125
563		-62.500000
564		-54.687500
565		-64.453125
566		-56.640625
567		-70.312500
568		-60.546875
569		-70.312500
570		-64.453125
571		-74.218750
572		-70.312500
573		-78.125000
574		-72.265625
575		-83.984375
576		-74.218750
577		-85.937500
578		-78.125000
579		-89.843750
580		-80.078125
581		-91.796875
582		-83.984375
583		-93.750000
584		-87.890625
585		-97.656250
586		-91.796875
587		-99.609375
588		-95.703125
589		-101.562500
590		-97.656250
591		-107.421875
592		-99.609375
593		-111.328125
594		-101.562500
595		-111.328125
596		-105.468750
597		-115.234375
598		-107.421875
599		-117.187500
600		-109.375000
601		-119.140625
602		-113.281250
603		-119.140625
604		-113.281250
605		-121.093750
606		-117.187500
607		-126.953125
608		-121.093750
609		-128.906250
610		-121.093750
611		-128.906250
612		-123.046875
613		-132.812500
614		-125.000000
615		-132.812500
616		-126.953125
617		-134.765625
618		-126.953125
619		-136.718750
620		-128.906250
621		-134.765625
622		-132.812500
623		-136.718750
624		-132.812500
625		-140.625000
626		-132.812500
627		-140.625000
628		-132.812500
629		-142.578125
630		-134.765625
631		-142.578125
632		-134.765625
633		-142.578125
634		-136.718750
635		-144.531250
636		-136.718750
637		-142.578125
638		-138.671875
639		-142.578125
640		-138.671875
641		-144.531250
642		-138.671875
643		-144.531250
644		-136.718750
645		-144.531250
646		-136.718750
647		-144.531250
648		-138.671875
649		-144.531250
650		-136.718750
651		-142.578125
652		-136.718750
653		-140.625000
654		-136.718750
655		-140.625000
656		-136.718750
657		-140.625000
658		-136.718750
659		-140.625000
660		-132.812500
661		-138.671875
662		-132.812500
663		-138.671875
664		-130.859375
665		-136.718750
666		-130.859375
667		-136.718750
668		-128.906250
669		-134.765625
670		-126.953125
671		-132.812500
672		-126.953125
673		-128.906250
674		-125.000000
675		-128.906250
676		-121.093750
677		-126.953125
678		-119.140625
679		-125.000000
680		-117.187500
681		-123.046875
682		-115.234375
683		-121.093750
684		-113.281250
685		-117.187500
686		-111.328125
687		-115.234375
688		-109.375000
689		-111.328125
690		-107.421875
691		-109.375000
692		-103.515625
693		-107.421875
694		-101.562500
695		-105.468750
696		-97.656250
697		-101.562500
698		-93.750000
699		-97.656250
700		-91.796875
701		-95.703125
702		-87.890625
703		-93.750000
704		-85.937500
705		-87.890625
706		-83.984375
707		-83.984375
708		-80.078125
709		-82.031250
710		-74.218750
711		-80.078125
712		-72.265625
713		-76.171875
714		-68.359375
715		-72.265625
716		-64.453125
717		-70.312500
718		-60.546875
719		-64.453125
720		-56.640625
721		-60.546875
722		-54.687500
723		-56.640625
724		-50.781250
725		-52.734375
726		-46.875000
727		-50.781250
728		-41.015625
729		-46.875000
730		-37.109375
731		-42.968750
732		-35.156250
733		-39.062500
734		-31.250000
735		-35.156250
736		-25.390625
737		-29.296875
738		-23.437500
739		-25.390625
740		-19.531250
741		-21.484375
742		-15.625000
743		-19.531250
744		-9.765625
745		-13.671875
746		-5.859375
747		-11.718750
748		-3.906250
749		-7.812500
750		1.953125
751		-3.906250
752		3.906250
753		0.000000
754		7.812500
755		3.906250
756		11.718750
757		9.765625
758		15.625000
759		13.671875
760		21.484375
761		15.625000
762		23.437500
763		19.531250
764		27.343750
765		23.437500
766		31.250000
767		27.343750
768		37.109375
769		31.250000
770		39.062500
771		33.203125
772		41.015625
773		41.015625
774		44.921875
775		42.968750
776		50.781250
777		44.921875
778		54.687500
779		48.828125
780		58.593750
781		54.687500
782		60.546875
783		56.640625
784		64.453125
785		60.546875
786		68.359375
787		62.500000
788		70.312500
789		68.359375
790		72.265625
791		72.265625
792		76.171875
793		72.265625
794		80.078125
795		76.171875
796		83.984375
797		78.125000
798		87.890625
799		82.031250
800		89.843750
801		83.984375
802		91.796875
803		87.890625
804		95.703125
805		91.796875
806		95.703125
807		95.703125
808		99.609375
809		97.656250
810		103.515625
811		99.609375
812		105.468750
813		101.562500
814		109.375000
815		103.515625
816		111.328125
817		105.468750
818		113.281250
819		109.375000
820		117.187500
821		109.375000
822		117.187500
823		115.234375
824		117.187500
825		117.187500
826		119.140625
827		117.187500
828		125.000000
829		119.140625
830		126.953125
831		121.093750
832		126.953125
833		123.046875
834		130.859375
835		125.000000
836		130.859375
837		126.953125
838		132.812500
839		128.906250
840		132.812500
841		130.859375
842		134.765625
843		130.859375
844		136.718750
845		130.859375
846		138.671875
847		132.812500
848		140.625000
849		134.765625
850		140.625000
851		134.765625
852		142.578125
853		134.765625
854		142.578125
855		136.718750
856		144.531250
857		138.671875
858		142.578125
859		140.625000
860		144.531250
861		138.671875
862		146.484375
863		140.625000
864		146.484375
865		140.625000
866		148.437500
867		140.625000
868		148.437500
869		142.578125
870		148.437500
871		142.578125
872		148.437500
873		144.531250
874		146.484375
875		144.531250
876		146.484375
877		142.578125
878		150.390625
879		142.578125
880		150.390625
881		142.578125
882		148.437500
883		142.578125
884		148.437500
885		142.578125
886		148.437500
887		142.578125
888		148.437500
889		140.625000
890		148.437500
891		142.578125
892		146.484375
893		142.578125
894		146.484375
895		140.625000
896		146.484375
897		138.671875
898		146.484375
899		136.718750
900		146.484375
901		136.718750
902		142.578125
903		136.718750
904		142.578125
905		136.718750
906		142.578125
907		136.718750
908		138.671875
909		134.765625
910		138.671875
911		132.812500
912		138.671875
913		132.812500
914		136.718750
915		128.906250
916		136.718750
917		128.906250
918		132.812500
919		126.953125
920		132.812500
921		125.000000
922		130.859375
923		125.000000
924		128.906250
925		123.046875
926		126.953125
927		119.140625
928		125.000000
929		117.187500
930		123.046875
931		115.234375
932		121.093750
933		113.281250
934		119.140625
935		111.328125
936		117.187500
937		107.421875
938		115.234375
939		107.421875
940		113.281250
941		105.468750
942		109.375000
943		101.562500
944		107.421875
945		97.656250
946		105.468750
947		95.703125
948		103.515625
949		93.750000
950		99.609375
951		89.843750
952		97.656250
953		85.937500
954		95.703125
955		83.984375
956		91.796875
957		82.031250
958		87.890625
959		80.078125
960		83.984375
961		74.218750
962		82.031250
963		70.312500
964		80.078125
965		68.359375
966		76.171875
967		66.406250
968		72.265625
969		60.546875
970		70.312500
971		56.640625
972		66.406250
973		56.640625
974		62.500000
975		52.734375
976		58.593750
977		46.875000
978		54.687500
979		42.968750
980		52.734375
981		41.015625
982		48.828125
983		35.156250
984		44.921875
985		33.203125
986		41.015625
987		29.296875
988		37.109375
989		27.343750
990		33.203125
991		23.437500
992		27.343750
993		19.531250
994		23.437500
995		13.671875
996		21.484375
997		9.765625
998		17.578125
999		5.859375
1000		13.671875
1001		1.953125
1002		9.765625
1003		-1.953125
1004		5.859375
1005		-5.859375
1006		1.953125
1007		-7.812500
1008		-1.953125
1009		-11.718750
1010		-7.812500
1011		-17.578125
1012		-11.718750
1013		-21.484375
1014		-13.671875
1015		-27.343750
1016		-17.578125
1017		-29.296875
1018		-21.484375
1019		-33.203125
1020		-25.390625
1021		-37.109375
1022		-29.296875
1023		-39.062500
1024		-33.203125
1025		-42.968750
1026		-37.109375
1027		-46.875000
1028		-42.968750
1029		-52.734375
1030		-42.968750
1031		-56.640625
1032		-46.875000
1033		-60.546875
1034		-52.734375
1035		-64.453125
1036		-54.687500
1037		-66.406250
1038		-58.593750
1039		-70.312500
1040		-62.500000
1041		-72.265625
1042		-68.359375
1043		-76.171875
1044		-70.312500
1045		-82.031250
1046		-74.218750
1047		-83.984375
1048		-76.171875
1049		-87.890625
1050		-80.078125
1051		-91.796875
1052		-82.031250
1053		-95.703125
1054		-85.937500
1055		-97.656250
1056		-89.843750
1057		-97.656250
1058		-91.796875
1059		-101.562500
1060		-97.656250
1061		-105.468750
1062		-99.609375
1063		-107.421875
1064		-101.562500
1065		-111.328125
1066		-103.515625
1067		-113.281250
1068		-105.468750
1069		-115.234375
1070		-109.375000
1071		-119.140625
1072		-111.328125
1073		-121.093750
1074		-113.281250
1075		-121.093750
1076		-117.187500
1077		-123.046875
1078		-119.140625
1079		-128.906250
1080		-121.093750
1081		-128.906250
1082		-121.093750
1083		-132.812500
1084		-125.000000
1085		-132.812500
1086		-126.953125
1087		-134.765625
1088		-128.906250
1089		-136.718750
1090		-128.906250
1091		-136.718750
1092		-130.859375
1093		-136.718750
1094		-132.812500
1095		-138.671875
1096		-134.765625
1097		-140.625000
1098		-134.765625
1099		-142.578125
1100		-134.765625
1101		-142.578125
1102		-136.718750
1103		-142.578125
1104		-136.718750
1105		-144.531250
1106		-136.718750
1107		-144.531250
1108		-138.671875
1109		-142.578125
1110		-140.625000
1111		-142.578125
1112		-140.625000
1113		-144.531250
1114		-138.671875
1115		-146.484375
1116		-138.671875
1117		-146.484375
1118		-138.671875
1119		-144.531250
1120		-138.671875
1121		-144.531250
1122		-138.671875
1123		-144.531250
1124		-138.671875
1125		-142.578125
1126		-138.671875
1127		-140.625000
1128		-138.671875
1129		-142.578125
1130		-136.718750
1131		-140.625000
1132		-134.765625
1133		-140.625000
1134		-132.812500
1135		-138.671875
1136		-130.859375
1137		-138.671875
1138		-130.859375
1139		-136.718750
1140		-128.906250
1141		-134.765625
1142		-128.906250
1143		-130.859375
1144		-126.953125
1145		-130.859375
1146		-125.000000
1147		-128.906250
1148		-123.046875
1149		-126.953125
1150		-121.093750
1151		-125.000000
1152		-117.187500
1153		-123.046875
1154		-115.234375
1155		-121.093750
1156		-113.281250
1157		-119.140625
1158		-111.328125
1159		-113.281250
1160		-111.328125
1161		-111.328125
1162		-107.421875
1163		-111.328125
1164		-103.515625
1165		-109.375000
1166		-99.609375
1167		-105.468750
1168		-97.656250
1169		-101.562500
1170		-93.750000
1171		-99.609375
1172		-91.796875
1173		-95.703125
1174		-87.890625
1175		-91.796875
1176		-85.937500
1177		-87.890625
1178		-83.984375
1179		-83.984375
1180		-78.125000
1181		-83.984375
1182		-74.218750
1183		-80.078125
1184		-70.312500
1185		-76.171875
1186		-68.359375
1187		-74.218750
1188		-64.453125
1189		-68.359375
1190		-60.546875
1191		-66.406250
1192		-58.593750
1193		-60.546875
1194		-54.687500
1195		-56.640625
1196		-50.781250
1197		-54.687500
1198		-44.921875
1199		-50.781250
1200		-41.015625
1201		-46.875000
1202		-37.109375
1203		-42.968750
1204		-33.203125
1205		-39.062500
1206		-29.296875
1207		-33.203125
1208		-27.343750
1209		-29.296875
1210		-23.437500
1211		-25.390625
1212		-19.531250
1213		-21.484375
1214		-13.671875
1215		-19.531250
1216		-9.765625
1217		-15.625000
1218		-7.812500
1219		-11.718750
1220		-1.953125
1221		-7.812500
1222		1.953125
1223		-1.953125
1224		3.906250
1225		0.000000
1226		7.812500
1227		5.859375
1228		11.718750
1229		9.765625
1230		17.578125
1231		13.671875
1232		21.484375
1233		15.625000
1234		23.437500
1235		19.531250
1236		29.296875
1237		23.437500
1238		33.203125
1239		29.296875
1240		35.156250
1241		31.250000
1242		39.062500
1243		37.109375
1244		42.968750
1245		41.015625
1246		44.921875
1247		42.968750
1248		50.781250
1249		44.921875
1250		54.687500
1251		50.781250
1252		58.593750
1253		52.734375
1254		60.546875
1255		56.640625
1256		64.453125
1257		60.546875
1258		68.359375
1259		64.453125
1260		70.312500
1261		68.359375
1262		72.265625
1263		72.265625
1264		78.125000
1265		72.265625
1266		82.031250
1267		76.171875
1268		83.984375
1269		78.125000
1270		85.937500
1271		82.031250
1272		89.843750
1273		83.984375
1274		93.750000
1275		87.890625
1276		93.750000
1277		91.796875
1278		95.703125
1279		95.703125
1280		99.609375
1281		95.703125
1282		103.515625
1283		97.656250
1284		105.468750
1285		101.562500
1286		109.375000
1287		103.515625
1288		111.328125
1289		105.468750
1290		113.281250
1291		107.421875
1292		115.234375
1293		111.328125
1294		115.234375
1295		115.234375
1296		117.187500
1297		115.234375
1298		121.093750
1299		115.234375
1300		123.046875
1301		119.140625
1302		125.000000
1303		119.140625
1304		126.953125
1305		123.046875
1306		128.906250
1307		123.046875
1308		130.859375
1309		125.000000
1310		130.859375
1311		128.906250
1312		132.812500
1313		130.859375
1314		134.765625
1315		128.906250
1316		136.718750
1317		130.859375
1318		136.718750
1319		130.859375
1320		138.671875
1321		132.812500
1322		140.625000
1323		134.765625
1324		140.625000
1325		134.765625
1326		142.578125
1327		138.671875
1328		140.625000
1329		138.671875
1330		142.578125
1331		138.671875
1332		144.531250
1333		138.671875
1334		144.531250
1335		138.671875
1336		146.484375
1337		140.625000
1338		146.484375
1339		140.625000
1340		146.484375
1341		140.625000
1342		148.437500
1343		142.578125
1344		146.484375
1345		142.578125
1346		146.484375
1347		140.625000
1348		148.437500
1349		140.625000
1350		148.437500
1351		140.625000
1352		148.437500
1353		140.625000
1354		148.437500
1355		140.625000
1356		146.484375
1357		140.625000
1358		148.437500
1359		140.625000
1360		146.484375
1361		142.578125
1362		144.531250
1363		142.578125
1364		144.531250
1365		138.671875
1366		146.484375
1367		138.671875
1368		144.531250
1369		138.671875
1370		144.531250
1371		136.718750
1372		144.531250
1373		136.718750
1374		142.578125
1375		134.765625
1376		140.625000
1377		134.765625
1378		140.625000
1379		134.765625
1380		136.718750
1381		132.812500
1382		138.671875
1383		130.859375
1384		136.718750
1385		128.906250
1386		136.718750
1387		126.953125
1388		134.765625
1389		125.000000
1390		132.812500
1391		125.000000
1392		130.859375
1393		123.046875
1394		128.906250
1395		123.046875
1396		125.000000
1397		119.140625
1398		125.000000
1399		117.187500
1400		125.000000
1401		115.234375
1402		123.046875
1403		111.328125
1404		119.140625
1405		111.328125
1406		117.187500
1407		107.421875
1408		115.234375
1409		105.468750
1410		113.281250
1411		105.468750
1412		109.375000
1413		103.515625
1414		107.421875
1415		97.656250
1416		105.468750
1417		95.703125
1418		103.515625
1419		91.796875
1420		101.562500
1421		89.843750
1422		97.656250
1423		87.890625
1424		95.703125
1425		83.984375
1426		91.796875
1427		83.984375
1428		89.843750
1429		80.078125
1430		83.984375
1431		76.171875
1432		82.031250
1433		72.265625
1434		80.078125
1435		68.359375
1436		78.125000
1437		64.453125
1438		74.218750
1439		62.500000
1440		70.312500
1441		58.593750
1442		68.359375
1443		56.640625
1444		62.500000
1445		52.734375
1446		58.593750
1447		48.828125
1448		54.687500
1449		42.968750
1450		52.734375
1451		41.015625
1452		48.828125
1453		37.109375
1454		44.921875
1455		33.203125
1456		41.015625
1457		29.296875
1458		37.109375
1459		27.343750
1460		35.156250
1461		23.437500
1462		29.296875
1463		19.531250
1464		25.390625
1465		13.671875
1466		21.484375
1467		9.765625
1468		19.531250
1469		5.859375
1470		15.625000
1471		3.906250
1472		11.718750
1473		-1.953125
1474		7.812500
1475		-5.859375
1476		3.906250
1477		-7.812500
1478		0.000000
1479		-11.718750
1480		-5.859375
1481		-17.578125
1482		-9.765625
1483		-21.484375
1484		-11.718750
1485		-25.390625
1486		-15.625000
1487		-29.296875
1488		-19.531250
1489		-33.203125
1490		-23.437500
1491		-37.109375
1492		-27.343750
1493		-39.062500
1494		-31.250000
1495		-42.968750
1496		-37.109375
1497		-46.875000
1498		-41.015625
1499		-52.734375
1500		-44.921875
1501		-54.687500
1502		-46.875000
1503		-60.546875
1504		-50.781250
1505		-62.500000
1506		-54.687500
1507		-66.406250
1508		-58.593750
1509		-68.359375
1510		-62.500000
1511		-72.265625
1512		-64.453125
1513		-74.218750
1514		-70.312500
1515		-80.078125
1516		-74.218750
1517		-83.984375
1518		-76.171875
1519		-87.890625
1520		-78.125000
1521		-89.843750
1522		-82.031250
1523		-93.750000
1524		-83.984375
1525		-97.656250
1526		-89.843750
1527		-99.609375
1528		-91.796875
1529		-101.562500
1530		-95.703125
1531		-103.515625
1532		-99.609375
1533		-109.375000
1534		-101.562500
1535		-111.328125
1536		-103.515625
1537		-115.234375
1538		-105.468750
1539		-117.187500
1540		-107.421875
1541		-119.140625
1542		-111.328125
1543		-121.093750
1544		-113.281250
1545		-121.093750
1546		-115.234375
1547		-123.046875
1548		-119.140625
1549		-128.906250
1550		-121.093750
1551		-130.859375
1552		-123.046875
1553		-132.812500
1554		-125.000000
1555		-132.812500
1556		-126.953125
1557		-136.718750
1558		-128.906250
1559		-136.718750
1560		-128.906250
1561		-138.671875
1562		-130.859375
1563		-138.671875
1564		-134.765625
1565		-140.625000
1566		-134.765625
1567		-142.578125
1568		-134.765625
1569		-142.578125
1570		-136.718750
1571		-144.531250
1572		-136.718750
1573		-144.531250
1574		-136.718750
1575		-146.484375
1576		-138.671875
1577		-146.484375
1578		-138.671875
1579		-144.531250
1580		-142.578125
1581		-144.531250
1582		-142.578125
1583		-146.484375
1584		-140.625000
1585		-146.484375
1586		-140.625000
1587		-146.484375
1588		-140.625000
1589		-146.484375
1590		-140.625000
1591		-146.484375
1592		-140.625000
1593		-146.484375
1594		-138.671875
1595		-144.531250
1596		-140.625000
1597		-142.578125
1598		-140.625000
1599		-144.531250
1600		-136.718750
1601		-142.578125
1602		-136.718750
1603		-142.578125
1604		-136.718750
1605		-142.578125
1606		-134.765625
1607		-140.625000
1608		-132.812500
1609		-138.671875
1610		-130.859375
1611		-136.718750
1612		-130.859375
1613		-132.812500
1614		-130.859375
1615		-132.812500
1616		-128.906250
1617		-132.812500
1618		-125.000000
1619		-130.859375
1620		-123.046875
1621		-128.906250
1622		-121.093750
1623		-126.953125
1624		-119.140625
1625		-125.000000
1626		-115.234375
1627		-123.046875
1628		-115.234375
1629		-117.187500
1630		-113.281250
1631		-115.234375
1632		-111.328125
1633		-113.281250
1634		-107.421875
1635		-111.328125
1636		-103.515625
1637		-107.421875
1638		-101.562500
1639		-105.468750
1640		-97.656250
1641		-103.515625
1642		-95.703125
1643		-99.609375
1644		-91.796875
1645		-95.703125
1646		-89.843750
1647		-91.796875
1648		-87.890625
1649		-87.890625
1650		-82.031250
1651		-87.890625
1652		-78.125000
1653		-83.984375
1654		-74.218750
1655		-80.078125
1656		-72.265625
1657		-76.171875
1658		-68.359375
1659		-74.218750
1660		-64.453125
1661		-70.312500
1662		-60.546875
1663		-64.453125
1664		-58.593750
1665		-60.546875
1666		-54.687500
1667		-58.593750
1668		-48.828125
1669		-54.687500
1670		-46.875000
1671		-50.781250
1672		-42.968750
1673		-48.828125
1674		-39.062500
1675		-42.968750
1676		-33.203125
1677		-39.062500
1678		-31.250000
1679		-35.156250
1680		-29.296875
1681		-29.296875
1682		-23.437500
1683		-25.390625
1684		-17.578125
1685		-23.437500
1686		-13.671875
1687		-19.531250
1688		-9.765625
1689		-15.625000
1690		-5.859375
1691		-11.718750
1692		-1.953125
1693		-7.812500
1694		0.000000
1695		-3.906250
1696		3.906250
1697		1.953125
1698		7.812500
1699		5.859375
1700		11.718750
1701		9.765625
1702		17.578125
1703		11.718750
1704		21.484375
1705		15.625000
1706		25.390625
1707		19.531250
1708		29.296875
1709		23.437500
1710		31.250000
1711		27.343750
1712		35.156250
1713		31.250000
1714		37.109375
1715		37.109375
1716		41.015625
1717		41.015625
1718		46.875000
1719		42.968750
1720		50.781250
1721		46.875000
1722		54.687500
1723		48.828125
1724		58.593750
1725		52.734375
1726		60.546875
1727		56.640625
1728		64.453125
1729		60.546875
1730		66.406250
1731		64.453125
1732		70.312500
1733		68.359375
1734		72.265625
1735		68.359375
1736		78.125000
1737		72.265625
1738		80.078125
1739		76.171875
1740		83.984375
1741		80.078125
1742		85.937500
1743		82.031250
1744		89.843750
1745		85.937500
1746		91.796875
1747		89.843750
1748		93.750000
1749		91.796875
1750		95.703125
1751		95.703125
1752		99.609375
1753		97.656250
1754		103.515625
1755		99.609375
1756		105.468750
1757		101.562500
1758		107.421875
1759		103.515625
1760		111.328125
1761		107.421875
1762		111.328125
1763		107.421875
1764		113.281250
1765		111.328125
1766		115.234375
1767		113.281250
1768		119.140625
1769		115.234375
1770		123.046875
1771		115.234375
1772		123.046875
1773		119.140625
1774		125.000000
1775		121.093750
1776		128.906250
1777		121.093750
1778		128.906250
1779		125.000000
1780		130.859375
1781		126.953125
1782		130.859375
1783		128.906250
1784		130.859375
1785		128.906250
1786		134.765625
1787		128.906250
1788		136.718750
1789		130.859375
1790		138.671875
1791		132.812500
1792		138.671875
1793		132.812500
1794		140.625000
1795		134.765625
1796		140.625000
1797		134.765625
1798		140.625000
1799		138.671875
1800		140.625000
1801		136.718750
1802		144.531250
1803		136.718750
1804		144.531250
1805		138.671875
1806		144.531250
1807		138.671875
1808		144.531250
1809		140.625000
1810		146.484375
1811		140.625000
1812		146.484375
1813		140.625000
1814		146.484375
1815		142.578125
1816		146.484375
1817		142.578125
1818		146.484375
1819		140.625000
1820		148.437500
1821		140.625000
1822		148.437500
1823		140.625000
1824		148.437500
1825		140.625000
1826		148.437500
1827		140.625000
1828		148.437500
1829		140.625000
1830		148.437500
1831		142.578125
1832		144.531250
1833		142.578125
1834		144.531250
1835		138.671875
1836		146.484375
1837		138.671875
1838		146.484375
1839		138.671875
1840		144.531250
1841		136.718750
1842		144.531250
1843		136.718750
1844		142.578125
1845		134.765625
1846		142.578125
1847		134.765625
1848		140.625000
1849		136.718750
1850		138.671875
1851		130.859375
1852		138.671875
1853		130.859375
1854		138.671875
1855		128.906250
1856		136.718750
1857		128.906250
1858		136.718750
1859		126.953125
1860		132.812500
1861		125.000000
1862		132.812500
1863		125.000000
1864		130.859375
1865		123.046875
1866		126.953125
1867		123.046875
1868		125.000000
1869		119.140625
1870		125.000000
1871		117.187500
1872		125.000000
1873		115.234375
1874		121.093750
1875		113.281250
1876		119.140625
1877		111.328125
1878		117.187500
1879		107.421875
1880		115.234375
1881		107.421875
1882		113.281250
1883		105.468750
1884		109.375000
1885		99.609375
1886		107.421875
1887		97.656250
1888		105.468750
1889		93.750000
1890		103.515625
1891		91.796875
1892		99.609375
1893		89.843750
1894		97.656250
1895		85.937500
1896		93.750000
1897		83.984375
1898		91.796875
1899		82.031250
1900		87.890625
1901		80.078125
1902		83.984375
1903		74.218750
1904		83.984375
1905		70.312500
1906		80.078125
1907		68.359375
1908		76.171875
1909		64.453125
1910		72.265625
1911		60.546875
1912		68.359375
1913		58.593750
1914		66.406250
1915		56.640625
1916		62.500000
1917		52.734375
1918		56.640625
1919		46.875000
1920		54.687500
1921		44.921875
1922		52.734375
1923		41.015625
1924		46.875000
1925		35.156250
1926		44.921875
1927		31.250000
1928		41.015625
1929		29.296875
1930		39.062500
1931		27.343750
1932		33.203125
1933		23.437500
1934		27.343750
1935		17.578125
1936		23.437500
1937		13.671875
1938		21.484375
1939		9.765625
1940		19.531250
1941		5.859375
1942		13.671875
1943		1.953125
1944		9.765625
1945		-1.953125
1946		5.859375
1947		-5.859375
1948		3.906250
1949		-7.812500
1950		-3.906250
1951		-11.718750
1952		-7.812500
1953		-17.578125
1954		-9.765625
1955		-21.484375
1956		-11.718750
1957		-25.390625
1958		-15.625000
1959		-29.296875
1960		-21.484375
1961		-33.203125
1962		-23.437500
1963		-37.109375
1964		-29.296875
1965		-39.062500
1966		-33.203125
1967		-42.968750
1968		-39.062500
1969		-48.828125
1970		-41.015625
1971		-52.734375
1972		-44.921875
1973		-56.640625
1974		-48.828125
1975		-60.546875
1976		-50.781250
1977		-64.453125
1978		-54.687500
1979		-68.359375
1980		-58.593750
1981		-70.312500
1982		-62.500000
1983		-72.265625
1984		-68.359375
1985		-76.171875
1986		-72.265625
1987		-82.031250
1988		-74.218750
1989		-85.937500
1990		-76.171875
1991		-87.890625
1992		-80.078125
1993		-91.796875
1994		-83.984375
1995		-93.750000
1996		-85.937500
1997		-97.656250
1998		-89.843750
1999		-99.609375
2000		-93.750000
2001		-101.562500
2002		-97.656250
2003		-105.468750
2004		-99.609375
2005		-109.375000
2006		-101.562500
2007		-111.328125
2008		-103.515625
2009		-115.234375
2010		-107.421875
2011		-117.187500
2012		-109.375000
2013		-119.140625
2014		-111.328125
2015		-121.093750
2016		-115.234375
2017		-123.046875
2018		-119.140625
2019		-126.953125
2020		-121.093750
2021		-128.906250
2022		-121.093750
2023		-130.859375
2024		-123.046875
2025		-132.812500
2026		-125.000000
2027		-134.765625
2028		-126.953125
2029		-136.718750
2030		-128.906250
2031		-136.718750
2032		-130.859375
2033		-136.718750
2034		-134.765625
2035		-138.671875
2036		-134.765625
2037		-140.625000
2038		-134.765625
2039		-142.578125
2040		-136.718750
2041		-144.531250
2042		-136.718750
2043		-144.531250
2044		-138.671875
2045		-146.484375
2046		-138.671875
2047		-146.484375
2048		-138.671875
2049		-146.484375
2050		-140.625000
2051		-144.531250
2052		-142.578125
2053		-146.484375
2054		-140.625000
2055		-148.437500
2056		-140.625000
2057		-148.437500
2058		-140.625000
2059		-148.437500
2060		-140.625000
2061		-146.484375
2062		-140.625000
2063		-146.484375
2064		-140.625000
2065		-146.484375
2066		-140.625000
2067		-144.531250
2068		-140.625000
2069		-142.578125
2070		-140.625000
2071		-144.531250
2072		-138.671875
2073		-144.531250
2074		-136.718750
2075		-142.578125
2076		-134.765625
2077		-142.578125
2078		-134.765625
2079		-140.625000
2080		-132.812500
2081		-138.671875
2082		-130.859375
2083		-138.671875
2084		-132.812500
2085		-134.765625
2086		-130.859375
2087		-132.812500
2088		-126.953125
2089		-132.812500
2090		-125.000000
2091		-130.859375
2092		-123.046875
2093		-128.906250
2094		-121.093750
2095		-126.953125
2096		-119.140625
2097		-125.000000
2098		-117.187500
2099		-123.046875
2100		-115.234375
2101		-117.187500
2102		-113.281250
2103		-115.234375
2104		-109.375000
2105		-115.234375
2106		-105.468750
2107		-113.281250
2108		-103.515625
2109		-109.375000
2110		-101.562500
2111		-105.468750
2112		-99.609375
2113		-103.515625
2114		-93.750000
2115		-99.609375
2116		-91.796875
2117		-95.703125
2118		-89.843750
2119		-91.796875
2120		-87.890625
2121		-89.843750
2122		-82.031250
2123		-85.937500
2124		-78.125000
2125		-83.984375
2126		-74.218750
2127		-80.078125
2128		-72.265625
2129		-76.171875
2130		-68.359375
2131		-72.265625
2132		-62.500000
2133		-70.312500
2134		-62.500000
2135		-64.453125
2136		-58.593750
2137		-60.546875
2138		-52.734375
2139		-56.640625
2140		-48.828125
2141		-54.687500
2142		-44.921875
2143		-50.781250
2144		-41.015625
2145		-46.875000
2146		-37.109375
2147		-42.968750
2148		-35.156250
2149		-39.062500
2150		-31.250000
2151		-33.203125
2152		-27.343750
2153		-29.296875
2154		-23.437500
2155		-27.343750
2156		-17.578125
2157		-23.437500
2158		-13.671875
2159		-17.578125
2160		-9.765625
2161		-13.671875
2162		-5.859375
2163		-11.718750
2164		-1.953125
2165		-7.812500
2166		1.953125
2167		-3.906250
2168		3.906250
2169		3.906250
2170		7.812500
2171		5.859375
2172		13.671875
2173		9.765625
2174		17.578125
2175		11.718750
2176		21.484375
2177		17.578125
2178		25.390625
2179		21.484375
2180		29.296875
2181		25.390625
2182		33.203125
2183		27.343750
2184		35.156250
2185		33.203125
2186		39.062500
2187		37.109375
2188		44.921875
2189		39.062500
2190		46.875000
2191		42.968750
2192		50.781250
2193		46.875000
2194		54.687500
2195		50.781250
2196		58.593750
2197		54.687500
2198		62.500000
2199		56.640625
2200		64.453125
2201		60.546875
2202		66.406250
2203		64.453125
2204		70.312500
2205		66.406250
2206		76.171875
2207		70.312500
2208		78.125000
2209		74.218750
2210		82.031250
2211		76.171875
2212		83.984375
2213		78.125000
2214		87.890625
2215		82.031250
2216		89.843750
2217		85.937500
2218		91.796875
2219		89.843750
2220		93.750000
2221		91.796875
2222		99.609375
2223		93.750000
2224		101.562500
2225		95.703125
2226		103.515625
2227		97.656250
2228		107.421875
2229		99.609375
2230		107.421875
2231		103.515625
2232		111.328125
2233		105.468750
2234		113.281250
2235		109.375000
2236		113.281250
2237		111.328125
2238		117.187500
2239		113.281250
2240		119.140625
2241		115.234375
2242		121.093750
2243		117.187500
2244		123.046875
2245		117.187500
2246		125.000000
2247		119.140625
2248		126.953125
2249		121.093750
2250		128.906250
2251		123.046875
2252		128.906250
2253		126.953125
2254		130.859375
2255		126.953125
2256		132.812500
2257		126.953125
2258		134.765625
2259		128.906250
2260		136.718750
2261		130.859375
2262		136.718750
2263		130.859375
2264		138.671875
2265		132.812500
2266		140.625000
2267		132.812500
2268		140.625000
2269		136.718750
2270		140.625000
2271		136.718750
2272		142.578125
2273		136.718750
2274		144.531250
2275		136.718750
2276		144.531250
2277		138.671875
2278		144.531250
2279		138.671875
2280		144.531250
2281		138.671875
2282		146.484375
2283		138.671875
2284		146.484375
2285		142.578125
2286		144.531250
2287		142.578125
2288		144.531250
2289		140.625000
2290		146.484375
2291		140.625000
2292		148.437500
2293		140.625000
2294		146.484375
2295		140.625000
2296		148.437500
2297		140.625000
2298		146.484375
2299		140.625000
2300		148.437500
2301		140.625000
2302		146.484375
2303		142.578125
2304		144.531250
2305		138.671875
2306		144.531250
2307		138.671875
2308		144.531250
2309		138.671875
2310		144.531250
2311		138.671875
2312		144.531250
2313		136.718750
2314		142.578125
2315		136.718750
2316		142.578125
2317		134.765625
2318		140.625000
2319		134.765625
2320		138.671875
2321		134.765625
2322		138.671875
2323		130.859375
2324		138.671875
2325		130.859375
2326		136.718750
2327		128.906250
2328		136.718750
2329		126.953125
2330		134.765625
2331		125.000000
2332		132.812500
2333		123.046875
2334		130.859375
2335		125.000000
2336		128.906250
2337		123.046875
2338		126.953125
2339		119.140625
2340		125.000000
2341		117.187500
2342		125.000000
2343		115.234375
2344		121.093750
2345		113.281250
2346		121.093750
2347		111.328125
2348		119.140625
2349		109.375000
2350		115.234375
2351		107.421875
2352		113.281250
2353		105.468750
2354		109.375000
2355		103.515625
2356		107.421875
2357		99.609375
2358		107.421875
2359		95.703125
2360		103.515625
2361		93.750000
2362		101.562500
2363		91.796875
2364		99.609375
2365		89.843750
2366		95.703125
2367		83.984375
2368		93.750000
2369		83.984375
2370		87.890625
2371		80.078125
2372		85.937500
2373		76.171875
2374		83.984375
2375		72.265625
2376		80.078125
2377		70.312500
2378		78.125000
2379		66.406250
2380		74.218750
2381		64.453125
2382		70.312500
2383		58.593750
2384		66.406250
2385		56.640625
2386		64.453125
2387		54.687500
2388		60.546875
2389		48.828125
2390		56.640625
2391		44.921875
2392		54.687500
2393		41.015625
2394		48.828125
2395		37.109375
2396		46.875000
2397		33.203125
2398		42.968750
2399		31.250000
2400		39.062500
2401		27.343750
2402		35.156250
2403		25.390625
2404		29.296875
2405		21.484375
2406		25.390625
2407		15.625000
2408		23.437500
2409		11.718750
2410		19.531250
2411		7.812500
2412		15.625000
2413		1.953125
2414		13.671875
2415		0.000000
2416		7.812500
2417		-3.906250
2418		3.906250
2419		-7.812500
2420		0.000000
2421		-9.765625
2422		-5.859375
2423		-15.625000
2424		-9.765625
2425		-19.531250
2426		-11.718750
2427		-23.437500
2428		-15.625000
2429		-27.343750
2430		-19.531250
2431		-31.250000
2432		-23.437500
2433		-37.109375
2434		-27.343750
2435		-37.109375
2436		-31.250000
2437		-41.015625
2438		-37.109375
2439		-44.921875
2440		-41.015625
2441		-52.734375
2442		-42.968750
2443		-54.687500
2444		-46.875000
2445		-58.593750
2446		-50.781250
2447		-62.500000
2448		-52.734375
2449		-66.406250
2450		-56.640625
2451		-70.312500
2452		-60.546875
2453		-72.265625
2454		-66.406250
2455		-74.218750
2456		-70.312500
2457		-80.078125
2458		-74.218750
2459		-83.984375
2460		-74.218750
2461		-85.937500
2462		-78.125000
2463		-89.843750
2464		-82.031250
2465		-93.750000
2466		-85.937500
2467		-95.703125
2468		-87.890625
2469		-97.656250
2470		-91.796875
2471		-101.562500
2472		-95.703125
2473		-103.515625
2474		-99.609375
2475		-109.375000
2476		-99.609375
2477		-111.328125
2478		-103.515625
2479		-113.281250
2480		-105.468750
2481		-117.187500
2482		-109.375000
2483		-119.140625
2484		-111.328125
2485		-121.093750
2486		-113.281250
2487		-121.093750
2488		-117.187500
2489		-123.046875
2490		-121.093750
2491		-128.906250
2492		-121.093750
2493		-128.906250
2494		-123.046875
2495		-132.812500
2496		-125.000000
2497		-134.765625
2498		-126.953125
2499		-136.718750
2500		-128.906250
2501		-136.718750
2502		-130.859375
2503		-138.671875
2504		-130.859375
2505		-138.671875
2506		-134.765625
2507		-142.578125
2508		-134.765625
2509		-142.578125
2510		-134.765625
2511		-144.531250
2512		-136.718750
2513		-144.531250
2514		-138.671875
2515		-146.484375
2516		-138.671875
2517		-146.484375
2518		-140.625000
2519		-148.437500
2520		-140.625000
2521		-146.484375
2522		-142.578125
2523		-146.484375
2524		-142.578125
2525		-148.437500
2526		-142.578125
2527		-148.437500
2528		-142.578125
2529		-148.437500
2530		-142.578125
2531		-148.437500
2532		-142.578125
2533		-148.437500
2534		-142.578125
2535		-148.437500
2536		-142.578125
2537		-146.484375
2538		-142.578125
2539		-144.531250
2540		-142.578125
2541		-146.484375
2542		-140.625000
2543		-146.484375
2544		-138.671875
2545		-146.484375
2546		-138.671875
2547		-144.531250
2548		-136.718750
2549		-142.578125
2550		-136.718750
2551		-142.578125
2552		-134.765625
2553		-140.625000
2554		-134.765625
2555		-136.718750
2556		-132.812500
2557		-134.765625
2558		-128.906250
2559		-134.765625
2560		-126.953125
2561		-132.812500
2562		-125.000000
2563		-130.859375
2564		-125.000000
2565		-128.906250
2566		-121.093750
2567		-126.953125
2568		-119.140625
2569		-125.000000
2570		-117.187500
2571		-121.093750
2572		-117.187500
2573		-117.187500
2574		-113.281250
2575		-117.187500
2576		-109.375000
2577		-115.234375
2578		-105.468750
2579		-111.328125
2580		-103.515625
2581		-109.375000
2582		-101.562500
2583		-107.421875
2584		-97.656250
2585		-103.515625
2586		-95.703125
2587		-101.562500
2588		-93.750000
2589		-95.703125
2590		-89.843750
2591		-91.796875
2592		-85.937500
2593		-91.796875
2594		-82.031250
2595		-87.890625
2596		-78.125000
2597		-83.984375
2598		-76.171875
2599		-80.078125
2600		-72.265625
2601		-76.171875
2602		-68.359375
2603		-74.218750
2604		-66.406250
2605		-68.359375
2606		-62.500000
2607		-64.453125
2608		-58.593750
2609		-60.546875
2610		-52.734375
2611		-56.640625
2612		-48.828125
2613		-54.687500
2614		-44.921875
2615		-50.781250
2616		-41.015625
2617		-46.875000
2618		-37.109375
2619		-41.015625
2620		-33.203125
2621		-39.062500
2622		-31.250000
2623		-33.203125
2624		-27.343750
2625		-29.296875
2626		-21.484375
2627		-25.390625
2628		-17.578125
2629		-23.437500
2630		-13.671875
2631		-19.531250
2632		-9.765625
2633		-15.625000
2634		-5.859375
2635		-9.765625
2636		-1.953125
2637		-7.812500
2638		0.000000
2639		-1.953125
2640		3.906250
2641		1.953125
2642		9.765625
2643		5.859375
2644		13.671875
2645		7.812500
2646		17.578125
2647		13.671875
2648		21.484375
2649		15.625000
2650		25.390625
2651		19.531250
2652		29.296875
2653		23.437500
2654		33.203125
2655		29.296875
2656		35.156250
2657		33.203125
2658		39.062500
2659		37.109375
2660		44.921875
2661		39.062500
2662		48.828125
2663		42.968750
2664		50.781250
2665		46.875000
2666		54.687500
2667		50.781250
2668		58.593750
2669		52.734375
2670		62.500000
2671		56.640625
2672		64.453125
2673		62.500000
2674		66.406250
2675		64.453125
2676		72.265625
2677		66.406250
2678		74.218750
2679		68.359375
2680		78.125000
2681		74.218750
2682		82.031250
2683		76.171875
2684		83.984375
2685		80.078125
2686		87.890625
2687		82.031250
2688		89.843750
2689		85.937500
2690		91.796875
2691		89.843750
2692		93.750000
2693		91.796875
2694		97.656250
2695		91.796875
2696		101.562500
2697		97.656250
2698		103.515625
2699		97.656250
2700		105.468750
2701		101.562500
2702		109.375000
2703		103.515625
2704		111.328125
2705		105.468750
2706		111.328125
2707		109.375000
2708		113.281250
2709		111.328125
2710		117.187500
2711		111.328125
2712		119.140625
2713		113.281250
2714		121.093750
2715		117.187500
2716		123.046875
2717		119.140625
2718		125.000000
2719		119.140625
2720		126.953125
2721		121.093750
2722		126.953125
2723		125.000000
2724		128.906250
2725		125.000000
2726		130.859375
2727		126.953125
2728		132.812500
2729		126.953125
2730		134.765625
2731		128.906250
2732		134.765625
2733		128.906250
2734		136.718750
2735		130.859375
2736		138.671875
2737		132.812500
2738		138.671875
2739		134.765625
2740		138.671875
2741		136.718750
2742		138.671875
2743		134.765625
2744		142.578125
2745		136.718750
2746		142.578125
2747		136.718750
2748		144.531250
2749		136.718750
2750		144.531250
2751		138.671875
2752		144.531250
2753		138.671875
2754		144.531250
2755		138.671875
2756		146.484375
2757		140.625000
2758		144.531250
2759		140.625000
2760		146.484375
2761		140.625000
2762		146.484375
2763		138.671875
2764		146.484375
2765		140.625000
2766		146.484375
2767		140.625000
2768		146.484375
2769		138.671875
2770		146.484375
2771		140.625000
2772		146.484375
2773		140.625000
2774		142.578125
2775		140.625000
2776		142.578125
2777		138.671875
2778		144.531250
2779		136.718750
2780		144.531250
2781		136.718750
2782		142.578125
2783		136.718750
2784		142.578125
2785		134.765625
2786		142.578125
2787		134.765625
2788		140.625000
2789		134.765625
2790		140.625000
2791		134.765625
2792		136.718750
2793		130.859375
2794		136.718750
2795		130.859375
2796		136.718750
2797		128.906250
2798		136.718750
2799		126.953125
2800		134.765625
2801		125.000000
2802		132.812500
2803		125.000000
2804		130.859375
2805		123.046875
2806		128.906250
2807		123.046875
2808		126.953125
2809		119.140625
2810		125.000000
2811		117.187500
2812		125.000000
2813		115.234375
2814		123.046875
2815		113.281250
2816		121.093750
2817		111.328125
2818		119.140625
2819		109.375000
2820		117.187500
2821		107.421875
2822		113.281250
2823		105.468750
2824		109.375000
2825		103.515625
2826		107.421875
2827		99.609375
2828		105.468750
2829		97.656250
2830		103.515625
2831		93.750000
2832		101.562500
2833		91.796875
2834		99.609375
2835		87.890625
2836		95.703125
2837		85.937500
2838		93.750000
2839		83.984375
2840		89.843750
2841		82.031250
2842		85.937500
2843		76.171875
2844		83.984375
2845		74.218750
2846		82.031250
2847		70.312500
2848		78.125000
2849		66.406250
2850		76.171875
2851		64.453125
2852		72.265625
2853		60.546875
2854		68.359375
2855		56.640625
2856		64.453125
2857		54.687500
2858		60.546875
2859		50.781250
2860		56.640625
2861		46.875000
2862		54.687500
2863		42.968750
2864		50.781250
2865		39.062500
2866		46.875000
2867		35.156250
2868		42.968750
2869		31.250000
2870		41.015625
2871		27.343750
2872		37.109375
2873		25.390625
2874		33.203125
2875		21.484375
2876		27.343750
2877		15.625000
2878		23.437500
2879		11.718750
2880		21.484375
2881		7.812500
2882		17.578125
2883		3.906250
2884		13.671875
2885		1.953125
2886		9.765625
2887		-3.906250
2888		5.859375
2889		-5.859375
2890		1.953125
2891		-9.765625
2892		-3.906250
2893		-13.671875
2894		-7.812500
2895		-19.531250
2896		-9.765625
2897		-21.484375
2898		-13.671875
2899		-27.343750
2900		-17.578125
2901		-31.250000
2902		-23.437500
2903		-35.156250
2904		-25.390625
2905		-37.109375
2906		-29.296875
2907		-41.015625
2908		-35.156250
2909		-44.921875
2910		-39.062500
2911		-50.781250
2912		-42.968750
2913		-52.734375
2914		-44.921875
2915		-58.593750
2916		-48.828125
2917		-62.500000
2918		-52.734375
2919		-64.453125
2920		-54.687500
2921		-68.359375
2922		-60.546875
2923		-70.312500
2924		-64.453125
2925		-74.218750
2926		-68.359375
2927		-78.125000
2928		-72.265625
2929		-82.031250
2930		-74.218750
2931		-85.937500
2932		-78.125000
2933		-89.843750
2934		-80.078125
2935		-91.796875
2936		-83.984375
2937		-95.703125
2938		-87.890625
2939		-99.609375
2940		-91.796875
2941		-99.609375
2942		-95.703125
2943		-103.515625
2944		-99.609375
2945		-109.375000
2946		-99.609375
2947		-109.375000
2948		-103.515625
2949		-115.234375
2950		-105.468750
2951		-117.187500
2952		-107.421875
2953		-119.140625
2954		-111.328125
2955		-121.093750
2956		-113.281250
2957		-121.093750
2958		-115.234375
2959		-125.000000
2960		-119.140625
2961		-126.953125
2962		-121.093750
2963		-128.906250
2964		-123.046875
2965		-132.812500
2966		-125.000000
2967		-134.765625
2968		-126.953125
2969		-136.718750
2970		-128.906250
2971		-138.671875
2972		-130.859375
2973		-138.671875
2974		-130.859375
2975		-138.671875
2976		-134.765625
2977		-140.625000
2978		-136.718750
2979		-142.578125
2980		-136.718750
2981		-144.531250
2982		-136.718750
2983		-146.484375
2984		-138.671875
2985		-146.484375
2986		-138.671875
2987		-146.484375
2988		-140.625000
2989		-146.484375
2990		-140.625000
2991		-146.484375
2992		-142.578125
2993		-146.484375
2994		-144.531250
2995		-148.437500
2996		-142.578125
2997		-148.437500
2998		-142.578125
2999		-148.437500
3000		-142.578125
3001		-148.437500
3002		-142.578125
3003		-148.437500
3004		-142.578125
3005		-148.437500
3006		-142.578125
3007		-148.437500
3008		-142.578125
3009		-146.484375
3010		-142.578125
3011		-146.484375
3012		-140.625000
3013		-146.484375
3014		-140.625000
3015		-146.484375
3016		-138.671875
3017		-144.531250
3018		-136.718750
3019		-144.531250
3020		-136.718750
3021		-140.625000
3022		-134.765625
3023		-140.625000
3024		-132.812500
3025		-136.718750
3026		-134.765625
3027		-136.718750
3028		-132.812500
3029		-136.718750
3030		-128.906250
3031		-134.765625
3032		-126.953125
3033		-132.812500
3034		-125.000000
3035		-130.859375
3036		-123.046875
3037		-128.906250
3038		-121.093750
3039		-126.953125
3040		-119.140625
3041		-123.046875
3042		-117.187500
3043		-119.140625
3044		-115.234375
3045		-117.187500
3046		-111.328125
3047		-117.187500
3048		-109.375000
3049		-113.281250
3050		-105.468750
3051		-111.328125
3052		-103.515625
3053		-107.421875
3054		-99.609375
3055		-105.468750
3056		-97.656250
3057		-103.515625
3058		-95.703125
3059		-97.656250
3060		-93.750000
3061		-93.750000
3062		-89.843750
3063		-93.750000
3064		-83.984375
3065		-89.843750
3066		-80.078125
3067		-85.937500
3068		-76.171875
3069		-82.031250
3070		-74.218750
3071		-80.078125
3072		-70.312500
3073		-76.171875
3074		-66.406250
3075		-70.312500
3076		-64.453125
3077		-66.406250
3078		-60.546875
3079		-64.453125
3080		-56.640625
3081		-60.546875
3082		-50.781250
3083		-54.687500
3084		-48.828125
3085		-52.734375
3086		-42.968750
3087		-48.828125
3088		-41.015625
3089		-44.921875
3090		-37.109375
3091		-41.015625
3092		-33.203125
3093		-35.156250
3094		-29.296875
3095		-31.250000
3096		-25.390625
3097		-29.296875
3098		-19.531250
3099		-25.390625
3100		-15.625000
3101		-21.484375
3102		-13.671875
3103		-17.578125
3104		-7.812500
3105		-13.671875
3106		-5.859375
3107		-9.765625
3108		-1.953125
3109		-3.906250
3110		1.953125
3111		0.000000
3112		5.859375
3113		3.906250
3114		11.718750
3115		7.812500
3116		15.625000
3117		9.765625
3118		19.531250
3119		13.671875
3120		23.437500
3121		19.531250
3122		27.343750
3123		21.484375
3124		29.296875
3125		25.390625
3126		33.203125
3127		31.250000
3128		37.109375
3129		35.156250
3130		41.015625
3131		37.109375
3132		44.921875
3133		41.015625
3134		48.828125
3135		42.968750
3136		52.734375
3137		48.828125
3138		56.640625
3139		50.781250
3140		58.593750
3141		54.687500
3142		62.500000
3143		60.546875
3144		64.453125
3145		62.500000
3146		70.312500
3147		64.453125
3148		72.265625
3149		68.359375
3150		76.171875
3151		70.312500
3152		80.078125
3153		74.218750
3154		82.031250
3155		78.125000
3156		85.937500
3157		82.031250
3158		87.890625
3159		83.984375
3160		89.843750
3161		87.890625
3162		91.796875
3163		89.843750
3164		97.656250
3165		91.796875
3166		99.609375
3167		93.750000
3168		101.562500
3169		97.656250
3170		103.515625
3171		99.609375
3172		107.421875
3173		101.562500
3174		109.375000
3175		103.515625
3176		111.328125
3177		109.375000
3178		111.328125
3179		111.328125
3180		117.187500
3181		111.328125
3182		117.187500
3183		113.281250
3184		121.093750
3185		115.234375
3186		123.046875
3187		117.187500
3188		125.000000
3189		119.140625
3190		126.953125
3191		121.093750
3192		126.953125
3193		125.000000
3194		126.953125
3195		126.953125
3196		128.906250
3197		125.000000
3198		132.812500
3199		126.953125
3200		134.765625
3201		128.906250
3202		134.765625
3203		130.859375
3204		136.718750
3205		130.859375
3206		138.671875
3207		132.812500
3208		138.671875
3209		132.812500
3210		138.671875
3211		136.718750
3212		138.671875
3213		134.765625
3214		142.578125
3215		136.718750
3216		142.578125
3217		136.718750
3218		144.531250
3219		138.671875
3220		144.531250
3221		138.671875
3222		144.531250
3223		138.671875
3224		144.531250
3225		138.671875
3226		146.484375
3227		142.578125
3228		144.531250
3229		142.578125
3230		144.531250
3231		140.625000
3232		146.484375
3233		140.625000
3234		146.484375
3235		140.625000
3236		146.484375
3237		140.625000
3238		146.484375
3239		140.625000
3240		146.484375
3241		140.625000
3242		146.484375
3243		140.625000
3244		144.531250
3245		140.625000
3246		144.531250
3247		138.671875
3248		144.531250
3249		138.671875
3250		144.531250
3251		138.671875
3252		144.531250
3253		136.718750
3254		144.531250
3255		134.765625
3256		144.531250
3257		136.718750
3258		142.578125
3259		134.765625
3260		142.578125
3261		134.765625
3262		138.671875
3263		132.812500
3264		138.671875
3265		132.812500
3266		138.671875
3267		130.859375
3268		136.718750
3269		128.906250
3270		136.718750
3271		126.953125
3272		134.765625
3273		126.953125
3274		132.812500
3275		125.000000
3276		130.859375
3277		125.000000
3278		128.906250
3279		123.046875
3280		126.953125
3281		119.140625
3282		125.000000
3283		117.187500
3284		125.000000
3285		115.234375
3286		123.046875
3287		113.281250
3288		121.093750
3289		111.328125
3290		119.140625
3291		109.375000
3292		117.187500
3293		107.421875
3294		115.234375
3295		105.468750
3296		109.375000
3297		101.562500
3298		107.421875
3299		99.609375
3300		107.421875
3301		95.703125
3302		105.468750
3303		93.750000
3304		101.562500
3305		91.796875
3306		99.609375
3307		87.890625
3308		95.703125
3309		85.937500
3310		93.750000
3311		83.984375
3312		89.843750
3313		82.031250
3314		85.937500
3315		78.125000
3316		83.984375
3317		72.265625
3318		82.031250
3319		70.312500
3320		78.125000
3321		66.406250
3322		74.218750
3323		62.500000
3324		72.265625
3325		60.546875
3326		68.359375
3327		58.593750
3328		64.453125
3329		54.687500
3330		60.546875
3331		48.828125
3332		56.640625
3333		44.921875
3334		54.687500
3335		41.015625
3336		50.781250
3337		39.062500
3338		46.875000
3339		33.203125
3340		42.968750
3341		31.250000
3342		39.062500
3343		29.296875
3344		35.156250
3345		25.390625
3346		31.250000
3347		19.531250
3348		27.343750
3349		15.625000
3350		23.437500
3351		11.718750
3352		21.484375
3353		7.812500
3354		17.578125
3355		1.953125
3356		13.671875
3357		0.000000
3358		7.812500
3359		-3.906250
3360		3.906250
3361		-5.859375
3362		0.000000
3363		-9.765625
3364		-3.906250
3365		-15.625000
3366		-7.812500
3367		-19.531250
3368		-9.765625
3369		-23.437500
3370		-13.671875
3371		-27.343750
3372		-19.531250
3373		-31.250000
3374		-23.437500
3375		-35.156250
3376		-27.343750
3377		-37.109375
3378		-31.250000
3379		-41.015625
3380		-37.109375
3381		-46.875000
3382		-39.062500
3383		-50.781250
3384		-42.968750
3385		-54.687500
3386		-44.921875
3387		-58.593750
3388		-50.781250
3389		-60.546875
3390		-52.734375
3391		-64.453125
3392		-56.640625
3393		-68.359375
3394		-60.546875
3395		-72.265625
3396		-64.453125
3397		-74.218750
3398		-70.312500
3399		-80.078125
3400		-72.265625
3401		-83.984375
3402		-74.218750
3403		-85.937500
3404		-78.125000
3405		-89.843750
3406		-82.031250
3407		-93.750000
3408		-85.937500
3409		-97.656250
3410		-87.890625
3411		-97.656250
3412		-91.796875
3413		-101.562500
3414		-95.703125
3415		-105.468750
3416		-99.609375
3417		-109.375000
3418		-99.609375
3419		-111.328125
3420		-103.515625
3421		-113.281250
3422		-105.468750
3423		-117.187500
3424		-109.375000
3425		-119.140625
3426		-111.328125
3427		-121.093750
3428		-113.281250
3429		-123.046875
3430		-119.140625
3431		-125.000000
3432		-121.093750
3433		-128.906250
3434		-121.093750
3435		-128.906250
3436		-125.000000
3437		-132.812500
3438		-125.000000
3439		-132.812500
3440		-128.906250
3441		-134.765625
3442		-130.859375
3443		-136.718750
3444		-132.812500
3445		-138.671875
3446		-134.765625
3447		-138.671875
3448		-136.718750
3449		-142.578125
3450		-136.718750
3451		-144.531250
3452		-136.718750
3453		-144.531250
3454		-138.671875
3455		-146.484375
3456		-138.671875
3457		-146.484375
3458		-140.625000
3459		-148.437500
3460		-140.625000
3461		-148.437500
3462		-142.578125
3463		-146.484375
3464		-144.531250
3465		-148.437500
3466		-144.531250
3467		-150.390625
3468		-142.578125
3469		-150.390625
3470		-142.578125
3471		-150.390625
3472		-142.578125
3473		-150.390625
3474		-144.531250
3475		-150.390625
3476		-142.578125
3477		-150.390625
3478		-142.578125
3479		-146.484375
3480		-144.531250
3481		-146.484375
3482		-144.531250
3483		-148.437500
3484		-140.625000
3485		-148.437500
3486		-140.625000
3487		-146.484375
3488		-140.625000
3489		-144.531250
3490		-138.671875
3491		-144.531250
3492		-138.671875
3493		-142.578125
3494		-136.718750
3495		-140.625000
3496		-136.718750
3497		-138.671875
3498		-134.765625
3499		-138.671875
3500		-130.859375
3501		-136.718750
3502		-130.859375
3503		-134.765625
3504		-128.906250
3505		-134.765625
3506		-125.000000
3507		-130.859375
3508		-123.046875
3509		-130.859375
3510		-121.093750
3511		-126.953125
3512		-121.093750
3513		-123.046875
3514		-119.140625
3515		-121.093750
3516		-115.234375
3517		-121.093750
3518		-111.328125
3519		-117.187500
3520		-109.375000
3521		-115.234375
3522		-107.421875
3523		-111.328125
3524		-103.515625
3525		-109.375000
3526		-101.562500
3527		-105.468750
3528		-97.656250
3529		-101.562500
3530		-95.703125
3531		-97.656250
3532		-93.750000
3533		-95.703125
3534		-87.890625
3535		-93.750000
3536		-85.937500
3537		-89.843750
3538		-80.078125
3539		-85.937500
3540		-78.125000
3541		-83.984375
3542		-74.218750
3543		-80.078125
3544		-70.312500
3545		-76.171875
3546		-68.359375
3547		-70.312500
3548		-64.453125
3549		-66.406250
3550		-60.546875
3551		-64.453125
3552		-56.640625
3553		-60.546875
3554		-52.734375
3555		-56.640625
3556		-48.828125
3557		-52.734375
3558		-44.921875
3559		-48.828125
3560		-41.015625
3561		-44.921875
3562		-37.109375
3563		-39.062500
3564		-33.203125
3565		-35.156250
3566		-29.296875
3567		-33.203125
3568		-25.390625
3569		-29.296875
3570		-21.484375
3571		-25.390625
3572		-17.578125
3573		-21.484375
3574		-13.671875
3575		-17.578125
3576		-7.812500
3577		-13.671875
3578		-5.859375
3579		-9.765625
3580		-1.953125
3581		-3.906250
3582		1.953125
3583		0.000000
3584		7.812500
3585		3.906250
3586		11.718750
3587		5.859375
3588		15.625000
3589		9.765625
3590		19.531250
3591		13.671875
3592		23.437500
3593		19.531250
3594		25.390625
3595		21.484375
3596		29.296875
3597		27.343750
3598		33.203125
3599		31.250000
3600		37.109375
3601		33.203125
3602		42.968750
3603		35.156250
3604		44.921875
3605		41.015625
3606		48.828125
3607		44.921875
3608		52.734375
3609		46.875000
3610		54.687500
3611		50.781250
3612		58.593750
3613		56.640625
3614		60.546875
3615		58.593750
3616		64.453125
3617		62.500000
3618		68.359375
3619		64.453125
3620		72.265625
3621		68.359375
3622		76.171875
3623		70.312500
3624		80.078125
3625		74.218750
3626		82.031250
3627		76.171875
3628		83.984375
3629		80.078125
3630		85.937500
3631		83.984375
3632		89.843750
3633		87.890625
3634		91.796875
3635		87.890625
3636		95.703125
3637		91.796875
3638		99.609375
3639		93.750000
3640		101.562500
3641		95.703125
3642		103.515625
3643		97.656250
3644		107.421875
3645		101.562500
3646		109.375000
3647		105.468750
3648		109.375000
3649		107.421875
3650		111.328125
3651		109.375000
3652		117.187500
3653		109.375000
3654		117.187500
3655		113.281250
3656		119.140625
3657		113.281250
3658		121.093750
3659		117.187500
3660		123.046875
3661		117.187500
3662		125.000000
3663		121.093750
3664		126.953125
3665		123.046875
3666		126.953125
3667		125.000000
3668		130.859375
3669		125.000000
3670		132.812500
3671		125.000000
3672		132.812500
3673		126.953125
3674		134.765625
3675		128.906250
3676		136.718750
3677		128.906250
3678		136.718750
3679		130.859375
3680		138.671875
3681		134.765625
3682		136.718750
3683		134.765625
3684		138.671875
3685		134.765625
3686		140.625000
3687		134.765625
3688		140.625000
3689		136.718750
3690		142.578125
3691		136.718750
3692		144.531250
3693		136.718750
3694		144.531250
3695		136.718750
3696		144.531250
3697		140.625000
3698		142.578125
3699		140.625000
3700		142.578125
3701		138.671875
3702		146.484375
3703		138.671875
3704		146.484375
3705		138.671875
3706		146.484375
3707		138.671875
3708		146.484375
3709		138.671875
3710		146.484375
3711		138.671875
3712		146.484375
3713		138.671875
3714		144.531250
3715		140.625000
3716		142.578125
3717		138.671875
3718		142.578125
3719		136.718750
3720		144.531250
3721		136.718750
3722		144.531250
3723		136.718750
3724		142.578125
3725		134.765625
3726		142.578125
3727		134.765625
3728		140.625000
3729		134.765625
3730		140.625000
3731		134.765625
3732		138.671875
3733		134.765625
3734		136.718750
3735		130.859375
3736		136.718750
3737		128.906250
3738		136.718750
3739		128.906250
3740		134.765625
3741		126.953125
3742		134.765625
3743		126.953125
3744		132.812500
3745		125.000000
3746		132.812500
3747		123.046875
3748		130.859375
3749		123.046875
3750		126.953125
3751		121.093750
3752		125.000000
3753		117.187500
3754		125.000000
3755		115.234375
3756		123.046875
3757		113.281250
3758		121.093750
3759		111.328125
3760		117.187500
3761		109.375000
3762		117.187500
3763		107.421875
3764		115.234375
3765		107.421875
3766		109.375000
3767		103.515625
3768		107.421875
3769		99.609375
3770		107.421875
3771		95.703125
3772		105.468750
3773		93.750000
3774		103.515625
3775		91.796875
3776		99.609375
3777		89.843750
3778		95.703125
3779		85.937500
3780		95.703125
3781		85.937500
3782		89.843750
3783		82.031250
3784		85.937500
3785		78.125000
3786		83.984375
3787		74.218750
3788		82.031250
3789		70.312500
3790		78.125000
3791		66.406250
3792		76.171875
3793		64.453125
3794		72.265625
3795		60.546875
3796		70.312500
3797		58.593750
3798		66.406250
3799		56.640625
3800		60.546875
3801		52.734375
3802		58.593750
3803		46.875000
3804		54.687500
3805		44.921875
3806		50.781250
3807		39.062500
3808		48.828125
3809		35.156250
3810		44.921875
3811		31.250000
3812		41.015625
3813		29.296875
3814		37.109375
3815		25.390625
3816		31.250000
3817		21.484375
3818		27.343750
3819		15.625000
3820		23.437500
3821		13.671875
3822		21.484375
3823		9.765625
3824		17.578125
3825		3.906250
3826		13.671875
3827		0.000000
3828		9.765625
3829		-1.953125
3830		5.859375
3831		-5.859375
3832		1.953125
3833		-7.812500
3834		-3.906250
3835		-15.625000
3836		-7.812500
3837		-19.531250
3838		-9.765625
3839		-21.484375
3840		-13.671875
3841		-27.343750
3842		-17.578125
3843		-31.250000
3844		-21.484375
3845		-35.156250
3846		-25.390625
3847		-37.109375
3848		-29.296875
3849		-41.015625
3850		-35.156250
3851		-44.921875
3852		-39.062500
3853		-50.781250
3854		-41.015625
3855		-54.687500
3856		-44.921875
3857		-58.593750
3858		-48.828125
3859		-60.546875
3860		-52.734375
3861		-64.453125
3862		-56.640625
3863		-70.312500
3864		-60.546875
3865		-70.312500
3866		-64.453125
3867		-74.218750
3868		-68.359375
3869		-80.078125
3870		-72.265625
3871		-83.984375
3872		-74.218750
3873		-85.937500
3874		-78.125000
3875		-89.843750
3876		-82.031250
3877		-93.750000
3878		-83.984375
3879		-95.703125
3880		-87.890625
3881		-97.656250
3882		-91.796875
3883		-101.562500
3884		-95.703125
3885		-103.515625
3886		-99.609375
3887		-109.375000
3888		-99.609375
3889		-111.328125
3890		-103.515625
3891		-113.281250
3892		-105.468750
3893		-117.187500
3894		-109.375000
3895		-119.140625
3896		-111.328125
3897		-121.093750
3898		-115.234375
3899		-123.046875
3900		-117.187500
3901		-125.000000
3902		-121.093750
3903		-128.906250
3904		-123.046875
3905		-130.859375
3906		-125.000000
3907		-132.812500
3908		-126.953125
3909		-134.765625
3910		-126.953125
3911		-138.671875
3912		-130.859375
3913		-138.671875
3914		-132.812500
3915		-140.625000
3916		-134.765625
3917		-140.625000
3918		-136.718750
3919		-142.578125
3920		-138.671875
3921		-144.531250
3922		-138.671875
3923		-146.484375
3924		-138.671875
3925		-146.484375
3926		-140.625000
3927		-148.437500
3928		-140.625000
3929		-148.437500
3930		-142.578125
3931		-150.390625
3932		-142.578125
3933		-148.437500
3934		-146.484375
3935		-148.437500
3936		-146.484375
3937		-152.343750
3938		-144.531250
3939		-150.390625
3940		-144.531250
3941		-152.343750
3942		-144.531250
3943		-152.343750
3944		-144.531250
3945		-152.343750
3946		-144.531250
3947		-152.343750
3948		-144.531250
3949		-152.343750
3950		-144.531250
3951		-148.437500
3952		-146.484375
3953		-150.390625
3954		-142.578125
3955		-150.390625
3956		-142.578125
3957		-148.437500
3958		-142.578125
3959		-146.484375
3960		-140.625000
3961		-146.484375
3962		-140.625000
3963		-146.484375
3964		-138.671875
3965		-144.531250
3966		-136.718750
3967		-140.625000
3968		-136.718750
3969		-138.671875
3970		-134.765625
3971		-140.625000
3972		-132.812500
3973		-138.671875
3974		-130.859375
3975		-136.718750
3976		-128.906250
3977		-134.765625
3978		-126.953125
3979		-132.812500
3980		-125.000000
3981		-130.859375
3982		-123.046875
3983		-126.953125
3984		-121.093750
3985		-123.046875
3986		-119.140625
3987		-121.093750
3988		-115.234375
3989		-121.093750
3990		-113.281250
3991		-117.187500
3992		-109.375000
3993		-115.234375
3994		-107.421875
3995		-111.328125
3996		-105.468750
3997		-109.375000
3998		-101.562500
3999		-105.468750
4000		-99.609375
4001		-101.562500
4002		-97.656250
4003		-97.656250
4004		-91.796875
4005		-95.703125
4006		-87.890625
4007		-93.750000
4008		-85.937500
4009		-89.843750
4010		-82.031250
4011		-87.890625
4012		-78.125000
4013		-83.984375
4014		-74.218750
4015		-80.078125
4016		-72.265625
4017		-74.218750
4018		-68.359375
4019		-70.312500
4020		-64.453125
4021		-68.359375
4022		-60.546875
4023		-64.453125
4024		-56.640625
4025		-60.546875
4026		-52.734375
4027		-56.640625
4028		-48.828125
4029		-52.734375
4030		-44.921875
4031		-48.828125
4032		-41.015625
4033		-44.921875
4034		-39.062500
4035		-39.062500
4036		-35.156250
4037		-35.156250
4038		-29.296875
4039		-33.203125
4040		-25.390625
4041		-29.296875
4042		-21.484375
4043		-25.390625
4044		-15.625000
4045		-21.484375
4046		-11.718750
4047		-17.578125
4048		-7.812500
4049		-13.671875
4050		-5.859375
4051		-7.812500
4052		-1.953125
4053		-3.906250
4054		1.953125
4055		0.000000
4056		7.812500
4057		1.953125
4058		11.718750
4059		5.859375
4060		15.625000
4061		11.718750
4062		19.531250
4063		13.671875
4064		21.484375
4065		17.578125
4066		25.390625
4067		23.437500
4068		29.296875
4069		27.343750
4070		33.203125
4071		31.250000
4072		39.062500
4073		33.203125
4074		41.015625
4075		37.109375
4076		44.921875
4077		41.015625
4078		48.828125
4079		44.921875
4080		52.734375
4081		46.875000
4082		56.640625
4083		50.781250
4084		56.640625
4085		56.640625
4086		60.546875
4087		58.593750
4088		64.453125
4089		60.546875
4090		70.312500
4091		64.453125
4092		72.265625
4093		68.359375
4094		76.171875
4095		72.265625
4096		78.125000
4097		74.218750
4098		82.031250
4099		78.125000
4100		83.984375
4101		82.031250
4102		85.937500
4103		83.984375
4104		89.843750
4105		85.937500
4106		93.750000
4107		87.890625
4108		95.703125
4109		89.843750
4110		99.609375
4111		93.750000
4112		101.562500
4113		95.703125
4114		103.515625
4115		99.609375
4116		107.421875
4117		103.515625
4118		107.421875
4119		105.468750
4120		109.375000
4121		107.421875
4122		113.281250
4123		109.375000
4124		117.187500
4125		111.328125
4126		117.187500
4127		113.281250
4128		119.140625
4129		115.234375
4130		121.093750
4131		115.234375
4132		125.000000
4133		119.140625
4134		125.000000
4135		123.046875
4136		125.000000
4137		123.046875
4138		128.906250
4139		123.046875
4140		130.859375
4141		125.000000
4142		132.812500
4143		126.953125
4144		132.812500
4145		126.953125
4146		134.765625
4147		128.906250
4148		136.718750
4149		130.859375
4150		136.718750
4151		132.812500
4152		136.718750
4153		134.765625
4154		136.718750
4155		132.812500
4156		140.625000
4157		134.765625
4158		140.625000
4159		134.765625
4160		142.578125
4161		134.765625
4162		142.578125
4163		136.718750
4164		142.578125
4165		136.718750
4166		144.531250
4167		136.718750
4168		144.531250
4169		140.625000
4170		142.578125
4171		138.671875
4172		144.531250
4173		138.671875
4174		146.484375
4175		138.671875
4176		146.484375
4177		138.671875
4178		146.484375
4179		138.671875
4180		146.484375
4181		138.671875
4182		144.531250
4183		138.671875
4184		144.531250
4185		140.625000
4186		142.578125
4187		140.625000
4188		142.578125
4189		138.671875
4190		144.531250
4191		136.718750
4192		144.531250
4193		136.718750
4194		144.531250
4195		134.765625
4196		142.578125
4197		134.765625
4198		142.578125
4199		134.765625
4200		140.625000
4201		134.765625
4202		140.625000
4203		134.765625
4204		138.671875
4205		132.812500
4206		138.671875
4207		130.859375
4208		138.671875
4209		128.906250
4210		136.718750
4211		126.953125
4212		134.765625
4213		126.953125
4214		134.765625
4215		125.000000
4216		132.812500
4217		123.046875
4218		132.812500
4219		123.046875
4220		126.953125
4221		123.046875
4222		126.953125
4223		119.140625
4224		125.000000
4225		117.187500
4226		125.000000
4227		115.234375
4228		123.046875
4229		111.328125
4230		119.140625
4231		109.375000
4232		119.140625
4233		107.421875
4234		117.187500
4235		107.421875
4236		111.328125
4237		105.468750
4238		109.375000
4239		101.562500
4240		107.421875
4241		99.609375
4242		107.421875
4243		97.656250
4244		103.515625
4245		93.750000
4246		101.562500
4247		89.843750
4248		99.609375
4249		87.890625
4250		95.703125
4251		85.937500
4252		93.750000
4253		83.984375
4254		89.843750
4255		80.078125
4256		85.937500
4257		76.171875
4258		83.984375
4259		72.265625
4260		82.031250
4261		70.312500
4262		78.125000
4263		68.359375
4264		74.218750
4265		62.500000
4266		72.265625
4267		60.546875
4268		68.359375
4269		58.593750
4270		62.500000
4271		54.687500
4272		60.546875
4273		50.781250
4274		56.640625
4275		46.875000
4276		52.734375
4277		42.968750
4278		50.781250
4279		39.062500
4280		46.875000
4281		37.109375
4282		42.968750
4283		33.203125
4284		39.062500
4285		29.296875
4286		35.156250
4287		25.390625
4288		31.250000
4289		19.531250
4290		27.343750
4291		15.625000
4292		25.390625
4293		11.718750
4294		21.484375
4295		7.812500
4296		17.578125
4297		5.859375
4298		13.671875
4299		0.000000
4300		9.765625
4301		-1.953125
4302		5.859375
4303		-5.859375
4304		0.000000
4305		-9.765625
4306		-3.906250
4307		-13.671875
4308		-7.812500
4309		-19.531250
4310		-9.765625
4311		-23.437500
4312		-15.625000
4313		-27.343750
4314		-19.531250
4315		-31.250000
4316		-23.437500
4317		-35.156250
4318		-27.343750
4319		-37.109375
4320		-31.250000
4321		-41.015625
4322		-37.109375
4323		-46.875000
4324		-39.062500
4325		-50.781250
4326		-42.968750
4327		-54.687500
4328		-44.921875
4329		-56.640625
4330		-48.828125
4331		-62.500000
4332		-52.734375
4333		-66.406250
4334		-56.640625
4335		-68.359375
4336		-62.500000
4337		-72.265625
4338		-66.406250
4339		-76.171875
4340		-70.312500
4341		-80.078125
4342		-72.265625
4343		-83.984375
4344		-76.171875
4345		-85.937500
4346		-78.125000
4347		-89.843750
4348		-82.031250
4349		-93.750000
4350		-85.937500
4351		-97.656250
4352		-89.843750
4353		-97.656250
4354		-93.750000
4355		-101.562500
4356		-95.703125
4357		-107.421875
4358		-99.609375
4359		-109.375000
4360		-101.562500
4361		-113.281250
4362		-103.515625
4363		-113.281250
4364		-107.421875
4365		-117.187500
4366		-109.375000
4367		-119.140625
4368		-111.328125
4369		-121.093750
4370		-115.234375
4371		-123.046875
4372		-119.140625
4373		-128.906250
4374		-121.093750
4375		-128.906250
4376		-121.093750
4377		-130.859375
4378		-123.046875
4379		-132.812500
4380		-126.953125
4381		-134.765625
4382		-128.906250
4383		-136.718750
4384		-130.859375
4385		-138.671875
4386		-130.859375
4387		-138.671875
4388		-134.765625
4389		-140.625000
4390		-136.718750
4391		-142.578125
4392		-136.718750
4393		-146.484375
4394		-138.671875
4395		-146.484375
4396		-138.671875
4397		-148.437500
4398		-140.625000
4399		-148.437500
4400		-140.625000
4401		-148.437500
4402		-142.578125
4403		-148.437500
4404		-144.531250
4405		-148.437500
4406		-146.484375
4407		-150.390625
4408		-144.531250
4409		-150.390625
4410		-144.531250
4411		-152.343750
4412		-144.531250
4413		-152.343750
4414		-144.531250
4415		-152.343750
4416		-144.531250
4417		-152.343750
4418		-144.531250
4419		-150.390625
4420		-144.531250
4421		-150.390625
4422		-146.484375
4423		-148.437500
4424		-144.531250
4425		-150.390625
4426		-142.578125
4427		-148.437500
4428		-142.578125
4429		-148.437500
4430		-142.578125
4431		-146.484375
4432		-140.625000
4433		-146.484375
4434		-140.625000
4435		-146.484375
4436		-138.671875
4437		-142.578125
4438		-138.671875
4439		-140.625000
4440		-136.718750
4441		-140.625000
4442		-132.812500
4443		-140.625000
4444		-132.812500
4445		-138.671875
4446		-130.859375
4447		-136.718750
4448		-128.906250
4449		-134.765625
4450		-125.000000
4451		-132.812500
4452		-125.000000
4453		-128.906250
4454		-123.046875
4455		-125.000000
4456		-121.093750
4457		-123.046875
4458		-117.187500
4459		-123.046875
4460		-115.234375
4461		-119.140625
4462		-111.328125
4463		-117.187500
4464		-109.375000
4465		-115.234375
4466		-105.468750
4467		-111.328125
4468		-103.515625
4469		-109.375000
4470		-101.562500
4471		-103.515625
4472		-99.609375
4473		-101.562500
4474		-95.703125
4475		-99.609375
4476		-91.796875
4477		-95.703125
4478		-85.937500
4479		-91.796875
4480		-83.984375
4481		-89.843750
4482		-82.031250
4483		-85.937500
4484		-78.125000
4485		-82.031250
4486		-74.218750
4487		-78.125000
4488		-72.265625
4489		-72.265625
4490		-68.359375
4491		-70.312500
4492		-62.500000
4493		-68.359375
4494		-58.593750
4495		-62.500000
4496		-54.687500
4497		-60.546875
4498		-50.781250
4499		-54.687500
4500		-46.875000
4501		-52.734375
4502		-44.921875
4503		-48.828125
4504		-41.015625
4505		-42.968750
4506		-37.109375
4507		-39.062500
4508		-33.203125
4509		-35.156250
4510		-27.343750
4511		-31.250000
4512		-23.437500
4513		-29.296875
4514		-19.531250
4515		-25.390625
4516		-15.625000
4517		-19.531250
4518		-11.718750
4519		-15.625000
4520		-7.812500
4521		-11.718750
4522		-5.859375
4523		-7.812500
4524		-1.953125
4525		-3.906250
4526		5.859375
4527		0.000000
4528		7.812500
4529		3.906250
4530		11.718750
4531		7.812500
4532		15.625000
4533		11.718750
4534		21.484375
4535		13.671875
4536		23.437500
4537		19.531250
4538		25.390625
4539		25.390625
4540		29.296875
4541		27.343750
4542		37.109375
4543		29.296875
4544		39.062500
4545		35.156250
4546		42.968750
4547		37.109375
4548		46.875000
4549		41.015625
4550		48.828125
4551		44.921875
4552		52.734375
4553		48.828125
4554		56.640625
4555		52.734375
4556		58.593750
4557		56.640625
4558		62.500000
4559		60.546875
4560		66.406250
4561		62.500000
4562		70.312500
4563		64.453125
4564		74.218750
4565		68.359375
4566		76.171875
4567		70.312500
4568		80.078125
4569		74.218750
4570		83.984375
4571		78.125000
4572		83.984375
4573		82.031250
4574		87.890625
4575		85.937500
4576		91.796875
4577		85.937500
4578		95.703125
4579		89.843750
4580		95.703125
4581		91.796875
4582		99.609375
4583		93.750000
4584		101.562500
4585		97.656250
4586		105.468750
4587		99.609375
4588		105.468750
4589		103.515625
4590		107.421875
4591		105.468750
4592		111.328125
4593		107.421875
4594		113.281250
4595		109.375000
4596		115.234375
4597		111.328125
4598		117.187500
4599		113.281250
4600		121.093750
4601		115.234375
4602		121.093750
4603		117.187500
4604		125.000000
4605		121.093750
4606		125.000000
4607		123.046875
4608		126.953125
4609		123.046875
4610		128.906250
4611		123.046875
4612		130.859375
4613		125.000000
4614		132.812500
4615		126.953125
4616		134.765625
4617		126.953125
4618		134.765625
4619		128.906250
4620		136.718750
4621		130.859375
4622		136.718750
4623		132.812500
4624		136.718750
4625		134.765625
4626		138.671875
4627		132.812500
4628		140.625000
4629		134.765625
4630		140.625000
4631		134.765625
4632		142.578125
4633		136.718750
4634		142.578125
4635		136.718750
4636		142.578125
4637		136.718750
4638		144.531250
4639		138.671875
4640		142.578125
4641		140.625000
4642		142.578125
4643		138.671875
4644		144.531250
4645		138.671875
4646		144.531250
4647		138.671875
4648		144.531250
4649		138.671875
4650		144.531250
4651		138.671875
4652		146.484375
4653		138.671875
4654		144.531250
4655		138.671875
4656		146.484375
4657		140.625000
4658		142.578125
4659		136.718750
4660		144.531250
4661		138.671875
4662		144.531250
4663		136.718750
4664		144.531250
4665		136.718750
4666		142.578125
4667		136.718750
4668		142.578125
4669		134.765625
4670		142.578125
4671		134.765625
4672		140.625000
4673		134.765625
4674		138.671875
4675		132.812500
4676		138.671875
4677		130.859375
4678		138.671875
4679		130.859375
4680		136.718750
4681		128.906250
4682		136.718750
4683		126.953125
4684		134.765625
4685		126.953125
4686		132.812500
4687		125.000000
4688		132.812500
4689		125.000000
4690		128.906250
4691		123.046875
4692		126.953125
4693		121.093750
4694		126.953125
4695		119.140625
4696		125.000000
4697		115.234375
4698		123.046875
4699		115.234375
4700		121.093750
4701		113.281250
4702		119.140625
4703		111.328125
4704		117.187500
4705		109.375000
4706		115.234375
4707		107.421875
4708		111.328125
4709		105.468750
4710		109.375000
4711		101.562500
4712		109.375000
4713		97.656250
4714		105.468750
4715		95.703125
4716		103.515625
4717		93.750000
4718		101.562500
4719		89.843750
4720		97.656250
4721		87.890625
4722		95.703125
4723		85.937500
4724		91.796875
4725		83.984375
4726		87.890625
4727		78.125000
4728		85.937500
4729		76.171875
4730		83.984375
4731		72.265625
4732		80.078125
4733		68.359375
4734		78.125000
4735		66.406250
4736		74.218750
4737		62.500000
4738		70.312500
4739		60.546875
4740		68.359375
4741		56.640625
4742		62.500000
4743		50.781250
4744		58.593750
4745		48.828125
4746		56.640625
4747		44.921875
4748		54.687500
4749		41.015625
4750		50.781250
4751		37.109375
4752		46.875000
4753		35.156250
4754		41.015625
4755		31.250000
4756		39.062500
4757		27.343750
4758		33.203125
4759		23.437500
4760		29.296875
4761		19.531250
4762		27.343750
4763		15.625000
4764		23.437500
4765		11.718750
4766		19.531250
4767		5.859375
4768		15.625000
4769		3.906250
4770		11.718750
4771		0.000000
4772		9.765625
4773		-1.953125
4774		1.953125
4775		-5.859375
4776		-1.953125
4777		-11.718750
4778		-5.859375
4779		-15.625000
4780		-7.812500
4781		-21.484375
4782		-11.718750
4783		-23.437500
4784		-15.625000
4785		-27.343750
4786		-19.531250
4787		-33.203125
4788		-23.437500
4789		-35.156250
4790		-27.343750
4791		-39.062500
4792		-33.203125
4793		-42.968750
4794		-37.109375
4795		-46.875000
4796		-39.062500
4797		-52.734375
4798		-42.968750
4799		-54.687500
4800		-46.875000
4801		-60.546875
4802		-50.781250
4803		-62.500000
4804		-54.687500
4805		-66.406250
4806		-58.593750
4807		-68.359375
4808		-64.453125
4809		-72.265625
4810		-66.406250
4811		-76.171875
4812		-70.312500
4813		-82.031250
4814		-72.265625
4815		-83.984375
4816		-76.171875
4817		-87.890625
4818		-78.125000
4819		-91.796875
4820		-82.031250
4821		-93.750000
4822		-85.937500
4823		-95.703125
4824		-89.843750
4825		-97.656250
4826		-93.750000
4827		-103.515625
4828		-95.703125
4829		-107.421875
4830		-97.656250
4831		-109.375000
4832		-101.562500
4833		-113.281250
4834		-103.515625
4835		-115.234375
4836		-107.421875
4837		-117.187500
4838		-109.375000
4839		-119.140625
4840		-111.328125
4841		-121.093750
4842		-117.187500
4843		-123.046875
4844		-119.140625
4845		-128.906250
4846		-119.140625
4847		-130.859375
4848		-121.093750
4849		-132.812500
4850		-125.000000
4851		-134.765625
4852		-126.953125
4853		-134.765625
4854		-128.906250
4855		-138.671875
4856		-130.859375
4857		-136.718750
4858		-134.765625
4859		-138.671875
4860		-134.765625
4861		-142.578125
4862		-136.718750
4863		-144.531250
4864		-136.718750
4865		-144.531250
4866		-138.671875
4867		-146.484375
4868		-138.671875
4869		-146.484375
4870		-140.625000
4871		-148.437500
4872		-140.625000
4873		-148.437500
4874		-142.578125
4875		-148.437500
4876		-144.531250
4877		-148.437500
4878		-144.531250
4879		-150.390625
4880		-144.531250
4881		-150.390625
4882		-144.531250
4883		-150.390625
4884		-144.531250
4885		-152.343750
4886		-144.531250
4887		-152.343750
4888		-144.531250
4889		-150.390625
4890		-144.531250
4891		-148.437500
4892		-146.484375
4893		-148.437500
4894		-146.484375
4895		-150.390625
4896		-142.578125
4897		-150.390625
4898		-142.578125
4899		-148.437500
4900		-140.625000
4901		-146.484375
4902		-140.625000
4903		-146.484375
4904		-140.625000
4905		-144.531250
4906		-138.671875
4907		-144.531250
4908		-138.671875
4909		-140.625000
4910		-136.718750
4911		-140.625000
4912		-134.765625
4913		-140.625000
4914		-132.812500
4915		-138.671875
4916		-130.859375
4917		-136.718750
4918		-128.906250
4919		-134.765625
4920		-126.953125
4921		-132.812500
4922		-125.000000
4923		-130.859375
4924		-125.000000
4925		-126.953125
4926		-123.046875
4927		-125.000000
4928		-121.093750
4929		-123.046875
4930		-117.187500
4931		-121.093750
4932		-113.281250
4933		-119.140625
4934		-111.328125
4935		-115.234375
4936		-109.375000
4937		-113.281250
4938		-105.468750
4939		-109.375000
4940		-101.562500
4941		-105.468750
4942		-101.562500
4943		-101.562500
4944		-97.656250
4945		-99.609375
4946		-93.750000
4947		-97.656250
4948		-89.843750
4949		-95.703125
4950		-85.937500
4951		-89.843750
4952		-83.984375
4953		-87.890625
4954		-80.078125
4955		-83.984375
4956		-76.171875
4957		-80.078125
4958		-74.218750
4959		-76.171875
4960		-70.312500
4961		-72.265625
4962		-66.406250
4963		-70.312500
4964		-60.546875
4965		-66.406250
4966		-58.593750
4967		-62.500000
4968		-54.687500
4969		-58.593750
4970		-48.828125
4971		-54.687500
4972		-44.921875
4973		-50.781250
4974		-42.968750
4975		-44.921875
4976		-39.062500
4977		-41.015625
4978		-35.156250
4979		-37.109375
4980		-29.296875
4981		-35.156250
4982		-27.343750
4983		-29.296875
4984		-21.484375
4985		-27.343750
4986		-17.578125
4987		-23.437500
4988		-13.671875
4989		-19.531250
4990		-11.718750
4991		-15.625000
4992		-7.812500
4993		-9.765625
4994		-3.906250
4995		-5.859375
4996		1.953125
4997		-1.953125
4998		5.859375
4999		0.000000
5000		9.765625
5001		3.906250
5002		13.671875
5003		9.765625
5004		15.625000
5005		11.718750
5006		21.484375
5007		15.625000
5008		23.437500
5009		21.484375
5010		27.343750
5011		25.390625
5012		31.250000
5013		27.343750
5014		35.156250
5015		31.250000
5016		41.015625
5017		35.156250
5018		44.921875
5019		39.062500
5020		46.875000
5021		42.968750
5022		50.781250
5023		44.921875
5024		52.734375
5025		50.781250
5026		56.640625
5027		54.687500
5028		60.546875
5029		58.593750
5030		64.453125
5031		60.546875
5032		68.359375
5033		64.453125
5034		72.265625
5035		66.406250
5036		74.218750
5037		70.312500
5038		78.125000
5039		72.265625
5040		82.031250
5041		76.171875
5042		82.031250
5043		80.078125
5044		83.984375
5045		83.984375
5046		87.890625
5047		83.984375
5048		91.796875
5049		87.890625
5050		93.750000
5051		89.843750
5052		97.656250
5053		93.750000
5054		99.609375
5055		95.703125
5056		103.515625
5057		97.656250
5058		105.468750
5059		101.562500
5060		105.468750
5061		105.468750
5062		109.375000
5063		105.468750
5064		113.281250
5065		107.421875
5066		115.234375
5067		109.375000
5068		117.187500
5069		111.328125
5070		119.140625
5071		113.281250
5072		119.140625
5073		115.234375
5074		123.046875
5075		117.187500
5076		123.046875
5077		121.093750
5078		125.000000
5079		123.046875
5080		128.906250
5081		123.046875
5082		128.906250
5083		125.000000
5084		130.859375
5085		125.000000
5086		130.859375
5087		126.953125
5088		132.812500
5089		128.906250
5090		134.765625
5091		130.859375
5092		136.718750
5093		132.812500
5094		136.718750
5095		134.765625
5096		136.718750
5097		132.812500
5098		140.625000
5099		134.765625
5100		140.625000
5101		134.765625
5102		140.625000
5103		136.718750
5104		140.625000
5105		138.671875
5106		140.625000
5107		136.718750
5108		142.578125
5109		138.671875
5110		142.578125
5111		140.625000
5112		142.578125
5113		138.671875
5114		144.531250
5115		138.671875
5116		144.531250
5117		140.625000
5118		144.531250
5119		140.625000
5120		144.531250
5121		140.625000
5122		144.531250
5123		140.625000
5124		144.531250
5125		140.625000
5126		144.531250
5127		140.625000
5128		142.578125
5129		140.625000
5130		142.578125
5131		138.671875
5132		144.531250
5133		138.671875
5134		142.578125
5135		138.671875
5136		142.578125
5137		138.671875
5138		142.578125
5139		136.718750
5140		140.625000
5141		136.718750
5142		140.625000
5143		136.718750
5144		138.671875
5145		134.765625
5146		138.671875
5147		132.812500
5148		138.671875
5149		132.812500
5150		136.718750
5151		132.812500
5152		134.765625
5153		130.859375
5154		134.765625
5155		128.906250
5156		132.812500
5157		126.953125
5158		130.859375
5159		126.953125
5160		130.859375
5161		125.000000
5162		128.906250
5163		123.046875
5164		126.953125
5165		121.093750
5166		125.000000
5167		119.140625
5168		123.046875
5169		117.187500
5170		121.093750
5171		115.234375
5172		119.140625
5173		113.281250
5174		117.187500
5175		111.328125
5176		115.234375
5177		109.375000
5178		113.281250
5179		107.421875
5180		111.328125
5181		103.515625
5182		109.375000
5183		101.562500
5184		105.468750
5185		99.609375
5186		103.515625
5187		95.703125
5188		101.562500
5189		93.750000
5190		97.656250
5191		91.796875
5192		95.703125
5193		87.890625
5194		93.750000
5195		85.937500
5196		89.843750
5197		82.031250
5198		87.890625
5199		80.078125
5200		83.984375
5201		76.171875
5202		82.031250
5203		72.265625
5204		78.125000
5205		70.312500
5206		74.218750
5207		66.406250
5208		72.265625
5209		62.500000
5210		68.359375
5211		60.546875
5212		64.453125
5213		56.640625
5214		62.500000
5215		52.734375
5216		58.593750
5217		48.828125
5218		54.687500
5219		44.921875
5220		50.781250
5221		42.968750
5222		46.875000
5223		39.062500
5224		44.921875
5225		35.156250
5226		41.015625
5227		31.250000
5228		37.109375
5229		27.343750
5230		33.203125
5231		23.437500
5232		29.296875
5233		19.531250
5234		25.390625
5235		15.625000
5236		21.484375
5237		11.718750
5238		17.578125
5239		7.812500
5240		13.671875
5241		3.906250
5242		9.765625
5243		0.000000
5244		5.859375
5245		-3.906250
5246		1.953125
5247		-7.812500
5248		-1.953125
5249		-11.718750
5250		-5.859375
5251		-15.625000
5252		-9.765625
5253		-19.531250
5254		-13.671875
5255		-23.437500
5256		-17.578125
5257		-27.343750
5258		-21.484375
5259		-31.250000
5260		-25.390625
5261		-35.156250
5262		-29.296875
5263		-39.062500
5264		-35.156250
5265		-42.968750
5266		-37.109375
5267		-46.875000
5268		-41.015625
5269		-50.781250
5270		-44.921875
5271		-54.687500
5272		-48.828125
5273		-58.593750
5274		-52.734375
5275		-62.500000
5276		-56.640625
5277		-66.406250
5278		-60.546875
5279		-68.359375
5280		-64.453125
5281		-72.265625
5282		-68.359375
5283		-76.171875
5284		-72.265625
5285		-80.078125
5286		-74.218750
5287		-83.984375
5288		-78.125000
5289		-87.890625
5290		-82.031250
5291		-89.843750
5292		-85.937500
5293		-93.750000
5294		-87.890625
5295		-95.703125
5296		-91.796875
5297		-101.562500
5298		-95.703125
5299		-103.515625
5300		-97.656250
5301		-105.468750
5302		-101.562500
5303		-109.375000
5304		-103.515625
5305		-111.328125
5306		-107.421875
5307		-115.234375
5308		-109.375000
5309		-117.187500
5310		-113.281250
5311		-119.140625
5312		-115.234375
5313		-123.046875
5314		-117.187500
5315		-125.000000
5316		-121.093750
5317		-126.953125
5318		-123.046875
5319		-128.906250
5320		-125.000000
5321		-130.859375
5322		-126.953125
5323		-132.812500
5324		-128.906250
5325		-134.765625
5326		-130.859375
5327		-136.718750
5328		-132.812500
5329		-138.671875
5330		-134.765625
5331		-140.625000
5332		-136.718750
5333		-142.578125
5334		-136.718750
5335		-142.578125
5336		-140.625000
5337		-144.531250
5338		-140.625000
5339		-144.531250
5340		-142.578125
5341		-146.484375
5342		-142.578125
5343		-148.437500
5344		-142.578125
5345		-148.437500
5346		-144.531250
5347		-148.437500
5348		-146.484375
5349		-150.390625
5350		-144.531250
5351		-150.390625
5352		-146.484375
5353		-150.390625
5354		-146.484375
5355		-150.390625
5356		-146.484375
5357		-150.390625
5358		-146.484375
5359		-150.390625
5360		-146.484375
5361		-150.390625
5362		-146.484375
5363		-148.437500
5364		-146.484375
5365		-150.390625
5366		-146.484375
5367		-148.437500
5368		-144.531250
5369		-148.437500
5370		-144.531250
5371		-146.484375
5372		-142.578125
5373		-146.484375
5374		-142.578125
5375		-146.484375
5376		-140.625000
5377		-144.531250
5378		-140.625000
5379		-142.578125
5380		-138.671875
5381		-140.625000
5382		-136.718750
5383		-140.625000
5384		-136.718750
5385		-138.671875
5386		-134.765625
5387		-136.718750
5388		-132.812500
5389		-134.765625
5390		-130.859375
5391		-132.812500
5392		-128.906250
5393		-130.859375
5394		-126.953125
5395		-128.906250
5396		-125.000000
5397		-126.953125
5398		-123.046875
5399		-125.000000
5400		-119.140625
5401		-123.046875
5402		-117.187500
5403		-119.140625
5404		-115.234375
5405		-117.187500
5406		-111.328125
5407		-113.281250
5408		-109.375000
5409		-111.328125
5410		-107.421875
5411		-109.375000
5412		-103.515625
5413		-105.468750
5414		-99.609375
5415		-101.562500
5416		-97.656250
5417		-99.609375
5418		-93.750000
5419		-95.703125
5420		-89.843750
5421		-91.796875
5422		-87.890625
5423		-89.843750
5424		-83.984375
5425		-85.937500
5426		-80.078125
5427		-82.031250
5428		-76.171875
5429		-78.125000
5430		-74.218750
5431		-74.218750
5432		-70.312500
5433		-72.265625
5434		-66.406250
5435		-68.359375
5436		-62.500000
5437		-64.453125
5438		-58.593750
5439		-60.546875
5440		-54.687500
5441		-56.640625
5442		-50.781250
5443		-52.734375
5444		-46.875000
5445		-48.828125
5446		-42.968750
5447		-44.921875
5448		-39.062500
5449		-41.015625
5450		-35.156250
5451		-37.109375
5452		-31.250000
5453		-33.203125
5454		-27.343750
5455		-29.296875
5456		-23.437500
5457		-25.390625
5458		-19.531250
5459		-21.484375
5460		-13.671875
5461		-15.625000
5462		-11.718750
5463		-11.718750
5464		-7.812500
5465		-7.812500
5466		-1.953125
5467		-5.859375
5468		0.000000
5469		0.000000
5470		5.859375
5471		3.906250
5472		9.765625
5473		7.812500
5474		11.718750
5475		11.718750
5476		17.578125
5477		15.625000
5478		21.484375
5479		19.531250
5480		23.437500
5481		23.437500
5482		27.343750
5483		27.343750
5484		31.250000
5485		29.296875
5486		35.156250
5487		35.156250
5488		39.062500
5489		37.109375
5490		42.968750
5491		41.015625
5492		46.875000
5493		44.921875
5494		50.781250
5495		48.828125
5496		52.734375
5497		52.734375
5498		56.640625
5499		54.687500
5500		60.546875
5501		58.593750
5502		64.453125
5503		62.500000
5504		68.359375
5505		64.453125
5506		70.312500
5507		68.359375
5508		74.218750
5509		72.265625
5510		76.171875
5511		74.218750
5512		80.078125
5513		78.125000
5514		82.031250
5515		82.031250
5516		85.937500
5517		83.984375
5518		87.890625
5519		87.890625
5520		91.796875
5521		89.843750
5522		93.750000
5523		91.796875
5524		97.656250
5525		95.703125
5526		99.609375
5527		97.656250
5528		101.562500
5529		99.609375
5530		103.515625
5531		101.562500
5532		107.421875
5533		105.468750
5534		109.375000
5535		107.421875
5536		111.328125
5537		109.375000
5538		113.281250
5539		111.328125
5540		115.234375
5541		113.281250
5542		117.187500
5543		115.234375
5544		119.140625
5545		117.187500
5546		121.093750
5547		119.140625
5548		123.046875
5549		121.093750
5550		125.000000
5551		123.046875
5552		126.953125
5553		125.000000
5554		128.906250
5555		126.953125
5556		128.906250
5557		126.953125
5558		130.859375
5559		128.906250
5560		132.812500
5561		130.859375
5562		134.765625
5563		130.859375
5564		134.765625
5565		132.812500
5566		136.718750
5567		132.812500
5568		136.718750
5569		134.765625
5570		138.671875
5571		134.765625
5572		138.671875
5573		136.718750
5574		140.625000
5575		136.718750
5576		140.625000
5577		138.671875
5578		140.625000
5579		138.671875
5580		142.578125
5581		138.671875
5582		142.578125
5583		138.671875
5584		142.578125
5585		138.671875
5586		142.578125
5587		138.671875
5588		142.578125
5589		140.625000
5590		142.578125
5591		140.625000
5592		142.578125
5593		140.625000
5594		142.578125
5595		138.671875
5596		142.578125
5597		140.625000
5598		142.578125
5599		140.625000
5600		142.578125
5601		138.671875
5602		142.578125
5603		138.671875
5604		142.578125
5605		138.671875
5606		142.578125
5607		136.718750
5608		140.625000
5609		136.718750
5610		140.625000
5611		136.718750
5612		140.625000
5613		134.765625
5614		138.671875
5615		134.765625
5616		138.671875
5617		132.812500
5618		138.671875
5619		132.812500
5620		136.718750
5621		130.859375
5622		134.765625
5623		130.859375
5624		134.765625
5625		128.906250
5626		132.812500
5627		126.953125
5628		130.859375
5629		126.953125
5630		128.906250
5631		125.000000
5632		128.906250
5633		123.046875
5634		126.953125
5635		121.093750
5636		125.000000
5637		119.140625
5638		123.046875
5639		117.187500
5640		121.093750
5641		115.234375
5642		119.140625
5643		113.281250
5644		117.187500
5645		111.328125
5646		117.187500
5647		109.375000
5648		113.281250
5649		107.421875
5650		111.328125
5651		105.468750
5652		109.375000
5653		101.562500
5654		107.421875
5655		99.609375
5656		103.515625
5657		97.656250
5658		101.562500
5659		95.703125
5660		99.609375
5661		91.796875
5662		97.656250
5663		89.843750
5664		93.750000
5665		85.937500
5666		89.843750
5667		82.031250
5668		87.890625
5669		80.078125
5670		85.937500
5671		76.171875
5672		82.031250
5673		74.218750
5674		80.078125
5675		70.312500
5676		76.171875
5677		68.359375
5678		72.265625
5679		64.453125
5680		68.359375
5681		60.546875
5682		66.406250
5683		58.593750
5684		62.500000
5685		54.687500
5686		58.593750
5687		50.781250
5688		56.640625
5689		46.875000
5690		52.734375
5691		42.968750
5692		48.828125
5693		39.062500
5694		44.921875
5695		37.109375
5696		41.015625
5697		33.203125
5698		37.109375
5699		29.296875
5700		33.203125
5701		23.437500
5702		29.296875
5703		21.484375
5704		25.390625
5705		17.578125
5706		23.437500
5707		11.718750
5708		19.531250
5709		9.765625
5710		15.625000
5711		5.859375
5712		11.718750
5713		1.953125
5714		7.812500
5715		-1.953125
5716		3.906250
5717		-5.859375
5718		0.000000
5719		-9.765625
5720		-3.906250
5721		-15.625000
5722		-9.765625
5723		-17.578125
5724		-13.671875
5725		-21.484375
5726		-17.578125
5727		-27.343750
5728		-21.484375
5729		-29.296875
5730		-25.390625
5731		-33.203125
5732		-27.343750
5733		-39.062500
5734		-33.203125
5735		-42.968750
5736		-37.109375
5737		-46.875000
5738		-41.015625
5739		-50.781250
5740		-44.921875
5741		-54.687500
5742		-48.828125
5743		-56.640625
5744		-50.781250
5745		-60.546875
5746		-54.687500
5747		-64.453125
5748		-58.593750
5749		-68.359375
5750		-62.500000
5751		-72.265625
5752		-66.406250
5753		-76.171875
5754		-70.312500
5755		-78.125000
5756		-74.218750
5757		-83.984375
5758		-76.171875
5759		-85.937500
5760		-80.078125
5761		-89.843750
5762		-83.984375
5763		-93.750000
5764		-87.890625
5765		-95.703125
5766		-91.796875
5767		-99.609375
5768		-93.750000
5769		-101.562500
5770		-97.656250
5771		-105.468750
5772		-101.562500
5773		-109.375000
5774		-103.515625
5775		-111.328125
5776		-107.421875
5777		-113.281250
5778		-109.375000
5779		-117.187500
5780		-111.328125
5781		-119.140625
5782		-113.281250
5783		-121.093750
5784		-117.187500
5785		-125.000000
5786		-119.140625
5787		-126.953125
5788		-123.046875
5789		-128.906250
5790		-125.000000
5791		-130.859375
5792		-126.953125
5793		-132.812500
5794		-128.906250
5795		-134.765625
5796		-130.859375
5797		-136.718750
5798		-132.812500
5799		-138.671875
5800		-134.765625
5801		-140.625000
5802		-136.718750
5803		-142.578125
5804		-136.718750
5805		-144.531250
5806		-138.671875
5807		-144.531250
5808		-140.625000
5809		-144.531250
5810		-142.578125
5811		-146.484375
5812		-142.578125
5813		-148.437500
5814		-144.531250
5815		-148.437500
5816		-144.531250
5817		-148.437500
5818		-146.484375
5819		-150.390625
5820		-146.484375
5821		-150.390625
5822		-146.484375
5823		-150.390625
5824		-148.437500
5825		-150.390625
5826		-148.437500
5827		-152.343750
5828		-148.437500
5829		-152.343750
5830		-148.437500
5831		-152.343750
5832		-148.437500
5833		-150.390625
5834		-148.437500
5835		-150.390625
5836		-146.484375
5837		-150.390625
5838		-146.484375
5839		-150.390625
5840		-146.484375
5841		-148.437500
5842		-144.531250
5843		-148.437500
5844		-144.531250
5845		-146.484375
5846		-142.578125
5847		-146.484375
5848		-142.578125
5849		-144.531250
5850		-142.578125
5851		-142.578125
5852		-140.625000
5853		-142.578125
5854		-138.671875
5855		-140.625000
5856		-136.718750
5857		-138.671875
5858		-134.765625
5859		-138.671875
5860		-132.812500
5861		-136.718750
5862		-130.859375
5863		-134.765625
5864		-128.906250
5865		-132.812500
5866		-128.906250
5867		-128.906250
5868		-125.000000
5869		-126.953125
5870		-123.046875
5871		-125.000000
5872		-121.093750
5873		-123.046875
5874		-117.187500
5875		-121.093750
5876		-115.234375
5877		-117.187500
5878		-111.328125
5879		-115.234375
5880		-111.328125
5881		-113.281250
5882		-107.421875
5883		-109.375000
5884		-103.515625
5885		-105.468750
5886		-101.562500
5887		-103.515625
5888		-97.656250
5889		-101.562500
5890		-93.750000
5891		-97.656250
5892		-89.843750
5893		-93.750000
5894		-87.890625
5895		-89.843750
5896		-83.984375
5897		-87.890625
5898		-80.078125
5899		-83.984375
5900		-78.125000
5901		-80.078125
5902		-74.218750
5903		-76.171875
5904		-70.312500
5905		-72.265625
5906		-66.406250
5907		-68.359375
5908		-60.546875
5909		-66.406250
5910		-58.593750
5911		-60.546875
5912		-54.687500
5913		-56.640625
5914		-50.781250
5915		-52.734375
5916		-46.875000
5917		-48.828125
5918		-42.968750
5919		-44.921875
5920		-39.062500
5921		-41.015625
5922		-35.156250
5923		-39.062500
5924		-31.250000
5925		-33.203125
5926		-27.343750
5927		-29.296875
5928		-21.484375
5929		-25.390625
5930		-17.578125
5931		-21.484375
5932		-13.671875
5933		-17.578125
5934		-11.718750
5935		-11.718750
5936		-7.812500
5937		-9.765625
5938		-1.953125
5939		-5.859375
5940		1.953125
5941		-1.953125
5942		5.859375
5943		1.953125
5944		9.765625
5945		5.859375
5946		13.671875
5947		9.765625
5948		17.578125
5949		13.671875
5950		19.531250
5951		17.578125
5952		23.437500
5953		23.437500
5954		27.343750
5955		27.343750
5956		31.250000
5957		29.296875
5958		35.156250
5959		33.203125
5960		39.062500
5961		37.109375
5962		42.968750
5963		41.015625
5964		46.875000
5965		44.921875
5966		48.828125
5967		48.828125
5968		52.734375
5969		50.781250
5970		56.640625
5971		54.687500
5972		60.546875
5973		58.593750
5974		64.453125
5975		62.500000
5976		66.406250
5977		64.453125
5978		70.312500
5979		68.359375
5980		72.265625
5981		72.265625
5982		76.171875
5983		74.218750
5984		80.078125
5985		78.125000
5986		82.031250
5987		80.078125
5988		85.937500
5989		83.984375
5990		87.890625
5991		85.937500
5992		89.843750
5993		89.843750
5994		93.750000
5995		91.796875
5996		97.656250
5997		95.703125
5998		99.609375
5999		97.656250
6000		101.562500
6001		99.609375
6002		103.515625
6003		101.562500
6004		105.468750
6005		105.468750
6006		109.375000
6007		107.421875
6008		111.328125
6009		109.375000
6010		113.281250
6011		111.328125
6012		115.234375
6013		113.281250
6014		117.187500
6015		115.234375
6016		119.140625
6017		117.187500
6018		121.093750
6019		119.140625
6020		123.046875
6021		121.093750
6022		125.000000
6023		123.046875
6024		126.953125
6025		125.000000
6026		128.906250
6027		126.953125
6028		128.906250
6029		126.953125
6030		130.859375
6031		128.906250
6032		132.812500
6033		130.859375
6034		132.812500
6035		130.859375
6036		134.765625
6037		132.812500
6038		134.765625
6039		132.812500
6040		136.718750
6041		134.765625
6042		136.718750
6043		134.765625
6044		138.671875
6045		136.718750
6046		138.671875
6047		136.718750
6048		140.625000
6049		136.718750
6050		140.625000
6051		138.671875
6052		140.625000
6053		138.671875
6054		140.625000
6055		136.718750
6056		144.531250
6057		136.718750
6058		144.531250
6059		136.718750
6060		144.531250
6061		140.625000
6062		142.578125
6063		140.625000
6064		142.578125
6065		140.625000
6066		142.578125
6067		140.625000
6068		142.578125
6069		140.625000
6070		142.578125
6071		136.718750
6072		144.531250
6073		136.718750
6074		144.531250
6075		136.718750
6076		144.531250
6077		138.671875
6078		140.625000
6079		138.671875
6080		140.625000
6081		136.718750
6082		140.625000
6083		136.718750
6084		138.671875
6085		134.765625
6086		138.671875
6087		134.765625
6088		136.718750
6089		130.859375
6090		140.625000
6091		130.859375
6092		138.671875
6093		130.859375
6094		136.718750
6095		130.859375
6096		132.812500
6097		128.906250
6098		132.812500
6099		126.953125
6100		130.859375
6101		126.953125
6102		128.906250
6103		125.000000
6104		128.906250
6105		121.093750
6106		128.906250
6107		119.140625
6108		128.906250
6109		117.187500
6110		126.953125
6111		117.187500
6112		121.093750
6113		115.234375
6114		119.140625
6115		113.281250
6116		117.187500
6117		111.328125
6118		115.234375
6119		109.375000
6120		113.281250
6121		105.468750
6122		113.281250
6123		101.562500
6124		113.281250
6125		99.609375
6126		109.375000
6127		99.609375
6128		107.421875
6129		97.656250
6130		101.562500
6131		93.750000
6132		99.609375
6133		91.796875
6134		95.703125
6135		89.843750
6136		93.750000
6137		85.937500
6138		91.796875
6139		80.078125
6140		89.843750
6141		78.125000
6142		87.890625
6143		76.171875
6144		83.984375
6145		74.218750
6146		78.125000
6147		70.312500
6148		76.171875
6149		68.359375
6150		72.265625
6151		64.453125
6152		68.359375
6153		60.546875
6154		66.406250
6155		54.687500
6156		62.500000
6157		50.781250
6158		60.546875
6159		48.828125
6160		58.593750
6161		46.875000
6162		54.687500
6163		42.968750
6164		48.828125
6165		39.062500
6166		44.921875
6167		35.156250
6168		41.015625
6169		31.250000
6170		37.109375
6171		27.343750
6172		33.203125
6173		21.484375
6174		33.203125
6175		17.578125
6176		29.296875
6177		15.625000
6178		25.390625
6179		13.671875
6180		17.578125
6181		7.812500
6182		13.671875
6183		5.859375
6184		9.765625
6185		1.953125
6186		5.859375
6187		-1.953125
6188		1.953125
6189		-9.765625
6190		0.000000
6191		-13.671875
6192		-3.906250
6193		-17.578125
6194		-7.812500
6195		-19.531250
6196		-13.671875
6197		-23.437500
6198		-17.578125
6199		-27.343750
6200		-21.484375
6201		-31.250000
6202		-25.390625
6203		-35.156250
6204		-29.296875
6205		-41.015625
6206		-33.203125
6207		-44.921875
6208		-33.203125
6209		-48.828125
6210		-37.109375
6211		-50.781250
6212		-41.015625
6213		-54.687500
6214		-48.828125
6215		-56.640625
6216		-52.734375
6217		-60.546875
6218		-56.640625
6219		-64.453125
6220		-60.546875
6221		-68.359375
6222		-64.453125
6223		-74.218750
6224		-64.453125
6225		-78.125000
6226		-68.359375
6227		-82.031250
6228		-72.265625
6229		-82.031250
6230		-78.125000
6231		-85.937500
6232		-82.031250
6233		-89.843750
6234		-83.984375
6235		-91.796875
6236		-87.890625
6237		-95.703125
6238		-91.796875
6239		-99.609375
6240		-93.750000
6241		-103.515625
6242		-95.703125
6243		-107.421875
6244		-99.609375
6245		-107.421875
6246		-103.515625
6247		-111.328125
6248		-107.421875
6249		-113.281250
6250		-109.375000
6251		-117.187500
6252		-111.328125
6253		-119.140625
6254		-115.234375
6255		-121.093750
6256		-117.187500
6257		-123.046875
6258		-119.140625
6259		-126.953125
6260		-119.140625
6261		-128.906250
6262		-121.093750
6263		-130.859375
6264		-126.953125
6265		-132.812500
6266		-128.906250
6267		-134.765625
6268		-130.859375
6269		-136.718750
6270		-132.812500
6271		-138.671875
6272		-134.765625
6273		-140.625000
6274		-134.765625
6275		-142.578125
6276		-136.718750
6277		-142.578125
6278		-138.671875
6279		-144.531250
6280		-140.625000
6281		-144.531250
6282		-142.578125
6283		-146.484375
6284		-142.578125
6285		-146.484375
6286		-144.531250
6287		-148.437500
6288		-144.531250
6289		-148.437500
6290		-146.484375
6291		-148.437500
6292		-146.484375
6293		-150.390625
6294		-146.484375
6295		-150.390625
6296		-146.484375
6297		-150.390625
6298		-148.437500
6299		-150.390625
6300		-148.437500
6301		-150.390625
6302		-148.437500
6303		-150.390625
6304		-148.437500
6305		-150.390625
6306		-148.437500
6307		-150.390625
6308		-146.484375
6309		-148.437500
6310		-146.484375
6311		-148.437500
6312		-146.484375
6313		-148.437500
6314		-144.531250
6315		-146.484375
6316		-144.531250
6317		-146.484375
6318		-142.578125
6319		-144.531250
6320		-142.578125
6321		-144.531250
6322		-140.625000
6323		-142.578125
6324		-140.625000
6325		-142.578125
6326		-138.671875
6327		-140.625000
6328		-136.718750
6329		-138.671875
6330		-134.765625
6331		-136.718750
6332		-132.812500
6333		-134.765625
6334		-130.859375
6335		-132.812500
6336		-128.906250
6337		-130.859375
6338		-126.953125
6339		-128.906250
6340		-125.000000
6341		-126.953125
6342		-121.093750
6343		-123.046875
6344		-119.140625
6345		-121.093750
6346		-117.187500
6347		-119.140625
6348		-115.234375
6349		-117.187500
6350		-111.328125
6351		-113.281250
6352		-109.375000
6353		-109.375000
6354		-105.468750
6355		-107.421875
6356		-103.515625
6357		-105.468750
6358		-99.609375
6359		-101.562500
6360		-95.703125
6361		-97.656250
6362		-93.750000
6363		-95.703125
6364		-87.890625
6365		-91.796875
6366		-85.937500
6367		-87.890625
6368		-83.984375
6369		-83.984375
6370		-80.078125
6371		-80.078125
6372		-76.171875
6373		-78.125000
6374		-72.265625
6375		-74.218750
6376		-68.359375
6377		-70.312500
6378		-64.453125
6379		-66.406250
6380		-60.546875
6381		-62.500000
6382		-56.640625
6383		-58.593750
6384		-52.734375
6385		-54.687500
6386		-48.828125
6387		-50.781250
6388		-44.921875
6389		-46.875000
6390		-41.015625
6391		-42.968750
6392		-37.109375
6393		-39.062500
6394		-33.203125
6395		-35.156250
6396		-29.296875
6397		-31.250000
6398		-25.390625
6399		-27.343750
6400		-21.484375
6401		-23.437500
6402		-17.578125
6403		-19.531250
6404		-13.671875
6405		-15.625000
6406		-9.765625
6407		-11.718750
6408		-3.906250
6409		-7.812500
6410		0.000000
6411		-1.953125
6412		1.953125
6413		1.953125
6414		5.859375
6415		3.906250
6416		11.718750
6417		9.765625
6418		13.671875
6419		13.671875
6420		19.531250
6421		17.578125
6422		21.484375
6423		21.484375
6424		27.343750
6425		21.484375
6426		29.296875
6427		27.343750
6428		33.203125
6429		31.250000
6430		37.109375
6431		35.156250
6432		41.015625
6433		39.062500
6434		44.921875
6435		42.968750
6436		46.875000
6437		46.875000
6438		50.781250
6439		50.781250
6440		54.687500
6441		52.734375
6442		58.593750
6443		56.640625
6444		62.500000
6445		60.546875
6446		64.453125
6447		64.453125
6448		68.359375
6449		66.406250
6450		72.265625
6451		70.312500
6452		74.218750
6453		74.218750
6454		78.125000
6455		76.171875
6456		80.078125
6457		80.078125
6458		83.984375
6459		82.031250
6460		87.890625
6461		83.984375
6462		89.843750
6463		87.890625
6464		91.796875
6465		89.843750
6466		95.703125
6467		93.750000
6468		97.656250
6469		95.703125
6470		99.609375
6471		97.656250
6472		103.515625
6473		101.562500
6474		105.468750
6475		101.562500
6476		107.421875
6477		105.468750
6478		109.375000
6479		107.421875
6480		111.328125
6481		111.328125
6482		115.234375
6483		111.328125
6484		115.234375
6485		115.234375
6486		117.187500
6487		115.234375
6488		119.140625
6489		119.140625
6490		121.093750
6491		119.140625
6492		125.000000
6493		121.093750
6494		126.953125
6495		123.046875
6496		126.953125
6497		125.000000
6498		128.906250
6499		126.953125
6500		130.859375
6501		126.953125
6502		130.859375
6503		128.906250
6504		132.812500
6505		130.859375
6506		132.812500
6507		132.812500
6508		134.765625
6509		132.812500
6510		136.718750
6511		132.812500
6512		136.718750
6513		134.765625
6514		138.671875
6515		134.765625
6516		138.671875
6517		136.718750
6518		140.625000
6519		136.718750
6520		140.625000
6521		138.671875
6522		140.625000
6523		138.671875
6524		140.625000
6525		138.671875
6526		142.578125
6527		138.671875
6528		142.578125
6529		140.625000
6530		142.578125
6531		140.625000
6532		142.578125
6533		138.671875
6534		144.531250
6535		140.625000
6536		142.578125
6537		140.625000
6538		142.578125
6539		140.625000
6540		142.578125
6541		140.625000
6542		142.578125
6543		140.625000
6544		142.578125
6545		140.625000
6546		142.578125
6547		138.671875
6548		142.578125
6549		138.671875
6550		142.578125
6551		138.671875
6552		140.625000
6553		136.718750
6554		140.625000
6555		136.718750
6556		138.671875
6557		136.718750
6558		138.671875
6559		134.765625
6560		138.671875
6561		134.765625
6562		136.718750
6563		132.812500
6564		136.718750
6565		132.812500
6566		134.765625
6567		130.859375
6568		132.812500
6569		128.906250
6570		132.812500
6571		126.953125
6572		130.859375
6573		126.953125
6574		128.906250
6575		125.000000
6576		128.906250
6577		123.046875
6578		126.953125
6579		121.093750
6580		125.000000
6581		119.140625
6582		123.046875
6583		117.187500
6584		121.093750
6585		115.234375
6586		119.140625
6587		113.281250
6588		117.187500
6589		111.328125
6590		115.234375
6591		109.375000
6592		113.281250
6593		107.421875
6594		111.328125
6595		103.515625
6596		107.421875
6597		101.562500
6598		105.468750
6599		99.609375
6600		103.515625
6601		95.703125
6602		101.562500
6603		93.750000
6604		97.656250
6605		91.796875
6606		95.703125
6607		87.890625
6608		93.750000
6609		85.937500
6610		89.843750
6611		82.031250
6612		87.890625
6613		80.078125
6614		83.984375
6615		76.171875
6616		80.078125
6617		74.218750
6618		78.125000
6619		70.312500
6620		74.218750
6621		66.406250
6622		72.265625
6623		62.500000
6624		68.359375
6625		60.546875
6626		64.453125
6627		56.640625
6628		60.546875
6629		52.734375
6630		58.593750
6631		48.828125
6632		54.687500
6633		46.875000
6634		50.781250
6635		42.968750
6636		46.875000
6637		39.062500
6638		42.968750
6639		35.156250
6640		39.062500
6641		31.250000
6642		37.109375
6643		27.343750
6644		33.203125
6645		23.437500
6646		29.296875
6647		19.531250
6648		25.390625
6649		15.625000
6650		21.484375
6651		11.718750
6652		17.578125
6653		7.812500
6654		13.671875
6655		3.906250
6656		9.765625
6657		0.000000
6658		5.859375
6659		-5.859375
6660		1.953125
6661		-7.812500
6662		-1.953125
6663		-11.718750
6664		-5.859375
6665		-15.625000
6666		-9.765625
6667		-19.531250
6668		-13.671875
6669		-23.437500
6670		-19.531250
6671		-27.343750
6672		-21.484375
6673		-31.250000
6674		-25.390625
6675		-35.156250
6676		-29.296875
6677		-41.015625
6678		-33.203125
6679		-42.968750
6680		-37.109375
6681		-46.875000
6682		-41.015625
6683		-50.781250
6684		-46.875000
6685		-54.687500
6686		-48.828125
6687		-58.593750
6688		-52.734375
6689		-62.500000
6690		-56.640625
6691		-66.406250
6692		-60.546875
6693		-70.312500
6694		-64.453125
6695		-74.218750
6696		-68.359375
6697		-76.171875
6698		-72.265625
6699		-80.078125
6700		-74.218750
6701		-83.984375
6702		-78.125000
6703		-85.937500
6704		-82.031250
6705		-89.843750
6706		-85.937500
6707		-93.750000
6708		-87.890625
6709		-99.609375
6710		-91.796875
6711		-101.562500
6712		-93.750000
6713		-103.515625
6714		-97.656250
6715		-105.468750
6716		-101.562500
6717		-109.375000
6718		-103.515625
6719		-111.328125
6720		-107.421875
6721		-113.281250
6722		-109.375000
6723		-117.187500
6724		-113.281250
6725		-119.140625
6726		-115.234375
6727		-123.046875
6728		-117.187500
6729		-125.000000
6730		-119.140625
6731		-126.953125
6732		-123.046875
6733		-128.906250
6734		-125.000000
6735		-130.859375
6736		-126.953125
6737		-132.812500
6738		-128.906250
6739		-134.765625
6740		-130.859375
6741		-136.718750
6742		-132.812500
6743		-140.625000
6744		-132.812500
6745		-140.625000
6746		-134.765625
6747		-140.625000
6748		-138.671875
6749		-142.578125
6750		-138.671875
6751		-144.531250
6752		-140.625000
6753		-144.531250
6754		-142.578125
6755		-146.484375
6756		-142.578125
6757		-146.484375
6758		-144.531250
6759		-148.437500
6760		-144.531250
6761		-150.390625
6762		-144.531250
6763		-150.390625
6764		-144.531250
6765		-148.437500
6766		-146.484375
6767		-148.437500
6768		-146.484375
6769		-148.437500
6770		-146.484375
6771		-150.390625
6772		-146.484375
6773		-150.390625
6774		-146.484375
6775		-150.390625
6776		-146.484375
6777		-150.390625
6778		-144.531250
6779		-150.390625
6780		-144.531250
6781		-148.437500
6782		-146.484375
6783		-148.437500
6784		-144.531250
6785		-146.484375
6786		-144.531250
6787		-146.484375
6788		-142.578125
6789		-144.531250
6790		-142.578125
6791		-144.531250
6792		-140.625000
6793		-144.531250
6794		-138.671875
6795		-142.578125
6796		-136.718750
6797		-142.578125
6798		-136.718750
6799		-138.671875
6800		-134.765625
6801		-136.718750
6802		-132.812500
6803		-134.765625
6804		-130.859375
6805		-132.812500
6806		-128.906250
6807		-130.859375
6808		-126.953125
6809		-128.906250
6810		-125.000000
6811		-128.906250
6812		-123.046875
6813		-126.953125
6814		-119.140625
6815		-123.046875
6816		-117.187500
6817		-119.140625
6818		-115.234375
6819		-117.187500
6820		-113.281250
6821		-115.234375
6822		-109.375000
6823		-111.328125
6824		-107.421875
6825		-109.375000
6826		-103.515625
6827		-105.468750
6828		-99.609375
6829		-103.515625
6830		-97.656250
6831		-99.609375
6832		-95.703125
6833		-95.703125
6834		-91.796875
6835		-93.750000
6836		-87.890625
6837		-89.843750
6838		-83.984375
6839		-85.937500
6840		-82.031250
6841		-82.031250
6842		-78.125000
6843		-80.078125
6844		-74.218750
6845		-76.171875
6846		-70.312500
6847		-72.265625
6848		-66.406250
6849		-68.359375
6850		-62.500000
6851		-64.453125
6852		-58.593750
6853		-60.546875
6854		-56.640625
6855		-56.640625
6856		-50.781250
6857		-52.734375
6858		-48.828125
6859		-48.828125
6860		-44.921875
6861		-44.921875
6862		-39.062500
6863		-41.015625
6864		-35.156250
6865		-37.109375
6866		-31.250000
6867		-33.203125
6868		-27.343750
6869		-29.296875
6870		-23.437500
6871		-25.390625
6872		-19.531250
6873		-21.484375
6874		-15.625000
6875		-17.578125
6876		-11.718750
6877		-13.671875
6878		-7.812500
6879		-11.718750
6880		-3.906250
6881		-5.859375
6882		0.000000
6883		-1.953125
6884		3.906250
6885		1.953125
6886		7.812500
6887		5.859375
6888		11.718750
6889		9.765625
6890		15.625000
6891		13.671875
6892		19.531250
6893		17.578125
6894		23.437500
6895		21.484375
6896		27.343750
6897		25.390625
6898		31.250000
6899		29.296875
6900		35.156250
6901		33.203125
6902		39.062500
6903		37.109375
6904		42.968750
6905		41.015625
6906		46.875000
6907		44.921875
6908		48.828125
6909		48.828125
6910		52.734375
6911		50.781250
6912		56.640625
6913		54.687500
6914		60.546875
6915		58.593750
6916		62.500000
6917		60.546875
6918		66.406250
6919		64.453125
6920		70.312500
6921		68.359375
6922		72.265625
6923		72.265625
6924		76.171875
6925		74.218750
6926		80.078125
6927		78.125000
6928		82.031250
6929		80.078125
6930		85.937500
6931		83.984375
6932		87.890625
6933		85.937500
6934		91.796875
6935		89.843750
6936		93.750000
6937		91.796875
6938		95.703125
6939		93.750000
6940		99.609375
6941		97.656250
6942		101.562500
6943		99.609375
6944		103.515625
6945		101.562500
6946		105.468750
6947		105.468750
6948		107.421875
6949		107.421875
6950		111.328125
6951		109.375000
6952		113.281250
6953		111.328125
6954		115.234375
6955		113.281250
6956		117.187500
6957		115.234375
6958		119.140625
6959		117.187500
6960		121.093750
6961		119.140625
6962		123.046875
6963		121.093750
6964		125.000000
6965		123.046875
6966		125.000000
6967		125.000000
6968		126.953125
6969		125.000000
6970		128.906250
6971		126.953125
6972		130.859375
6973		128.906250
6974		130.859375
6975		128.906250
6976		132.812500
6977		130.859375
6978		134.765625
6979		132.812500
6980		134.765625
6981		132.812500
6982		136.718750
6983		134.765625
6984		136.718750
6985		134.765625
6986		138.671875
6987		136.718750
6988		138.671875
6989		136.718750
6990		140.625000
6991		138.671875
6992		140.625000
6993		138.671875
6994		142.578125
6995		138.671875
6996		140.625000
6997		138.671875
6998		142.578125
6999		140.625000
7000		142.578125
7001		140.625000
7002		142.578125
7003		140.625000
7004		142.578125
7005		140.625000
7006		142.578125
7007		140.625000
7008		142.578125
7009		140.625000
7010		142.578125
7011		140.625000
7012		142.578125
7013		140.625000
7014		142.578125
7015		140.625000
7016		142.578125
7017		138.671875
7018		142.578125
7019		138.671875
7020		140.625000
7021		138.671875
7022		140.625000
7023		138.671875
7024		140.625000
7025		136.718750
7026		140.625000
7027		136.718750
7028		138.671875
7029		134.765625
7030		138.671875
7031		134.765625
7032		136.718750
7033		132.812500
7034		136.718750
7035		132.812500
7036		134.765625
7037		130.859375
7038		134.765625
7039		130.859375
7040		132.812500
7041		128.906250
7042		130.859375
7043		126.953125
7044		130.859375
7045		125.000000
7046		128.906250
7047		123.046875
7048		126.953125
7049		123.046875
7050		125.000000
7051		121.093750
7052		123.046875
7053		119.140625
7054		121.093750
7055		117.187500
7056		121.093750
7057		115.234375
7058		119.140625
7059		111.328125
7060		115.234375
7061		111.328125
7062		115.234375
7063		107.421875
7064		111.328125
7065		105.468750
7066		109.375000
7067		103.515625
7068		107.421875
7069		101.562500
7070		105.468750
7071		97.656250
7072		103.515625
7073		95.703125
7074		99.609375
7075		93.750000
7076		97.656250
7077		89.843750
7078		93.750000
7079		87.890625
7080		91.796875
7081		83.984375
7082		87.890625
7083		82.031250
7084		85.937500
7085		78.125000
7086		83.984375
7087		76.171875
7088		80.078125
7089		72.265625
7090		76.171875
7091		68.359375
7092		74.218750
7093		66.406250
7094		70.312500
7095		62.500000
7096		66.406250
7097		58.593750
7098		64.453125
7099		54.687500
7100		60.546875
7101		50.781250
7102		56.640625
7103		48.828125
7104		52.734375
7105		44.921875
7106		50.781250
7107		41.015625
7108		46.875000
7109		37.109375
7110		42.968750
7111		33.203125
7112		39.062500
7113		29.296875
7114		35.156250
7115		25.390625
7116		31.250000
7117		21.484375
7118		27.343750
7119		17.578125
7120		23.437500
7121		13.671875
7122		19.531250
7123		9.765625
7124		15.625000
7125		5.859375
7126		11.718750
7127		1.953125
7128		7.812500
7129		-1.953125
7130		3.906250
7131		-5.859375
7132		0.000000
7133		-9.765625
7134		-3.906250
7135		-13.671875
7136		-7.812500
7137		-17.578125
7138		-11.718750
7139		-21.484375
7140		-15.625000
7141		-25.390625
7142		-19.531250
7143		-29.296875
7144		-23.437500
7145		-33.203125
7146		-27.343750
7147		-37.109375
7148		-31.250000
7149		-41.015625
7150		-35.156250
7151		-44.921875
7152		-39.062500
7153		-48.828125
7154		-42.968750
7155		-52.734375
7156		-46.875000
7157		-56.640625
7158		-50.781250
7159		-60.546875
7160		-54.687500
7161		-64.453125
7162		-58.593750
7163		-66.406250
7164		-62.500000
7165		-70.312500
7166		-66.406250
7167		-74.218750
7168		-70.312500
7169		-78.125000
7170		-72.265625
7171		-82.031250
7172		-76.171875
7173		-83.984375
7174		-80.078125
7175		-87.890625
7176		-83.984375
7177		-91.796875
7178		-85.937500
7179		-93.750000
7180		-89.843750
7181		-97.656250
7182		-93.750000
7183		-101.562500
7184		-95.703125
7185		-103.515625
7186		-99.609375
7187		-107.421875
7188		-103.515625
7189		-109.375000
7190		-105.468750
7191		-111.328125
7192		-107.421875
7193		-115.234375
7194		-111.328125
7195		-117.187500
7196		-113.281250
7197		-121.093750
7198		-117.187500
7199		-123.046875
7200		-119.140625
7201		-125.000000
7202		-121.093750
7203		-126.953125
7204		-123.046875
7205		-128.906250
7206		-126.953125
7207		-130.859375
7208		-128.906250
7209		-132.812500
7210		-130.859375
7211		-134.765625
7212		-132.812500
7213		-136.718750
7214		-134.765625
7215		-138.671875
7216		-134.765625
7217		-140.625000
7218		-136.718750
7219		-142.578125
7220		-138.671875
7221		-142.578125
7222		-140.625000
7223		-144.531250
7224		-140.625000
7225		-144.531250
7226		-142.578125
7227		-146.484375
7228		-144.531250
7229		-146.484375
7230		-144.531250
7231		-148.437500
7232		-146.484375
7233		-148.437500
7234		-146.484375
7235		-148.437500
7236		-146.484375
7237		-150.390625
7238		-146.484375
7239		-150.390625
7240		-148.437500
7241		-150.390625
7242		-148.437500
7243		-150.390625
7244		-148.437500
7245		-150.390625
7246		-148.437500
7247		-150.390625
7248		-148.437500
7249		-150.390625
7250		-146.484375
7251		-150.390625
7252		-146.484375
7253		-148.437500
7254		-146.484375
7255		-148.437500
7256		-144.531250
7257		-146.484375
7258		-144.531250
7259		-146.484375
7260		-144.531250
7261		-144.531250
7262		-142.578125
7263		-144.531250
7264		-140.625000
7265		-142.578125
7266		-140.625000
7267		-142.578125
7268		-138.671875
7269		-140.625000
7270		-136.718750
7271		-138.671875
7272		-134.765625
7273		-136.718750
7274		-132.812500
7275		-134.765625
7276		-132.812500
7277		-132.812500
7278		-128.906250
7279		-130.859375
7280		-126.953125
7281		-128.906250
7282		-125.000000
7283		-126.953125
7284		-123.046875
7285		-125.000000
7286		-121.093750
7287		-123.046875
7288		-119.140625
7289		-119.140625
7290		-115.234375
7291		-117.187500
7292		-113.281250
7293		-115.234375
7294		-109.375000
7295		-111.328125
7296		-105.468750
7297		-109.375000
7298		-103.515625
7299		-105.468750
7300		-101.562500
7301		-101.562500
7302		-97.656250
7303		-99.609375
7304		-93.750000
7305		-95.703125
7306		-91.796875
7307		-93.750000
7308		-87.890625
7309		-89.843750
7310		-83.984375
7311		-85.937500
7312		-80.078125
7313		-82.031250
7314		-78.125000
7315		-78.125000
7316		-74.218750
7317		-76.171875
7318		-70.312500
7319		-72.265625
7320		-66.406250
7321		-68.359375
7322		-62.500000
7323		-64.453125
7324		-58.593750
7325		-60.546875
7326		-54.687500
7327		-56.640625
7328		-50.781250
7329		-52.734375
7330		-46.875000
7331		-48.828125
7332		-42.968750
7333		-44.921875
7334		-39.062500
7335		-41.015625
7336		-35.156250
7337		-37.109375
7338		-31.250000
7339		-33.203125
7340		-27.343750
7341		-29.296875
7342		-23.437500
7343		-25.390625
7344		-19.531250
7345		-21.484375
7346		-15.625000
7347		-17.578125
7348		-11.718750
7349		-13.671875
7350		-7.812500
7351		-9.765625
7352		-3.906250
7353		-5.859375
7354		0.000000
7355		-1.953125
7356		3.906250
7357		3.906250
7358		7.812500
7359		5.859375
7360		11.718750
7361		9.765625
7362		15.625000
7363		15.625000
7364		19.531250
7365		17.578125
7366		23.437500
7367		23.437500
7368		27.343750
7369		25.390625
7370		31.250000
7371		29.296875
7372		35.156250
7373		33.203125
7374		39.062500
7375		37.109375
7376		42.968750
7377		41.015625
7378		46.875000
7379		44.921875
7380		50.781250
7381		48.828125
7382		52.734375
7383		52.734375
7384		56.640625
7385		54.687500
7386		60.546875
7387		58.593750
7388		64.453125
7389		62.500000
7390		66.406250
7391		66.406250
7392		70.312500
7393		68.359375
7394		72.265625
7395		72.265625
7396		76.171875
7397		74.218750
7398		80.078125
7399		78.125000
7400		82.031250
7401		82.031250
7402		85.937500
7403		83.984375
7404		87.890625
7405		87.890625
7406		91.796875
7407		89.843750
7408		93.750000
7409		91.796875
7410		97.656250
7411		95.703125
7412		99.609375
7413		97.656250
7414		101.562500
7415		99.609375
7416		103.515625
7417		103.515625
7418		107.421875
7419		105.468750
7420		109.375000
7421		107.421875
7422		111.328125
7423		109.375000
7424		113.281250
7425		111.328125
7426		115.234375
7427		113.281250
7428		117.187500
7429		115.234375
7430		119.140625
7431		117.187500
7432		121.093750
7433		119.140625
7434		123.046875
7435		121.093750
7436		125.000000
7437		123.046875
7438		126.953125
7439		125.000000
7440		128.906250
7441		126.953125
7442		128.906250
7443		128.906250
7444		130.859375
7445		128.906250
7446		132.812500
7447		130.859375
7448		134.765625
7449		132.812500
7450		134.765625
7451		132.812500
7452		136.718750
7453		134.765625
7454		136.718750
7455		134.765625
7456		138.671875
7457		136.718750
7458		138.671875
7459		136.718750
7460		140.625000
7461		138.671875
7462		140.625000
7463		138.671875
7464		140.625000
7465		138.671875
7466		142.578125
7467		140.625000
7468		142.578125
7469		140.625000
7470		142.578125
7471		140.625000
7472		142.578125
7473		140.625000
7474		142.578125
7475		140.625000
7476		144.531250
7477		140.625000
7478		142.578125
7479		140.625000
7480		144.531250
7481		140.625000
7482		142.578125
7483		140.625000
7484		144.531250
7485		140.625000
7486		142.578125
7487		140.625000
7488		142.578125
7489		140.625000
7490		142.578125
7491		138.671875
7492		142.578125
7493		138.671875
7494		142.578125
7495		138.671875
7496		140.625000
7497		138.671875
7498		140.625000
7499		136.718750
7500		140.625000
7501		134.765625
7502		138.671875
7503		134.765625
7504		138.671875
7505		134.765625
7506		136.718750
7507		132.812500
7508		136.718750
7509		132.812500
7510		134.765625
7511		130.859375
7512		134.765625
7513		128.906250
7514		132.812500
7515		126.953125
7516		130.859375
7517		126.953125
7518		130.859375
7519		125.000000
7520		128.906250
7521		123.046875
7522		126.953125
7523		121.093750
7524		125.000000
7525		119.140625
7526		123.046875
7527		117.187500
7528		121.093750
7529		115.234375
7530		119.140625
7531		113.281250
7532		117.187500
7533		111.328125
7534		115.234375
7535		109.375000
7536		113.281250
7537		107.421875
7538		111.328125
7539		103.515625
7540		107.421875
7541		101.562500
7542		105.468750
7543		99.609375
7544		103.515625
7545		95.703125
7546		101.562500
7547		93.750000
7548		97.656250
7549		91.796875
7550		95.703125
7551		87.890625
7552		91.796875
7553		85.937500
7554		89.843750
7555		82.031250
7556		85.937500
7557		80.078125
7558		83.984375
7559		76.171875
7560		80.078125
7561		72.265625
7562		78.125000
7563		70.312500
7564		74.218750
7565		66.406250
7566		70.312500
7567		62.500000
7568		68.359375
7569		58.593750
7570		64.453125
7571		56.640625
7572		60.546875
7573		52.734375
7574		56.640625
7575		48.828125
7576		54.687500
7577		44.921875
7578		50.781250
7579		41.015625
7580		46.875000
7581		37.109375
7582		42.968750
7583		35.156250
7584		39.062500
7585		31.250000
7586		35.156250
7587		27.343750
7588		31.250000
7589		23.437500
7590		27.343750
7591		19.531250
7592		23.437500
7593		15.625000
7594		19.531250
7595		11.718750
7596		15.625000
7597		7.812500
7598		11.718750
7599		3.906250
7600		7.812500
7601		0.000000
7602		3.906250
7603		-3.906250
7604		0.000000
7605		-7.812500
7606		-3.906250
7607		-11.718750
7608		-5.859375
7609		-15.625000
7610		-11.718750
7611		-19.531250
7612		-15.625000
7613		-23.437500
7614		-19.531250
7615		-27.343750
7616		-23.437500
7617		-31.250000
7618		-27.343750
7619		-35.156250
7620		-31.250000
7621		-39.062500
7622		-35.156250
7623		-42.968750
7624		-39.062500
7625		-46.875000
7626		-42.968750
7627		-50.781250
7628		-46.875000
7629		-54.687500
7630		-48.828125
7631		-58.593750
7632		-54.687500
7633		-62.500000
7634		-56.640625
7635		-66.406250
7636		-60.546875
7637		-70.312500
7638		-64.453125
7639		-74.218750
7640		-68.359375
7641		-76.171875
7642		-72.265625
7643		-80.078125
7644		-76.171875
7645		-83.984375
7646		-78.125000
7647		-87.890625
7648		-82.031250
7649		-89.843750
7650		-85.937500
7651		-93.750000
7652		-89.843750
7653		-97.656250
7654		-91.796875
7655		-99.609375
7656		-95.703125
7657		-103.515625
7658		-97.656250
7659		-105.468750
7660		-101.562500
7661		-109.375000
7662		-105.468750
7663		-111.328125
7664		-107.421875
7665		-113.281250
7666		-109.375000
7667		-117.187500
7668		-113.281250
7669		-119.140625
7670		-115.234375
7671		-121.093750
7672		-117.187500
7673		-125.000000
7674		-121.093750
7675		-126.953125
7676		-123.046875
7677		-128.906250
7678		-125.000000
7679		-130.859375
7680		-126.953125
7681		-132.812500
7682		-128.906250
7683		-134.765625
7684		-130.859375
7685		-136.718750
7686		-132.812500
7687		-136.718750
7688		-134.765625
7689		-138.671875
7690		-134.765625
7691		-140.625000
7692		-136.718750
7693		-142.578125
7694		-138.671875
7695		-142.578125
7696		-140.625000
7697		-144.531250
7698		-140.625000
7699		-144.531250
7700		-142.578125
7701		-146.484375
7702		-142.578125
7703		-146.484375
7704		-144.531250
7705		-148.437500
7706		-142.578125
7707		-148.437500
7708		-144.531250
7709		-148.437500
7710		-144.531250
7711		-150.390625
7712		-144.531250
7713		-148.437500
7714		-146.484375
7715		-148.437500
7716		-146.484375
7717		-148.437500
7718		-146.484375
7719		-148.437500
7720		-146.484375
7721		-148.437500
7722		-144.531250
7723		-150.390625
7724		-142.578125
7725		-146.484375
7726		-144.531250
7727		-148.437500
7728		-142.578125
7729		-144.531250
7730		-142.578125
7731		-146.484375
7732		-140.625000
7733		-142.578125
7734		-140.625000
7735		-142.578125
7736		-138.671875
7737		-142.578125
7738		-138.671875
7739		-142.578125
7740		-134.765625
7741		-138.671875
7742		-134.765625
7743		-136.718750
7744		-130.859375
7745		-134.765625
7746		-130.859375
7747		-134.765625
7748		-128.906250
7749		-130.859375
7750		-126.953125
7751		-128.906250
7752		-125.000000
7753		-126.953125
7754		-123.046875
7755		-125.000000
7756		-119.140625
7757		-123.046875
7758		-119.140625
7759		-121.093750
7760		-115.234375
7761		-119.140625
7762		-111.328125
7763		-115.234375
7764		-107.421875
7765		-111.328125
7766		-107.421875
7767		-109.375000
7768		-105.468750
7769		-105.468750
7770		-101.562500
7771		-103.515625
7772		-95.703125
7773		-99.609375
7774		-95.703125
7775		-95.703125
7776		-91.796875
7777		-93.750000
7778		-87.890625
7779		-89.843750
7780		-85.937500
7781		-87.890625
7782		-82.031250
7783		-83.984375
7784		-78.125000
7785		-80.078125
7786		-74.218750
7787		-78.125000
7788		-68.359375
7789		-74.218750
7790		-66.406250
7791		-70.312500
7792		-62.500000
7793		-64.453125
7794		-58.593750
7795		-64.453125
7796		-54.687500
7797		-58.593750
7798		-50.781250
7799		-54.687500
7800		-48.828125
7801		-50.781250
7802		-44.921875
7803		-46.875000
7804		-41.015625
7805		-42.968750
7806		-35.156250
7807		-39.062500
7808		-33.203125
7809		-33.203125
7810		-29.296875
7811		-31.250000
7812		-21.484375
7813		-27.343750
7814		-21.484375
7815		-25.390625
7816		-17.578125
7817		-17.578125
7818		-11.718750
7819		-13.671875
7820		-7.812500
7821		-11.718750
7822		-1.953125
7823		-5.859375
7824		0.000000
7825		-1.953125
7826		3.906250
7827		1.953125
7828		9.765625
7829		3.906250
7830		11.718750
7831		7.812500
7832		17.578125
7833		13.671875
7834		19.531250
7835		17.578125
7836		23.437500
7837		21.484375
7838		27.343750
7839		23.437500
7840		31.250000
7841		27.343750
7842		35.156250
7843		33.203125
7844		37.109375
7845		35.156250
7846		44.921875
7847		39.062500
7848		46.875000
7849		41.015625
7850		48.828125
7851		46.875000
7852		52.734375
7853		50.781250
7854		56.640625
7855		52.734375
7856		60.546875
7857		58.593750
7858		62.500000
7859		60.546875
7860		66.406250
7861		64.453125
7862		72.265625
7863		64.453125
7864		74.218750
7865		70.312500
7866		78.125000
7867		74.218750
7868		78.125000
7869		78.125000
7870		82.031250
7871		78.125000
7872		85.937500
7873		80.078125
7874		87.890625
7875		85.937500
7876		89.843750
7877		89.843750
7878		93.750000
7879		89.843750
7880		99.609375
7881		93.750000
7882		99.609375
7883		97.656250
7884		101.562500
7885		99.609375
7886		103.515625
7887		101.562500
7888		107.421875
7889		101.562500
7890		111.328125
7891		105.468750
7892		111.328125
7893		109.375000
7894		113.281250
7895		109.375000
7896		119.140625
7897		109.375000
7898		117.187500
7899		113.281250
7900		121.093750
7901		117.187500
7902		121.093750
7903		119.140625
7904		123.046875
7905		119.140625
7906		128.906250
7907		121.093750
7908		128.906250
7909		125.000000
7910		128.906250
7911		125.000000
7912		132.812500
7913		125.000000
7914		134.765625
7915		126.953125
7916		134.765625
7917		130.859375
7918		132.812500
7919		132.812500
7920		134.765625
7921		132.812500
7922		138.671875
7923		130.859375
7924		138.671875
7925		134.765625
7926		138.671875
7927		136.718750
7928		138.671875
7929		134.765625
7930		144.531250
7931		138.671875
7932		140.625000
7933		138.671875
7934		142.578125
7935		138.671875
7936		142.578125
7937		138.671875
7938		142.578125
7939		138.671875
7940		146.484375
7941		138.671875
7942		144.531250
7943		140.625000
7944		142.578125
7945		138.671875
7946		146.484375
7947		138.671875
7948		146.484375
7949		140.625000
7950		146.484375
7951		142.578125
7952		144.531250
7953		142.578125
7954		144.531250
7955		140.625000
7956		144.531250
7957		138.671875
7958		146.484375
7959		140.625000
7960		144.531250
7961		140.625000
7962		144.531250
7963		136.718750
7964		146.484375
7965		136.718750
7966		144.531250
7967		136.718750
7968		140.625000
7969		138.671875
7970		140.625000
7971		136.718750
7972		140.625000
7973		134.765625
7974		140.625000
7975		134.765625
7976		140.625000
7977		134.765625
7978		136.718750
7979		130.859375
7980		136.718750
7981		130.859375
7982		134.765625
7983		128.906250
7984		136.718750
7985		128.906250
7986		132.812500
7987		126.953125
7988		130.859375
7989		125.000000
7990		130.859375
7991		123.046875
7992		128.906250
7993		123.046875
7994		126.953125
7995		119.140625
7996		125.000000
7997		119.140625
7998		123.046875
7999		117.187500
8000		121.093750
8001		115.234375
8002		119.140625
8003		113.281250
8004		117.187500
8005		111.328125
8006		115.234375
8007		109.375000
8008		111.328125
8009		105.468750
8010		111.328125
8011		103.515625
8012		107.421875
8013		99.609375
8014		105.468750
8015		97.656250
8016		103.515625
8017		95.703125
8018		99.609375
8019		93.750000
8020		97.656250
8021		89.843750
8022		93.750000
8023		87.890625
8024		91.796875
8025		83.984375
8026		89.843750
8027		82.031250
8028		85.937500
8029		78.125000
8030		83.984375
8031		76.171875
8032		80.078125
8033		72.265625
8034		76.171875
8035		68.359375
8036		74.218750
8037		66.406250
8038		70.312500
8039		62.500000
8040		66.406250
8041		58.593750
8042		64.453125
8043		52.734375
8044		60.546875
8045		50.781250
8046		58.593750
8047		46.875000
8048		52.734375
8049		44.921875
8050		48.828125
8051		41.015625
8052		46.875000
8053		37.109375
8054		42.968750
8055		33.203125
8056		39.062500
8057		29.296875
8058		35.156250
8059		23.437500
8060		31.250000
8061		21.484375
8062		27.343750
8063		17.578125
8064		25.390625
8065		13.671875
8066		21.484375
8067		9.765625
8068		15.625000
8069		5.859375
8070		11.718750
8071		1.953125
8072		7.812500
8073		-1.953125
8074		3.906250
8075		-5.859375
8076		0.000000
8077		-9.765625
8078		-3.906250
8079		-15.625000
8080		-7.812500
8081		-17.578125
8082		-9.765625
8083		-21.484375
8084		-13.671875
8085		-25.390625
8086		-19.531250
8087		-29.296875
8088		-23.437500
8089		-33.203125
8090		-27.343750
8091		-39.062500
8092		-31.250000
8093		-41.015625
8094		-35.156250
8095		-44.921875
8096		-39.062500
8097		-48.828125
8098		-42.968750
8099		-54.687500
8100		-46.875000
8101		-56.640625
8102		-50.781250
8103		-60.546875
8104		-54.687500
8105		-64.453125
8106		-58.593750
8107		-66.406250
8108		-60.546875
8109		-72.265625
8110		-64.453125
8111		-76.171875
8112		-68.359375
8113		-78.125000
8114		-72.265625
8115		-82.031250
8116		-76.171875
8117		-83.984375
8118		-78.125000
8119		-87.890625
8120		-83.984375
8121		-91.796875
8122		-85.937500
8123		-93.750000
8124		-89.843750
8125		-97.656250
8126		-91.796875
8127		-101.562500
8128		-95.703125
8129		-103.515625
8130		-97.656250
8131		-105.468750
8132		-101.562500
8133		-109.375000
8134		-103.515625
8135		-111.328125
8136		-105.468750
8137		-115.234375
8138		-111.328125
8139		-117.187500
8140		-113.281250
8141		-121.093750
8142		-115.234375
8143		-123.046875
8144		-119.140625
8145		-125.000000
8146		-119.140625
8147		-126.953125
8148		-123.046875
8149		-130.859375
8150		-125.000000
8151		-130.859375
8152		-126.953125
8153		-132.812500
8154		-128.906250
8155		-136.718750
8156		-130.859375
8157		-136.718750
8158		-132.812500
8159		-138.671875
8160		-134.765625
8161		-142.578125
8162		-134.765625
8163		-140.625000
8164		-138.671875
8165		-142.578125
8166		-138.671875
8167		-144.531250
8168		-140.625000
8169		-144.531250
8170		-142.578125
8171		-144.531250
8172		-142.578125
8173		-146.484375
8174		-142.578125
8175		-146.484375
8176		-144.531250
8177		-148.437500
8178		-144.531250
8179		-150.390625
8180		-144.531250
8181		-148.437500
8182		-144.531250
8183		-148.437500
8184		-146.484375
8185		-150.390625
8186		-144.531250
8187		-148.437500
8188		-146.484375
8189		-148.437500
8190		-146.484375
8191		-148.437500
8192		-146.484375
8193		-148.437500
8194		-144.531250
8195		-150.390625
8196		-142.578125
8197		-148.437500
8198		-144.531250
8199		-146.484375
8200		-142.578125
8201		-146.484375
8202		-142.578125
8203		-144.531250
8204		-142.578125
8205		-142.578125
8206		-140.625000
8207		-142.578125
8208		-138.671875
8209		-142.578125
8210		-136.718750
8211		-140.625000
8212		-136.718750
8213		-140.625000
8214		-134.765625
8215		-136.718750
8216		-132.812500
8217		-136.718750
8218		-130.859375
8219		-132.812500
8220		-128.906250
8221		-130.859375
8222		-126.953125
8223		-128.906250
8224		-125.000000
8225		-126.953125
8226		-123.046875
8227		-125.000000
8228		-121.093750
8229		-123.046875
8230		-117.187500
8231		-119.140625
8232		-115.234375
8233		-117.187500
8234		-113.281250
8235		-115.234375
8236		-109.375000
8237		-111.328125
8238		-107.421875
8239		-109.375000
8240		-103.515625
8241		-105.468750
8242		-101.562500
8243		-103.515625
8244		-97.656250
8245		-99.609375
8246		-93.750000
8247		-95.703125
8248		-91.796875
8249		-93.750000
8250		-87.890625
8251		-89.843750
8252		-83.984375
8253		-85.937500
8254		-82.031250
8255		-82.031250
8256		-78.125000
8257		-80.078125
8258		-74.218750
8259		-76.171875
8260		-70.312500
8261		-72.265625
8262		-66.406250
8263		-70.312500
8264		-62.500000
8265		-64.453125
8266		-58.593750
8267		-60.546875
8268		-54.687500
8269		-56.640625
8270		-52.734375
8271		-52.734375
8272		-48.828125
8273		-48.828125
8274		-42.968750
8275		-44.921875
8276		-39.062500
8277		-41.015625
8278		-35.156250
8279		-37.109375
8280		-31.250000
8281		-33.203125
8282		-27.343750
8283		-29.296875
8284		-25.390625
8285		-25.390625
8286		-19.531250
8287		-21.484375
8288		-15.625000
8289		-17.578125
8290		-11.718750
8291		-13.671875
8292		-7.812500
8293		-9.765625
8294		-3.906250
8295		-5.859375
8296		0.000000
8297		-3.906250
8298		3.906250
8299		1.953125
8300		7.812500
8301		5.859375
8302		11.718750
8303		9.765625
8304		15.625000
8305		13.671875
8306		19.531250
8307		17.578125
8308		23.437500
8309		21.484375
8310		27.343750
8311		25.390625
8312		31.250000
8313		29.296875
8314		35.156250
8315		33.203125
8316		39.062500
8317		37.109375
8318		41.015625
8319		41.015625
8320		44.921875
8321		44.921875
8322		48.828125
8323		46.875000
8324		52.734375
8325		50.781250
8326		56.640625
8327		54.687500
8328		58.593750
8329		58.593750
8330		62.500000
8331		60.546875
8332		66.406250
8333		64.453125
8334		70.312500
8335		68.359375
8336		74.218750
8337		72.265625
8338		76.171875
8339		74.218750
8340		78.125000
8341		76.171875
8342		82.031250
8343		80.078125
8344		83.984375
8345		83.984375
8346		87.890625
8347		85.937500
8348		89.843750
8349		87.890625
8350		93.750000
8351		91.796875
8352		95.703125
8353		93.750000
8354		99.609375
8355		97.656250
8356		101.562500
8357		99.609375
8358		105.468750
8359		101.562500
8360		107.421875
8361		105.468750
8362		109.375000
8363		107.421875
8364		111.328125
8365		109.375000
8366		113.281250
8367		111.328125
8368		115.234375
8369		113.281250
8370		117.187500
8371		115.234375
8372		119.140625
8373		117.187500
8374		121.093750
8375		119.140625
8376		123.046875
8377		121.093750
8378		125.000000
8379		123.046875
8380		126.953125
8381		125.000000
8382		128.906250
8383		126.953125
8384		130.859375
8385		126.953125
8386		130.859375
8387		126.953125
8388		132.812500
8389		130.859375
8390		134.765625
8391		130.859375
8392		136.718750
8393		132.812500
8394		136.718750
8395		134.765625
8396		136.718750
8397		134.765625
8398		138.671875
8399		136.718750
8400		138.671875
8401		136.718750
8402		140.625000
8403		136.718750
8404		140.625000
8405		138.671875
8406		142.578125
8407		138.671875
8408		142.578125
8409		140.625000
8410		142.578125
8411		140.625000
8412		142.578125
8413		140.625000
8414		144.531250
8415		140.625000
8416		144.531250
8417		140.625000
8418		144.531250
8419		140.625000
8420		144.531250
8421		142.578125
8422		144.531250
8423		142.578125
8424		144.531250
8425		140.625000
8426		144.531250
8427		140.625000
8428		144.531250
8429		140.625000
8430		144.531250
8431		140.625000
8432		144.531250
8433		140.625000
8434		142.578125
8435		140.625000
8436		142.578125
8437		138.671875
8438		142.578125
8439		138.671875
8440		140.625000
8441		136.718750
8442		140.625000
8443		136.718750
8444		140.625000
8445		136.718750
8446		138.671875
8447		134.765625
8448		138.671875
8449		132.812500
8450		136.718750
8451		132.812500
8452		136.718750
8453		130.859375
8454		134.765625
8455		130.859375
8456		132.812500
8457		128.906250
8458		132.812500
8459		126.953125
8460		132.812500
8461		126.953125
8462		130.859375
8463		125.000000
8464		128.906250
8465		123.046875
8466		126.953125
8467		121.093750
8468		125.000000
8469		119.140625
8470		123.046875
8471		117.187500
8472		121.093750
8473		115.234375
8474		119.140625
8475		113.281250
8476		117.187500
8477		109.375000
8478		115.234375
8479		107.421875
8480		113.281250
8481		105.468750
8482		109.375000
8483		103.515625
8484		107.421875
8485		99.609375
8486		105.468750
8487		97.656250
8488		101.562500
8489		95.703125
8490		99.609375
8491		93.750000
8492		97.656250
8493		89.843750
8494		95.703125
8495		87.890625
8496		91.796875
8497		83.984375
8498		89.843750
8499		80.078125
8500		85.937500
8501		78.125000
8502		83.984375
8503		74.218750
8504		80.078125
8505		72.265625
8506		76.171875
8507		68.359375
8508		72.265625
8509		64.453125
8510		70.312500
8511		62.500000
8512		66.406250
8513		58.593750
8514		62.500000
8515		54.687500
8516		60.546875
8517		50.781250
8518		56.640625
8519		46.875000
8520		52.734375
8521		42.968750
8522		48.828125
8523		41.015625
8524		44.921875
8525		37.109375
8526		41.015625
8527		33.203125
8528		39.062500
8529		29.296875
8530		33.203125
8531		25.390625
8532		31.250000
8533		21.484375
8534		27.343750
8535		17.578125
8536		23.437500
8537		13.671875
8538		19.531250
8539		9.765625
8540		15.625000
8541		5.859375
8542		11.718750
8543		1.953125
8544		7.812500
8545		-1.953125
8546		3.906250
8547		-5.859375
8548		0.000000
8549		-11.718750
8550		-5.859375
8551		-13.671875
8552		-7.812500
8553		-17.578125
8554		-11.718750
8555		-21.484375
8556		-17.578125
8557		-25.390625
8558		-21.484375
8559		-31.250000
8560		-25.390625
8561		-33.203125
8562		-29.296875
8563		-37.109375
8564		-31.250000
8565		-41.015625
8566		-37.109375
8567		-44.921875
8568		-39.062500
8569		-48.828125
8570		-42.968750
8571		-52.734375
8572		-46.875000
8573		-56.640625
8574		-50.781250
8575		-60.546875
8576		-54.687500
8577		-64.453125
8578		-56.640625
8579		-68.359375
8580		-62.500000
8581		-70.312500
8582		-66.406250
8583		-74.218750
8584		-70.312500
8585		-78.125000
8586		-72.265625
8587		-82.031250
8588		-76.171875
8589		-83.984375
8590		-80.078125
8591		-87.890625
8592		-83.984375
8593		-91.796875
8594		-87.890625
8595		-93.750000
8596		-89.843750
8597		-97.656250
8598		-93.750000
8599		-101.562500
8600		-95.703125
8601		-103.515625
8602		-99.609375
8603		-105.468750
8604		-101.562500
8605		-109.375000
8606		-105.468750
8607		-111.328125
8608		-107.421875
8609		-115.234375
8610		-111.328125
8611		-117.187500
8612		-113.281250
8613		-119.140625
8614		-115.234375
8615		-123.046875
8616		-117.187500
8617		-125.000000
8618		-121.093750
8619		-126.953125
8620		-121.093750
8621		-128.906250
8622		-125.000000
8623		-130.859375
8624		-126.953125
8625		-132.812500
8626		-128.906250
8627		-134.765625
8628		-130.859375
8629		-136.718750
8630		-132.812500
8631		-138.671875
8632		-132.812500
8633		-138.671875
8634		-136.718750
8635		-140.625000
8636		-136.718750
8637		-142.578125
8638		-138.671875
8639		-142.578125
8640		-140.625000
8641		-144.531250
8642		-140.625000
8643		-146.484375
8644		-142.578125
8645		-146.484375
8646		-142.578125
8647		-146.484375
8648		-142.578125
8649		-146.484375
8650		-144.531250
8651		-148.437500
8652		-144.531250
8653		-148.437500
8654		-144.531250
8655		-148.437500
8656		-144.531250
8657		-148.437500
8658		-146.484375
8659		-148.437500
8660		-144.531250
8661		-148.437500
8662		-144.531250
8663		-148.437500
8664		-144.531250
8665		-148.437500
8666		-144.531250
8667		-146.484375
8668		-144.531250
8669		-146.484375
8670		-142.578125
8671		-144.531250
8672		-142.578125
8673		-146.484375
8674		-140.625000
8675		-142.578125
8676		-140.625000
8677		-142.578125
8678		-138.671875
8679		-142.578125
8680		-136.718750
8681		-140.625000
8682		-136.718750
8683		-138.671875
8684		-134.765625
8685		-136.718750
8686		-132.812500
8687		-134.765625
8688		-130.859375
8689		-132.812500
8690		-130.859375
8691		-130.859375
8692		-128.906250
8693		-130.859375
8694		-125.000000
8695		-126.953125
8696		-123.046875
8697		-125.000000
8698		-121.093750
8699		-123.046875
8700		-119.140625
8701		-121.093750
8702		-117.187500
8703		-119.140625
8704		-113.281250
8705		-115.234375
8706		-111.328125
8707		-113.281250
8708		-109.375000
8709		-109.375000
8710		-105.468750
8711		-107.421875
8712		-103.515625
8713		-103.515625
8714		-99.609375
8715		-101.562500
8716		-95.703125
8717		-97.656250
8718		-93.750000
8719		-95.703125
8720		-89.843750
8721		-91.796875
8722		-85.937500
8723		-89.843750
8724		-83.984375
8725		-83.984375
8726		-80.078125
8727		-82.031250
8728		-76.171875
8729		-78.125000
8730		-72.265625
8731		-74.218750
8732		-68.359375
8733		-70.312500
8734		-64.453125
8735		-68.359375
8736		-60.546875
8737		-62.500000
8738		-58.593750
8739		-60.546875
8740		-54.687500
8741		-54.687500
8742		-50.781250
8743		-50.781250
8744		-46.875000
8745		-46.875000
8746		-42.968750
8747		-44.921875
8748		-37.109375
8749		-41.015625
8750		-35.156250
8751		-35.156250
8752		-31.250000
8753		-31.250000
8754		-27.343750
8755		-29.296875
8756		-23.437500
8757		-25.390625
8758		-19.531250
8759		-19.531250
8760		-13.671875
8761		-15.625000
8762		-9.765625
8763		-11.718750
8764		-5.859375
8765		-7.812500
8766		-1.953125
8767		-3.906250
8768		1.953125
8769		0.000000
8770		5.859375
8771		3.906250
8772		9.765625
8773		7.812500
8774		13.671875
8775		11.718750
8776		17.578125
8777		15.625000
8778		21.484375
8779		19.531250
8780		25.390625
8781		23.437500
8782		29.296875
8783		27.343750
8784		33.203125
8785		31.250000
8786		35.156250
8787		33.203125
8788		39.062500
8789		37.109375
8790		42.968750
8791		41.015625
8792		46.875000
8793		44.921875
8794		50.781250
8795		48.828125
8796		54.687500
8797		52.734375
8798		56.640625
8799		54.687500
8800		60.546875
8801		58.593750
8802		64.453125
8803		62.500000
8804		68.359375
8805		66.406250
8806		70.312500
8807		68.359375
8808		74.218750
8809		72.265625
8810		78.125000
8811		76.171875
8812		82.031250
8813		78.125000
8814		83.984375
8815		82.031250
8816		85.937500
8817		83.984375
8818		89.843750
8819		87.890625
8820		91.796875
8821		89.843750
8822		93.750000
8823		91.796875
8824		97.656250
8825		95.703125
8826		99.609375
8827		97.656250
8828		103.515625
8829		99.609375
8830		105.468750
8831		103.515625
8832		107.421875
8833		105.468750
8834		109.375000
8835		107.421875
8836		111.328125
8837		111.328125
8838		115.234375
8839		111.328125
8840		117.187500
8841		115.234375
8842		119.140625
8843		117.187500
8844		121.093750
8845		119.140625
8846		123.046875
8847		121.093750
8848		125.000000
8849		123.046875
8850		126.953125
8851		125.000000
8852		126.953125
8853		125.000000
8854		128.906250
8855		126.953125
8856		130.859375
8857		128.906250
8858		132.812500
8859		130.859375
8860		132.812500
8861		130.859375
8862		136.718750
8863		132.812500
8864		136.718750
8865		134.765625
8866		136.718750
8867		134.765625
8868		138.671875
8869		136.718750
8870		138.671875
8871		136.718750
8872		140.625000
8873		136.718750
8874		140.625000
8875		138.671875
8876		140.625000
8877		138.671875
8878		142.578125
8879		140.625000
8880		142.578125
8881		140.625000
8882		142.578125
8883		140.625000
8884		144.531250
8885		140.625000
8886		144.531250
8887		140.625000
8888		144.531250
8889		140.625000
8890		144.531250
8891		140.625000
8892		146.484375
8893		142.578125
8894		144.531250
8895		140.625000
8896		144.531250
8897		140.625000
8898		144.531250
8899		140.625000
8900		144.531250
8901		140.625000
8902		144.531250
8903		140.625000
8904		142.578125
8905		140.625000
8906		142.578125
8907		140.625000
8908		142.578125
8909		138.671875
8910		142.578125
8911		138.671875
8912		140.625000
8913		136.718750
8914		140.625000
8915		134.765625
8916		140.625000
8917		134.765625
8918		140.625000
8919		132.812500
8920		138.671875
8921		132.812500
8922		136.718750
8923		132.812500
8924		136.718750
8925		130.859375
8926		134.765625
8927		130.859375
8928		132.812500
8929		128.906250
8930		132.812500
8931		126.953125
8932		130.859375
8933		125.000000
8934		130.859375
8935		123.046875
8936		128.906250
8937		121.093750
8938		126.953125
8939		119.140625
8940		125.000000
8941		119.140625
8942		123.046875
8943		117.187500
8944		121.093750
8945		113.281250
8946		117.187500
8947		111.328125
8948		117.187500
8949		107.421875
8950		115.234375
8951		105.468750
8952		113.281250
8953		103.515625
8954		111.328125
8955		101.562500
8956		107.421875
8957		99.609375
8958		103.515625
8959		97.656250
8960		101.562500
8961		95.703125
8962		99.609375
8963		91.796875
8964		97.656250
8965		85.937500
8966		93.750000
8967		85.937500
8968		91.796875
8969		82.031250
8970		89.843750
8971		80.078125
8972		85.937500
8973		76.171875
8974		82.031250
8975		74.218750
8976		78.125000
8977		70.312500
8978		76.171875
8979		66.406250
8980		72.265625
8981		62.500000
8982		70.312500
8983		60.546875
8984		68.359375
8985		54.687500
8986		64.453125
8987		50.781250
8988		60.546875
8989		48.828125
8990		56.640625
8991		44.921875
8992		54.687500
8993		42.968750
8994		46.875000
8995		39.062500
8996		44.921875
8997		35.156250
8998		41.015625
8999		31.250000
9000		39.062500
9001		27.343750
9002		35.156250
9003		21.484375
9004		31.250000
9005		19.531250
9006		27.343750
9007		15.625000
9008		23.437500
9009		11.718750
9010		19.531250
9011		7.812500
9012		13.671875
9013		3.906250
9014		9.765625
9015		0.000000
9016		7.812500
9017		-3.906250
9018		3.906250
9019		-7.812500
9020		-1.953125
9021		-11.718750
9022		-3.906250
9023		-17.578125
9024		-7.812500
9025		-19.531250
9026		-11.718750
9027		-23.437500
9028		-17.578125
9029		-27.343750
9030		-21.484375
9031		-33.203125
9032		-23.437500
9033		-37.109375
9034		-27.343750
9035		-39.062500
9036		-31.250000
9037		-42.968750
9038		-35.156250
9039		-46.875000
9040		-39.062500
9041		-50.781250
9042		-42.968750
9043		-52.734375
9044		-48.828125
9045		-58.593750
9046		-52.734375
9047		-62.500000
9048		-54.687500
9049		-66.406250
9050		-58.593750
9051		-70.312500
9052		-62.500000
9053		-74.218750
9054		-64.453125
9055		-76.171875
9056		-68.359375
9057		-80.078125
9058		-72.265625
9059		-82.031250
9060		-76.171875
9061		-85.937500
9062		-80.078125
9063		-89.843750
9064		-83.984375
9065		-93.750000
9066		-85.937500
9067		-95.703125
9068		-89.843750
9069		-99.609375
9070		-91.796875
9071		-103.515625
9072		-95.703125
9073		-105.468750
9074		-97.656250
9075		-107.421875
9076		-99.609375
9077		-109.375000
9078		-105.468750
9079		-111.328125
9080		-107.421875
9081		-117.187500
9082		-109.375000
9083		-119.140625
9084		-111.328125
9085		-123.046875
9086		-113.281250
9087		-125.000000
9088		-117.187500
9089		-126.953125
9090		-119.140625
9091		-128.906250
9092		-121.093750
9093		-128.906250
9094		-125.000000
9095		-130.859375
9096		-126.953125
9097		-134.765625
9098		-128.906250
9099		-136.718750
9100		-128.906250
9101		-138.671875
9102		-130.859375
9103		-138.671875
9104		-132.812500
9105		-142.578125
9106		-134.765625
9107		-142.578125
9108		-134.765625
9109		-142.578125
9110		-136.718750
9111		-142.578125
9112		-140.625000
9113		-144.531250
9114		-140.625000
9115		-146.484375
9116		-140.625000
9117		-148.437500
9118		-140.625000
9119		-148.437500
9120		-140.625000
9121		-148.437500
9122		-142.578125
9123		-148.437500
9124		-142.578125
9125		-150.390625
9126		-142.578125
9127		-146.484375
9128		-144.531250
9129		-146.484375
9130		-144.531250
9131		-148.437500
9132		-142.578125
9133		-150.390625
9134		-142.578125
9135		-148.437500
9136		-142.578125
9137		-148.437500
9138		-142.578125
9139		-148.437500
9140		-140.625000
9141		-146.484375
9142		-140.625000
9143		-146.484375
9144		-140.625000
9145		-142.578125
9146		-140.625000
9147		-144.531250
9148		-136.718750
9149		-142.578125
9150		-136.718750
9151		-142.578125
9152		-134.765625
9153		-140.625000
9154		-132.812500
9155		-140.625000
9156		-132.812500
9157		-138.671875
9158		-130.859375
9159		-136.718750
9160		-128.906250
9161		-132.812500
9162		-128.906250
9163		-130.859375
9164		-126.953125
9165		-130.859375
9166		-123.046875
9167		-128.906250
9168		-121.093750
9169		-126.953125
9170		-117.187500
9171		-123.046875
9172		-117.187500
9173		-121.093750
9174		-113.281250
9175		-119.140625
9176		-111.328125
9177		-115.234375
9178		-109.375000
9179		-111.328125
9180		-107.421875
9181		-109.375000
9182		-103.515625
9183		-107.421875
9184		-99.609375
9185		-103.515625
9186		-95.703125
9187		-101.562500
9188		-93.750000
9189		-97.656250
9190		-89.843750
9191		-95.703125
9192		-85.937500
9193		-91.796875
9194		-85.937500
9195		-85.937500
9196		-82.031250
9197		-82.031250
9198		-78.125000
9199		-82.031250
9200		-72.265625
9201		-78.125000
9202		-68.359375
9203		-74.218750
9204		-66.406250
9205		-70.312500
9206		-62.500000
9207		-66.406250
9208		-58.593750
9209		-62.500000
9210		-54.687500
9211		-58.593750
9212		-52.734375
9213		-52.734375
9214		-48.828125
9215		-50.781250
9216		-42.968750
9217		-46.875000
9218		-39.062500
9219		-44.921875
9220		-35.156250
9221		-39.062500
9222		-31.250000
9223		-35.156250
9224		-27.343750
9225		-31.250000
9226		-23.437500
9227		-27.343750
9228		-21.484375
9229		-21.484375
9230		-15.625000
9231		-17.578125
9232		-9.765625
9233		-15.625000
9234		-7.812500
9235		-11.718750
9236		-3.906250
9237		-7.812500
9238		1.953125
9239		-3.906250
9240		5.859375
9241		0.000000
9242		9.765625
9243		3.906250
9244		11.718750
9245		9.765625
9246		15.625000
9247		13.671875
9248		19.531250
9249		17.578125
9250		23.437500
9251		19.531250
9252		29.296875
9253		23.437500
9254		31.250000
9255		27.343750
9256		35.156250
9257		29.296875
9258		39.062500
9259		35.156250
9260		42.968750
9261		39.062500
9262		44.921875
9263		42.968750
9264		48.828125
9265		46.875000
9266		52.734375
9267		48.828125
9268		58.593750
9269		52.734375
9270		60.546875
9271		56.640625
9272		64.453125
9273		58.593750
9274		68.359375
9275		62.500000
9276		70.312500
9277		66.406250
9278		72.265625
9279		70.312500
9280		76.171875
9281		74.218750
9282		78.125000
9283		76.171875
9284		83.984375
9285		78.125000
9286		85.937500
9287		82.031250
9288		89.843750
9289		83.984375
9290		91.796875
9291		87.890625
9292		95.703125
9293		89.843750
9294		97.656250
9295		93.750000
9296		97.656250
9297		97.656250
9298		101.562500
9299		99.609375
9300		105.468750
9301		99.609375
9302		107.421875
9303		101.562500
9304		109.375000
9305		105.468750
9306		113.281250
9307		107.421875
9308		115.234375
9309		109.375000
9310		117.187500
9311		111.328125
9312		117.187500
9313		115.234375
9314		119.140625
9315		117.187500
9316		123.046875
9317		117.187500
9318		125.000000
9319		119.140625
9320		126.953125
9321		121.093750
9322		128.906250
9323		123.046875
9324		128.906250
9325		125.000000
9326		130.859375
9327		125.000000
9328		132.812500
9329		128.906250
9330		132.812500
9331		130.859375
9332		134.765625
9333		128.906250
9334		136.718750
9335		130.859375
9336		138.671875
9337		132.812500
9338		138.671875
9339		132.812500
9340		140.625000
9341		134.765625
9342		140.625000
9343		134.765625
9344		142.578125
9345		136.718750
9346		140.625000
9347		138.671875
9348		142.578125
9349		138.671875
9350		144.531250
9351		138.671875
9352		144.531250
9353		138.671875
9354		144.531250
9355		138.671875
9356		146.484375
9357		138.671875
9358		146.484375
9359		140.625000
9360		146.484375
9361		140.625000
9362		146.484375
9363		142.578125
9364		144.531250
9365		142.578125
9366		144.531250
9367		140.625000
9368		146.484375
9369		140.625000
9370		146.484375
9371		140.625000
9372		146.484375
9373		138.671875
9374		146.484375
9375		138.671875
9376		146.484375
9377		138.671875
9378		144.531250
9379		140.625000
9380		144.531250
9381		138.671875
9382		142.578125
9383		136.718750
9384		142.578125
9385		134.765625
9386		142.578125
9387		134.765625
9388		142.578125
9389		134.765625
9390		140.625000
9391		132.812500
9392		138.671875
9393		132.812500
9394		138.671875
9395		130.859375
9396		138.671875
9397		130.859375
9398		134.765625
9399		128.906250
9400		134.765625
9401		126.953125
9402		134.765625
9403		125.000000
9404		132.812500
9405		123.046875
9406		130.859375
9407		123.046875
9408		128.906250
9409		119.140625
9410		126.953125
9411		119.140625
9412		126.953125
9413		119.140625
9414		121.093750
9415		117.187500
9416		119.140625
9417		113.281250
9418		119.140625
9419		109.375000
9420		117.187500
9421		107.421875
9422		115.234375
9423		105.468750
9424		113.281250
9425		103.515625
9426		111.328125
9427		99.609375
9428		107.421875
9429		99.609375
9430		107.421875
9431		97.656250
9432		101.562500
9433		93.750000
9434		99.609375
9435		89.843750
9436		97.656250
9437		87.890625
9438		93.750000
9439		83.984375
9440		91.796875
9441		80.078125
9442		89.843750
9443		78.125000
9444		85.937500
9445		76.171875
9446		83.984375
9447		74.218750
9448		78.125000
9449		70.312500
9450		74.218750
9451		66.406250
9452		72.265625
9453		62.500000
9454		70.312500
9455		58.593750
9456		66.406250
9457		54.687500
9458		62.500000
9459		50.781250
9460		60.546875
9461		48.828125
9462		56.640625
9463		46.875000
9464		52.734375
9465		42.968750
9466		46.875000
9467		37.109375
9468		44.921875
9469		33.203125
9470		42.968750
9471		31.250000
9472		39.062500
9473		25.390625
9474		35.156250
9475		23.437500
9476		31.250000
9477		17.578125
9478		27.343750
9479		15.625000
9480		23.437500
9481		11.718750
9482		17.578125
9483		5.859375
9484		13.671875
9485		1.953125
9486		11.718750
9487		-1.953125
9488		7.812500
9489		-3.906250
9490		1.953125
9491		-7.812500
9492		0.000000
9493		-13.671875
9494		-3.906250
9495		-17.578125
9496		-7.812500
9497		-19.531250
9498		-13.671875
9499		-23.437500
9500		-17.578125
9501		-29.296875
9502		-21.484375
9503		-35.156250
9504		-23.437500
9505		-37.109375
9506		-29.296875
9507		-41.015625
9508		-31.250000
9509		-42.968750
9510		-37.109375
9511		-48.828125
9512		-39.062500
9513		-50.781250
9514		-42.968750
9515		-54.687500
9516		-48.828125
9517		-60.546875
9518		-52.734375
9519		-64.453125
9520		-54.687500
9521		-66.406250
9522		-58.593750
9523		-70.312500
9524		-62.500000
9525		-74.218750
9526		-66.406250
9527		-78.125000
9528		-70.312500
9529		-80.078125
9530		-72.265625
9531		-82.031250
9532		-78.125000
9533		-85.937500
9534		-82.031250
9535		-91.796875
9536		-83.984375
9537		-93.750000
9538		-85.937500
9539		-97.656250
9540		-87.890625
9541		-99.609375
9542		-93.750000
9543		-103.515625
9544		-95.703125
9545		-105.468750
9546		-97.656250
9547		-107.421875
9548		-103.515625
9549		-111.328125
9550		-105.468750
9551		-113.281250
9552		-107.421875
9553		-117.187500
9554		-109.375000
9555		-121.093750
9556		-113.281250
9557		-123.046875
9558		-115.234375
9559		-125.000000
9560		-117.187500
9561		-126.953125
9562		-119.140625
9563		-128.906250
9564		-121.093750
9565		-128.906250
9566		-125.000000
9567		-132.812500
9568		-126.953125
9569		-134.765625
9570		-126.953125
9571		-138.671875
9572		-128.906250
9573		-138.671875
9574		-130.859375
9575		-140.625000
9576		-132.812500
9577		-142.578125
9578		-134.765625
9579		-142.578125
9580		-136.718750
9581		-142.578125
9582		-138.671875
9583		-142.578125
9584		-140.625000
9585		-146.484375
9586		-138.671875
9587		-146.484375
9588		-140.625000
9589		-146.484375
9590		-140.625000
9591		-148.437500
9592		-140.625000
9593		-148.437500
9594		-142.578125
9595		-148.437500
9596		-142.578125
9597		-148.437500
9598		-142.578125
9599		-146.484375
9600		-144.531250
9601		-148.437500
9602		-142.578125
9603		-148.437500
9604		-142.578125
9605		-148.437500
9606		-142.578125
9607		-148.437500
9608		-142.578125
9609		-148.437500
9610		-142.578125
9611		-148.437500
9612		-140.625000
9613		-146.484375
9614		-140.625000
9615		-144.531250
9616		-140.625000
9617		-142.578125
9618		-140.625000
9619		-144.531250
9620		-136.718750
9621		-142.578125
9622		-136.718750
9623		-142.578125
9624		-134.765625
9625		-138.671875
9626		-132.812500
9627		-138.671875
9628		-130.859375
9629		-136.718750
9630		-128.906250
9631		-134.765625
9632		-128.906250
9633		-130.859375
9634		-126.953125
9635		-128.906250
9636		-125.000000
9637		-128.906250
9638		-121.093750
9639		-126.953125
9640		-119.140625
9641		-125.000000
9642		-117.187500
9643		-121.093750
9644		-113.281250
9645		-119.140625
9646		-111.328125
9647		-117.187500
9648		-111.328125
9649		-113.281250
9650		-107.421875
9651		-109.375000
9652		-105.468750
9653		-109.375000
9654		-99.609375
9655		-105.468750
9656		-97.656250
9657		-103.515625
9658		-95.703125
9659		-99.609375
9660		-91.796875
9661		-95.703125
9662		-87.890625
9663		-93.750000
9664		-85.937500
9665		-87.890625
9666		-83.984375
9667		-85.937500
9668		-80.078125
9669		-82.031250
9670		-74.218750
9671		-80.078125
9672		-70.312500
9673		-76.171875
9674		-68.359375
9675		-74.218750
9676		-64.453125
9677		-68.359375
9678		-60.546875
9679		-66.406250
9680		-56.640625
9681		-60.546875
9682		-54.687500
9683		-54.687500
9684		-50.781250
9685		-52.734375
9686		-44.921875
9687		-48.828125
9688		-41.015625
9689		-44.921875
9690		-37.109375
9691		-41.015625
9692		-33.203125
9693		-39.062500
9694		-29.296875
9695		-35.156250
9696		-25.390625
9697		-31.250000
9698		-23.437500
9699		-25.390625
9700		-19.531250
9701		-21.484375
9702		-15.625000
9703		-17.578125
9704		-9.765625
9705		-15.625000
9706		-5.859375
9707		-9.765625
9708		-1.953125
9709		-5.859375
9710		1.953125
9711		-1.953125
9712		5.859375
9713		1.953125
9714		9.765625
9715		5.859375
9716		11.718750
9717		11.718750
9718		15.625000
9719		15.625000
9720		21.484375
9721		17.578125
9722		25.390625
9723		21.484375
9724		29.296875
9725		25.390625
9726		35.156250
9727		29.296875
9728		37.109375
9729		31.250000
9730		41.015625
9731		35.156250
9732		42.968750
9733		41.015625
9734		46.875000
9735		44.921875
9736		50.781250
9737		46.875000
9738		54.687500
9739		50.781250
9740		58.593750
9741		54.687500
9742		60.546875
9743		56.640625
9744		64.453125
9745		62.500000
9746		68.359375
9747		64.453125
9748		70.312500
9749		68.359375
9750		74.218750
9751		72.265625
9752		76.171875
9753		74.218750
9754		82.031250
9755		76.171875
9756		83.984375
9757		78.125000
9758		87.890625
9759		82.031250
9760		89.843750
9761		85.937500
9762		93.750000
9763		87.890625
9764		95.703125
9765		91.796875
9766		97.656250
9767		95.703125
9768		99.609375
9769		97.656250
9770		103.515625
9771		99.609375
9772		107.421875
9773		101.562500
9774		109.375000
9775		103.515625
9776		111.328125
9777		105.468750
9778		113.281250
9779		109.375000
9780		115.234375
9781		109.375000
9782		117.187500
9783		115.234375
9784		117.187500
9785		117.187500
9786		121.093750
9787		117.187500
9788		123.046875
9789		119.140625
9790		125.000000
9791		121.093750
9792		126.953125
9793		121.093750
9794		128.906250
9795		123.046875
9796		130.859375
9797		125.000000
9798		132.812500
9799		126.953125
9800		132.812500
9801		130.859375
9802		132.812500
9803		130.859375
9804		136.718750
9805		130.859375
9806		136.718750
9807		132.812500
9808		138.671875
9809		132.812500
9810		138.671875
9811		132.812500
9812		140.625000
9813		134.765625
9814		142.578125
9815		136.718750
9816		142.578125
9817		138.671875
9818		140.625000
9819		138.671875
9820		142.578125
9821		136.718750
9822		144.531250
9823		138.671875
9824		144.531250
9825		138.671875
9826		146.484375
9827		140.625000
9828		146.484375
9829		138.671875
9830		146.484375
9831		140.625000
9832		146.484375
9833		140.625000
9834		144.531250
9835		142.578125
9836		144.531250
9837		140.625000
9838		146.484375
9839		140.625000
9840		146.484375
9841		138.671875
9842		146.484375
9843		138.671875
9844		146.484375
9845		138.671875
9846		146.484375
9847		138.671875
9848		144.531250
9849		138.671875
9850		144.531250
9851		140.625000
9852		142.578125
9853		138.671875
9854		142.578125
9855		136.718750
9856		142.578125
9857		136.718750
9858		142.578125
9859		134.765625
9860		142.578125
9861		132.812500
9862		140.625000
9863		132.812500
9864		138.671875
9865		130.859375
9866		138.671875
9867		132.812500
9868		134.765625
9869		130.859375
9870		134.765625
9871		128.906250
9872		134.765625
9873		126.953125
9874		132.812500
9875		125.000000
9876		130.859375
9877		123.046875
9878		130.859375
9879		121.093750
9880		128.906250
9881		119.140625
9882		126.953125
9883		119.140625
9884		123.046875
9885		117.187500
9886		121.093750
9887		113.281250
9888		119.140625
9889		111.328125
9890		119.140625
9891		109.375000
9892		117.187500
9893		107.421875
9894		115.234375
9895		103.515625
9896		111.328125
9897		101.562500
9898		109.375000
9899		99.609375
9900		107.421875
9901		99.609375
9902		103.515625
9903		95.703125
9904		101.562500
9905		91.796875
9906		99.609375
9907		89.843750
9908		97.656250
9909		85.937500
9910		93.750000
9911		82.031250
9912		91.796875
9913		80.078125
9914		87.890625
9915		76.171875
9916		85.937500
9917		76.171875
9918		80.078125
9919		72.265625
9920		78.125000
9921		66.406250
9922		74.218750
9923		64.453125
9924		72.265625
9925		60.546875
9926		70.312500
9927		58.593750
9928		66.406250
9929		54.687500
9930		60.546875
9931		50.781250
9932		58.593750
9933		48.828125
9934		54.687500
9935		44.921875
9936		50.781250
9937		41.015625
9938		46.875000
9939		35.156250
9940		44.921875
9941		31.250000
9942		41.015625
9943		27.343750
9944		37.109375
9945		23.437500
9946		33.203125
9947		21.484375
9948		29.296875
9949		17.578125
9950		25.390625
9951		15.625000
9952		19.531250
9953		11.718750
9954		15.625000
9955		5.859375
9956		13.671875
9957		0.000000
9958		9.765625
9959		-3.906250
9960		5.859375
9961		-5.859375
9962		1.953125
9963		-9.765625
9964		-1.953125
9965		-13.671875
9966		-5.859375
9967		-15.625000
9968		-9.765625
9969		-21.484375
9970		-15.625000
9971		-27.343750
9972		-19.531250
9973		-31.250000
9974		-21.484375
9975		-33.203125
9976		-25.390625
9977		-39.062500
9978		-29.296875
9979		-42.968750
9980		-33.203125
9981		-46.875000
9982		-37.109375
9983		-48.828125
9984		-41.015625
9985		-50.781250
9986		-46.875000
9987		-54.687500
9988		-50.781250
9989		-62.500000
9990		-52.734375
9991		-64.453125
9992		-56.640625
9993		-68.359375
9994		-58.593750
9995		-72.265625
9996		-64.453125
9997		-76.171875
9998		-66.406250
9999		-78.125000
10000		-70.312500
