Channel              :		CH1
Frequency            :		1.061kHz
Period               :		0.942ms
PK-PK                :		287.1mV
Probe attenuation    :		1X
Voltage per ADC value:		0.122070mV
Time interval        :		2.00000us

index		CH1_Voltage(mV)
1		93.750000
2		93.750000
3		97.656250
4		89.843750
5		97.656250
6		87.890625
7		95.703125
8		83.984375
9		93.750000
10		82.031250
11		89.843750
12		80.078125
13		85.937500
14		76.171875
15		83.984375
16		76.171875
17		80.078125
18		72.265625
19		76.171875
20		68.359375
21		74.218750
22		64.453125
23		72.265625
24		62.500000
25		68.359375
26		58.593750
27		66.406250
28		54.687500
29		62.500000
30		50.781250
31		60.546875
32		48.828125
33		56.640625
34		46.875000
35		50.781250
36		42.968750
37		48.828125
38		37.109375
39		46.875000
40		33.203125
41		42.968750
42		31.250000
43		39.062500
44		27.343750
45		37.109375
46		23.437500
47		31.250000
48		21.484375
49		27.343750
50		17.578125
51		23.437500
52		13.671875
53		19.531250
54		9.765625
55		17.578125
56		5.859375
57		13.671875
58		1.953125
59		9.765625
60		-1.953125
61		5.859375
62		-5.859375
63		1.953125
64		-9.765625
65		0.000000
66		-11.718750
67		-3.906250
68		-15.625000
69		-9.765625
70		-19.531250
71		-13.671875
72		-23.437500
73		-15.625000
74		-25.390625
75		-19.531250
76		-31.250000
77		-23.437500
78		-35.156250
79		-27.343750
80		-37.109375
81		-31.250000
82		-41.015625
83		-33.203125
84		-44.921875
85		-39.062500
86		-48.828125
87		-42.968750
88		-52.734375
89		-44.921875
90		-56.640625
91		-48.828125
92		-60.546875
93		-52.734375
94		-64.453125
95		-54.687500
96		-66.406250
97		-58.593750
98		-70.312500
99		-62.500000
100		-72.265625
101		-66.406250
102		-74.218750
103		-70.312500
104		-80.078125
105		-72.265625
106		-83.984375
107		-74.218750
108		-85.937500
109		-78.125000
110		-87.890625
111		-80.078125
112		-91.796875
113		-83.984375
114		-95.703125
115		-87.890625
116		-95.703125
117		-89.843750
118		-97.656250
119		-93.750000
120		-101.562500
121		-95.703125
122		-105.468750
123		-97.656250
124		-107.421875
125		-101.562500
126		-109.375000
127		-101.562500
128		-113.281250
129		-105.468750
130		-115.234375
131		-107.421875
132		-117.187500
133		-109.375000
134		-117.187500
135		-113.281250
136		-119.140625
137		-115.234375
138		-123.046875
139		-115.234375
140		-125.000000
141		-117.187500
142		-126.953125
143		-119.140625
144		-128.906250
145		-121.093750
146		-128.906250
147		-123.046875
148		-130.859375
149		-125.000000
150		-130.859375
151		-126.953125
152		-130.859375
153		-128.906250
154		-134.765625
155		-128.906250
156		-134.765625
157		-128.906250
158		-136.718750
159		-128.906250
160		-136.718750
161		-130.859375
162		-138.671875
163		-130.859375
164		-138.671875
165		-132.812500
166		-138.671875
167		-132.812500
168		-136.718750
169		-134.765625
170		-138.671875
171		-134.765625
172		-140.625000
173		-132.812500
174		-138.671875
175		-132.812500
176		-138.671875
177		-132.812500
178		-140.625000
179		-132.812500
180		-138.671875
181		-132.812500
182		-138.671875
183		-132.812500
184		-136.718750
185		-132.812500
186		-134.765625
187		-132.812500
188		-136.718750
189		-128.906250
190		-134.765625
191		-128.906250
192		-134.765625
193		-126.953125
194		-132.812500
195		-126.953125
196		-132.812500
197		-125.000000
198		-130.859375
199		-123.046875
200		-128.906250
201		-123.046875
202		-125.000000
203		-123.046875
204		-125.000000
205		-119.140625
206		-125.000000
207		-117.187500
208		-123.046875
209		-115.234375
210		-119.140625
211		-113.281250
212		-117.187500
213		-111.328125
214		-115.234375
215		-107.421875
216		-113.281250
217		-107.421875
218		-109.375000
219		-105.468750
220		-107.421875
221		-101.562500
222		-107.421875
223		-97.656250
224		-103.515625
225		-95.703125
226		-101.562500
227		-91.796875
228		-97.656250
229		-89.843750
230		-95.703125
231		-85.937500
232		-91.796875
233		-83.984375
234		-89.843750
235		-82.031250
236		-83.984375
237		-80.078125
238		-82.031250
239		-74.218750
240		-80.078125
241		-72.265625
242		-76.171875
243		-68.359375
244		-72.265625
245		-64.453125
246		-70.312500
247		-60.546875
248		-66.406250
249		-58.593750
250		-62.500000
251		-56.640625
252		-56.640625
253		-52.734375
254		-54.687500
255		-46.875000
256		-50.781250
257		-42.968750
258		-48.828125
259		-39.062500
260		-44.921875
261		-35.156250
262		-41.015625
263		-33.203125
264		-37.109375
265		-27.343750
266		-33.203125
267		-25.390625
268		-29.296875
269		-23.437500
270		-25.390625
271		-19.531250
272		-21.484375
273		-13.671875
274		-19.531250
275		-9.765625
276		-15.625000
277		-5.859375
278		-11.718750
279		-1.953125
280		-7.812500
281		1.953125
282		-1.953125
283		3.906250
284		0.000000
285		7.812500
286		5.859375
287		11.718750
288		9.765625
289		15.625000
290		11.718750
291		19.531250
292		15.625000
293		23.437500
294		19.531250
295		25.390625
296		21.484375
297		31.250000
298		25.390625
299		33.203125
300		29.296875
301		37.109375
302		35.156250
303		39.062500
304		37.109375
305		42.968750
306		41.015625
307		46.875000
308		42.968750
309		50.781250
310		46.875000
311		54.687500
312		48.828125
313		56.640625
314		52.734375
315		60.546875
316		54.687500
317		64.453125
318		60.546875
319		66.406250
320		64.453125
321		68.359375
322		66.406250
323		72.265625
324		68.359375
325		76.171875
326		70.312500
327		80.078125
328		76.171875
329		82.031250
330		76.171875
331		83.984375
332		80.078125
333		87.890625
334		82.031250
335		87.890625
336		87.890625
337		91.796875
338		89.843750
339		95.703125
340		89.843750
341		97.656250
342		93.750000
343		99.609375
344		93.750000
345		103.515625
346		97.656250
347		105.468750
348		99.609375
349		107.421875
350		101.562500
351		109.375000
352		105.468750
353		109.375000
354		107.421875
355		111.328125
356		107.421875
357		115.234375
358		109.375000
359		117.187500
360		111.328125
361		119.140625
362		113.281250
363		119.140625
364		115.234375
365		121.093750
366		117.187500
367		123.046875
368		119.140625
369		125.000000
370		121.093750
371		125.000000
372		123.046875
373		128.906250
374		123.046875
375		128.906250
376		123.046875
377		130.859375
378		125.000000
379		132.812500
380		126.953125
381		132.812500
382		126.953125
383		132.812500
384		128.906250
385		134.765625
386		130.859375
387		132.812500
388		130.859375
389		134.765625
390		130.859375
391		136.718750
392		130.859375
393		138.671875
394		132.812500
395		138.671875
396		132.812500
397		138.671875
398		132.812500
399		138.671875
400		132.812500
401		138.671875
402		134.765625
403		138.671875
404		134.765625
405		138.671875
406		132.812500
407		140.625000
408		132.812500
409		140.625000
410		132.812500
411		140.625000
412		132.812500
413		138.671875
414		132.812500
415		138.671875
416		132.812500
417		140.625000
418		132.812500
419		138.671875
420		134.765625
421		136.718750
422		132.812500
423		136.718750
424		130.859375
425		136.718750
426		128.906250
427		136.718750
428		128.906250
429		136.718750
430		128.906250
431		134.765625
432		126.953125
433		134.765625
434		126.953125
435		132.812500
436		126.953125
437		130.859375
438		126.953125
439		128.906250
440		123.046875
441		128.906250
442		123.046875
443		128.906250
444		121.093750
445		126.953125
446		119.140625
447		126.953125
448		117.187500
449		125.000000
450		115.234375
451		123.046875
452		115.234375
453		121.093750
454		115.234375
455		119.140625
456		111.328125
457		117.187500
458		109.375000
459		115.234375
460		107.421875
461		115.234375
462		103.515625
463		111.328125
464		101.562500
465		111.328125
466		101.562500
467		109.375000
468		99.609375
469		105.468750
470		97.656250
471		101.562500
472		95.703125
473		99.609375
474		91.796875
475		97.656250
476		87.890625
477		95.703125
478		85.937500
479		93.750000
480		83.984375
481		91.796875
482		80.078125
483		87.890625
484		76.171875
485		85.937500
486		76.171875
487		83.984375
488		74.218750
489		78.125000
490		68.359375
491		76.171875
492		66.406250
493		74.218750
494		62.500000
495		70.312500
496		58.593750
497		68.359375
498		56.640625
499		64.453125
500		52.734375
501		62.500000
502		50.781250
503		58.593750
504		48.828125
505		52.734375
506		44.921875
507		50.781250
508		39.062500
509		48.828125
510		35.156250
511		44.921875
512		33.203125
513		41.015625
514		29.296875
515		37.109375
516		25.390625
517		33.203125
518		21.484375
519		31.250000
520		19.531250
521		25.390625
522		15.625000
523		21.484375
524		9.765625
525		17.578125
526		7.812500
527		15.625000
528		3.906250
529		11.718750
530		0.000000
531		7.812500
532		-3.906250
533		3.906250
534		-7.812500
535		1.953125
536		-9.765625
537		-3.906250
538		-13.671875
539		-7.812500
540		-19.531250
541		-11.718750
542		-23.437500
543		-13.671875
544		-25.390625
545		-17.578125
546		-31.250000
547		-21.484375
548		-33.203125
549		-25.390625
550		-37.109375
551		-29.296875
552		-41.015625
553		-33.203125
554		-42.968750
555		-37.109375
556		-46.875000
557		-41.015625
558		-50.781250
559		-42.968750
560		-54.687500
561		-46.875000
562		-58.593750
563		-50.781250
564		-62.500000
565		-52.734375
566		-64.453125
567		-56.640625
568		-68.359375
569		-60.546875
570		-70.312500
571		-64.453125
572		-74.218750
573		-68.359375
574		-78.125000
575		-72.265625
576		-80.078125
577		-74.218750
578		-83.984375
579		-76.171875
580		-87.890625
581		-80.078125
582		-91.796875
583		-82.031250
584		-93.750000
585		-85.937500
586		-93.750000
587		-89.843750
588		-97.656250
589		-93.750000
590		-101.562500
591		-95.703125
592		-105.468750
593		-97.656250
594		-107.421875
595		-99.609375
596		-109.375000
597		-101.562500
598		-111.328125
599		-105.468750
600		-115.234375
601		-107.421875
602		-117.187500
603		-109.375000
604		-117.187500
605		-111.328125
606		-119.140625
607		-115.234375
608		-123.046875
609		-115.234375
610		-123.046875
611		-117.187500
612		-126.953125
613		-119.140625
614		-126.953125
615		-121.093750
616		-130.859375
617		-123.046875
618		-130.859375
619		-123.046875
620		-130.859375
621		-125.000000
622		-130.859375
623		-128.906250
624		-134.765625
625		-128.906250
626		-136.718750
627		-128.906250
628		-136.718750
629		-130.859375
630		-136.718750
631		-130.859375
632		-138.671875
633		-130.859375
634		-138.671875
635		-132.812500
636		-138.671875
637		-132.812500
638		-136.718750
639		-134.765625
640		-138.671875
641		-134.765625
642		-140.625000
643		-132.812500
644		-140.625000
645		-134.765625
646		-140.625000
647		-134.765625
648		-138.671875
649		-134.765625
650		-138.671875
651		-132.812500
652		-140.625000
653		-132.812500
654		-138.671875
655		-132.812500
656		-136.718750
657		-132.812500
658		-136.718750
659		-130.859375
660		-136.718750
661		-128.906250
662		-136.718750
663		-128.906250
664		-134.765625
665		-128.906250
666		-134.765625
667		-126.953125
668		-132.812500
669		-125.000000
670		-130.859375
671		-123.046875
672		-126.953125
673		-123.046875
674		-125.000000
675		-123.046875
676		-125.000000
677		-119.140625
678		-125.000000
679		-117.187500
680		-123.046875
681		-115.234375
682		-121.093750
683		-113.281250
684		-117.187500
685		-111.328125
686		-115.234375
687		-107.421875
688		-115.234375
689		-107.421875
690		-109.375000
691		-105.468750
692		-107.421875
693		-101.562500
694		-105.468750
695		-97.656250
696		-103.515625
697		-95.703125
698		-99.609375
699		-93.750000
700		-97.656250
701		-89.843750
702		-95.703125
703		-85.937500
704		-91.796875
705		-85.937500
706		-85.937500
707		-82.031250
708		-83.984375
709		-78.125000
710		-82.031250
711		-74.218750
712		-78.125000
713		-72.265625
714		-76.171875
715		-68.359375
716		-72.265625
717		-64.453125
718		-70.312500
719		-60.546875
720		-66.406250
721		-58.593750
722		-60.546875
723		-54.687500
724		-56.640625
725		-52.734375
726		-54.687500
727		-46.875000
728		-52.734375
729		-42.968750
730		-46.875000
731		-39.062500
732		-44.921875
733		-37.109375
734		-41.015625
735		-31.250000
736		-37.109375
737		-29.296875
738		-33.203125
739		-25.390625
740		-27.343750
741		-23.437500
742		-25.390625
743		-17.578125
744		-23.437500
745		-11.718750
746		-19.531250
747		-9.765625
748		-13.671875
749		-5.859375
750		-11.718750
751		-1.953125
752		-7.812500
753		1.953125
754		-3.906250
755		3.906250
756		1.953125
757		7.812500
758		5.859375
759		11.718750
760		7.812500
761		15.625000
762		9.765625
763		19.531250
764		15.625000
765		23.437500
766		17.578125
767		27.343750
768		23.437500
769		31.250000
770		25.390625
771		35.156250
772		29.296875
773		35.156250
774		35.156250
775		39.062500
776		37.109375
777		44.921875
778		39.062500
779		46.875000
780		42.968750
781		50.781250
782		44.921875
783		54.687500
784		48.828125
785		58.593750
786		54.687500
787		60.546875
788		56.640625
789		62.500000
790		60.546875
791		66.406250
792		64.453125
793		70.312500
794		66.406250
795		74.218750
796		68.359375
797		76.171875
798		70.312500
799		78.125000
800		74.218750
801		82.031250
802		78.125000
803		83.984375
804		80.078125
805		87.890625
806		83.984375
807		87.890625
808		87.890625
809		91.796875
810		87.890625
811		95.703125
812		89.843750
813		97.656250
814		93.750000
815		99.609375
816		95.703125
817		101.562500
818		97.656250
819		105.468750
820		99.609375
821		107.421875
822		101.562500
823		107.421875
824		105.468750
825		109.375000
826		107.421875
827		113.281250
828		107.421875
829		115.234375
830		109.375000
831		117.187500
832		111.328125
833		119.140625
834		113.281250
835		121.093750
836		113.281250
837		121.093750
838		117.187500
839		123.046875
840		119.140625
841		123.046875
842		121.093750
843		125.000000
844		121.093750
845		126.953125
846		121.093750
847		128.906250
848		123.046875
849		130.859375
850		125.000000
851		130.859375
852		125.000000
853		132.812500
854		126.953125
855		132.812500
856		126.953125
857		132.812500
858		130.859375
859		132.812500
860		130.859375
861		136.718750
862		128.906250
863		136.718750
864		130.859375
865		136.718750
866		130.859375
867		138.671875
868		132.812500
869		138.671875
870		132.812500
871		138.671875
872		132.812500
873		138.671875
874		134.765625
875		136.718750
876		134.765625
877		138.671875
878		132.812500
879		138.671875
880		132.812500
881		138.671875
882		132.812500
883		138.671875
884		132.812500
885		138.671875
886		132.812500
887		138.671875
888		132.812500
889		138.671875
890		134.765625
891		136.718750
892		132.812500
893		136.718750
894		130.859375
895		136.718750
896		130.859375
897		136.718750
898		128.906250
899		136.718750
900		128.906250
901		134.765625
902		126.953125
903		134.765625
904		126.953125
905		134.765625
906		126.953125
907		132.812500
908		126.953125
909		128.906250
910		123.046875
911		128.906250
912		123.046875
913		128.906250
914		121.093750
915		128.906250
916		121.093750
917		126.953125
918		119.140625
919		125.000000
920		115.234375
921		123.046875
922		115.234375
923		123.046875
924		115.234375
925		119.140625
926		113.281250
927		117.187500
928		109.375000
929		117.187500
930		107.421875
931		115.234375
932		105.468750
933		113.281250
934		105.468750
935		111.328125
936		101.562500
937		109.375000
938		99.609375
939		107.421875
940		99.609375
941		105.468750
942		95.703125
943		99.609375
944		91.796875
945		99.609375
946		89.843750
947		97.656250
948		85.937500
949		95.703125
950		83.984375
951		91.796875
952		82.031250
953		89.843750
954		78.125000
955		87.890625
956		78.125000
957		83.984375
958		76.171875
959		80.078125
960		70.312500
961		76.171875
962		66.406250
963		76.171875
964		64.453125
965		72.265625
966		60.546875
967		68.359375
968		58.593750
969		66.406250
970		54.687500
971		62.500000
972		52.734375
973		60.546875
974		48.828125
975		54.687500
976		46.875000
977		50.781250
978		41.015625
979		48.828125
980		39.062500
981		46.875000
982		33.203125
983		42.968750
984		31.250000
985		39.062500
986		27.343750
987		37.109375
988		23.437500
989		31.250000
990		21.484375
991		27.343750
992		17.578125
993		23.437500
994		11.718750
995		19.531250
996		9.765625
997		17.578125
998		5.859375
999		13.671875
1000		1.953125
1001		9.765625
1002		-3.906250
1003		5.859375
1004		-5.859375
1005		1.953125
1006		-9.765625
1007		-1.953125
1008		-11.718750
1009		-5.859375
1010		-15.625000
1011		-9.765625
1012		-21.484375
1013		-11.718750
1014		-25.390625
1015		-15.625000
1016		-29.296875
1017		-19.531250
1018		-31.250000
1019		-23.437500
1020		-37.109375
1021		-27.343750
1022		-39.062500
1023		-31.250000
1024		-41.015625
1025		-35.156250
1026		-44.921875
1027		-39.062500
1028		-50.781250
1029		-42.968750
1030		-54.687500
1031		-44.921875
1032		-56.640625
1033		-46.875000
1034		-60.546875
1035		-52.734375
1036		-64.453125
1037		-56.640625
1038		-68.359375
1039		-58.593750
1040		-68.359375
1041		-62.500000
1042		-72.265625
1043		-66.406250
1044		-76.171875
1045		-70.312500
1046		-80.078125
1047		-72.265625
1048		-83.984375
1049		-76.171875
1050		-87.890625
1051		-78.125000
1052		-89.843750
1053		-82.031250
1054		-93.750000
1055		-83.984375
1056		-95.703125
1057		-87.890625
1058		-95.703125
1059		-91.796875
1060		-99.609375
1061		-95.703125
1062		-103.515625
1063		-97.656250
1064		-105.468750
1065		-99.609375
1066		-109.375000
1067		-101.562500
1068		-111.328125
1069		-103.515625
1070		-113.281250
1071		-107.421875
1072		-115.234375
1073		-109.375000
1074		-117.187500
1075		-111.328125
1076		-119.140625
1077		-115.234375
1078		-121.093750
1079		-115.234375
1080		-123.046875
1081		-117.187500
1082		-125.000000
1083		-119.140625
1084		-128.906250
1085		-121.093750
1086		-128.906250
1087		-121.093750
1088		-130.859375
1089		-123.046875
1090		-132.812500
1091		-125.000000
1092		-130.859375
1093		-128.906250
1094		-132.812500
1095		-128.906250
1096		-136.718750
1097		-128.906250
1098		-136.718750
1099		-130.859375
1100		-138.671875
1101		-130.859375
1102		-138.671875
1103		-132.812500
1104		-138.671875
1105		-132.812500
1106		-140.625000
1107		-132.812500
1108		-138.671875
1109		-134.765625
1110		-138.671875
1111		-136.718750
1112		-140.625000
1113		-134.765625
1114		-140.625000
1115		-134.765625
1116		-140.625000
1117		-134.765625
1118		-140.625000
1119		-134.765625
1120		-140.625000
1121		-134.765625
1122		-140.625000
1123		-132.812500
1124		-140.625000
1125		-132.812500
1126		-136.718750
1127		-134.765625
1128		-136.718750
1129		-132.812500
1130		-138.671875
1131		-130.859375
1132		-136.718750
1133		-128.906250
1134		-134.765625
1135		-128.906250
1136		-134.765625
1137		-126.953125
1138		-132.812500
1139		-126.953125
1140		-132.812500
1141		-125.000000
1142		-128.906250
1143		-125.000000
1144		-126.953125
1145		-123.046875
1146		-126.953125
1147		-121.093750
1148		-126.953125
1149		-119.140625
1150		-123.046875
1151		-117.187500
1152		-121.093750
1153		-115.234375
1154		-119.140625
1155		-113.281250
1156		-117.187500
1157		-109.375000
1158		-115.234375
1159		-109.375000
1160		-111.328125
1161		-107.421875
1162		-109.375000
1163		-103.515625
1164		-107.421875
1165		-99.609375
1166		-105.468750
1167		-97.656250
1168		-103.515625
1169		-93.750000
1170		-99.609375
1171		-91.796875
1172		-97.656250
1173		-89.843750
1174		-93.750000
1175		-85.937500
1176		-89.843750
1177		-85.937500
1178		-85.937500
1179		-82.031250
1180		-83.984375
1181		-78.125000
1182		-82.031250
1183		-74.218750
1184		-80.078125
1185		-70.312500
1186		-76.171875
1187		-66.406250
1188		-70.312500
1189		-64.453125
1190		-68.359375
1191		-60.546875
1192		-64.453125
1193		-58.593750
1194		-60.546875
1195		-54.687500
1196		-56.640625
1197		-50.781250
1198		-54.687500
1199		-46.875000
1200		-50.781250
1201		-42.968750
1202		-48.828125
1203		-39.062500
1204		-42.968750
1205		-35.156250
1206		-41.015625
1207		-31.250000
1208		-35.156250
1209		-29.296875
1210		-31.250000
1211		-25.390625
1212		-27.343750
1213		-21.484375
1214		-25.390625
1215		-17.578125
1216		-21.484375
1217		-11.718750
1218		-17.578125
1219		-9.765625
1220		-13.671875
1221		-5.859375
1222		-9.765625
1223		-1.953125
1224		-7.812500
1225		1.953125
1226		-1.953125
1227		3.906250
1228		1.953125
1229		7.812500
1230		5.859375
1231		13.671875
1232		9.765625
1233		17.578125
1234		11.718750
1235		21.484375
1236		15.625000
1237		23.437500
1238		19.531250
1239		27.343750
1240		21.484375
1241		31.250000
1242		25.390625
1243		33.203125
1244		31.250000
1245		37.109375
1246		35.156250
1247		41.015625
1248		37.109375
1249		44.921875
1250		41.015625
1251		48.828125
1252		42.968750
1253		52.734375
1254		46.875000
1255		54.687500
1256		50.781250
1257		58.593750
1258		52.734375
1259		60.546875
1260		58.593750
1261		62.500000
1262		62.500000
1263		66.406250
1264		64.453125
1265		70.312500
1266		64.453125
1267		74.218750
1268		68.359375
1269		76.171875
1270		72.265625
1271		80.078125
1272		74.218750
1273		82.031250
1274		78.125000
1275		83.984375
1276		80.078125
1277		85.937500
1278		83.984375
1279		87.890625
1280		87.890625
1281		93.750000
1282		87.890625
1283		95.703125
1284		89.843750
1285		97.656250
1286		91.796875
1287		101.562500
1288		95.703125
1289		103.515625
1290		97.656250
1291		105.468750
1292		99.609375
1293		107.421875
1294		103.515625
1295		107.421875
1296		105.468750
1297		109.375000
1298		105.468750
1299		113.281250
1300		107.421875
1301		115.234375
1302		109.375000
1303		117.187500
1304		111.328125
1305		119.140625
1306		113.281250
1307		121.093750
1308		115.234375
1309		123.046875
1310		117.187500
1311		121.093750
1312		119.140625
1313		123.046875
1314		121.093750
1315		126.953125
1316		121.093750
1317		126.953125
1318		121.093750
1319		128.906250
1320		123.046875
1321		128.906250
1322		125.000000
1323		130.859375
1324		125.000000
1325		132.812500
1326		126.953125
1327		132.812500
1328		128.906250
1329		132.812500
1330		128.906250
1331		134.765625
1332		128.906250
1333		136.718750
1334		128.906250
1335		136.718750
1336		130.859375
1337		136.718750
1338		130.859375
1339		136.718750
1340		130.859375
1341		136.718750
1342		132.812500
1343		138.671875
1344		134.765625
1345		136.718750
1346		134.765625
1347		136.718750
1348		132.812500
1349		138.671875
1350		132.812500
1351		138.671875
1352		132.812500
1353		138.671875
1354		132.812500
1355		138.671875
1356		132.812500
1357		138.671875
1358		130.859375
1359		138.671875
1360		132.812500
1361		138.671875
1362		132.812500
1363		134.765625
1364		130.859375
1365		136.718750
1366		128.906250
1367		136.718750
1368		128.906250
1369		136.718750
1370		128.906250
1371		134.765625
1372		126.953125
1373		134.765625
1374		126.953125
1375		132.812500
1376		126.953125
1377		132.812500
1378		125.000000
1379		128.906250
1380		126.953125
1381		128.906250
1382		123.046875
1383		128.906250
1384		121.093750
1385		128.906250
1386		119.140625
1387		126.953125
1388		119.140625
1389		125.000000
1390		117.187500
1391		125.000000
1392		115.234375
1393		123.046875
1394		115.234375
1395		121.093750
1396		115.234375
1397		117.187500
1398		109.375000
1399		117.187500
1400		109.375000
1401		115.234375
1402		105.468750
1403		113.281250
1404		105.468750
1405		111.328125
1406		101.562500
1407		111.328125
1408		101.562500
1409		107.421875
1410		97.656250
1411		105.468750
1412		97.656250
1413		101.562500
1414		93.750000
1415		99.609375
1416		91.796875
1417		97.656250
1418		87.890625
1419		95.703125
1420		85.937500
1421		93.750000
1422		82.031250
1423		91.796875
1424		80.078125
1425		87.890625
1426		78.125000
1427		85.937500
1428		76.171875
1429		80.078125
1430		74.218750
1431		78.125000
1432		68.359375
1433		76.171875
1434		66.406250
1435		74.218750
1436		62.500000
1437		70.312500
1438		58.593750
1439		68.359375
1440		54.687500
1441		64.453125
1442		52.734375
1443		60.546875
1444		50.781250
1445		58.593750
1446		48.828125
1447		52.734375
1448		42.968750
1449		48.828125
1450		39.062500
1451		46.875000
1452		35.156250
1453		44.921875
1454		33.203125
1455		41.015625
1456		29.296875
1457		39.062500
1458		25.390625
1459		33.203125
1460		23.437500
1461		31.250000
1462		19.531250
1463		25.390625
1464		15.625000
1465		21.484375
1466		11.718750
1467		19.531250
1468		7.812500
1469		15.625000
1470		3.906250
1471		11.718750
1472		0.000000
1473		7.812500
1474		-3.906250
1475		3.906250
1476		-7.812500
1477		1.953125
1478		-9.765625
1479		-1.953125
1480		-13.671875
1481		-7.812500
1482		-17.578125
1483		-11.718750
1484		-23.437500
1485		-13.671875
1486		-25.390625
1487		-17.578125
1488		-29.296875
1489		-21.484375
1490		-33.203125
1491		-25.390625
1492		-37.109375
1493		-29.296875
1494		-39.062500
1495		-31.250000
1496		-42.968750
1497		-37.109375
1498		-48.828125
1499		-41.015625
1500		-50.781250
1501		-44.921875
1502		-54.687500
1503		-46.875000
1504		-58.593750
1505		-50.781250
1506		-62.500000
1507		-54.687500
1508		-64.453125
1509		-56.640625
1510		-68.359375
1511		-60.546875
1512		-70.312500
1513		-64.453125
1514		-74.218750
1515		-68.359375
1516		-78.125000
1517		-72.265625
1518		-82.031250
1519		-74.218750
1520		-83.984375
1521		-76.171875
1522		-87.890625
1523		-80.078125
1524		-91.796875
1525		-82.031250
1526		-95.703125
1527		-85.937500
1528		-95.703125
1529		-89.843750
1530		-97.656250
1531		-93.750000
1532		-101.562500
1533		-95.703125
1534		-105.468750
1535		-97.656250
1536		-107.421875
1537		-99.609375
1538		-109.375000
1539		-103.515625
1540		-111.328125
1541		-105.468750
1542		-115.234375
1543		-107.421875
1544		-117.187500
1545		-109.375000
1546		-117.187500
1547		-113.281250
1548		-119.140625
1549		-115.234375
1550		-123.046875
1551		-115.234375
1552		-125.000000
1553		-119.140625
1554		-126.953125
1555		-121.093750
1556		-128.906250
1557		-121.093750
1558		-130.859375
1559		-123.046875
1560		-132.812500
1561		-125.000000
1562		-132.812500
1563		-126.953125
1564		-134.765625
1565		-130.859375
1566		-136.718750
1567		-130.859375
1568		-138.671875
1569		-130.859375
1570		-138.671875
1571		-132.812500
1572		-140.625000
1573		-132.812500
1574		-140.625000
1575		-134.765625
1576		-142.578125
1577		-134.765625
1578		-142.578125
1579		-136.718750
1580		-140.625000
1581		-138.671875
1582		-142.578125
1583		-136.718750
1584		-144.531250
1585		-136.718750
1586		-142.578125
1587		-136.718750
1588		-144.531250
1589		-136.718750
1590		-144.531250
1591		-136.718750
1592		-144.531250
1593		-136.718750
1594		-142.578125
1595		-136.718750
1596		-142.578125
1597		-138.671875
1598		-140.625000
1599		-138.671875
1600		-142.578125
1601		-134.765625
1602		-140.625000
1603		-134.765625
1604		-140.625000
1605		-134.765625
1606		-138.671875
1607		-132.812500
1608		-138.671875
1609		-130.859375
1610		-136.718750
1611		-130.859375
1612		-136.718750
1613		-130.859375
1614		-134.765625
1615		-130.859375
1616		-130.859375
1617		-128.906250
1618		-132.812500
1619		-125.000000
1620		-130.859375
1621		-123.046875
1622		-128.906250
1623		-121.093750
1624		-126.953125
1625		-119.140625
1626		-125.000000
1627		-117.187500
1628		-123.046875
1629		-115.234375
1630		-119.140625
1631		-115.234375
1632		-115.234375
1633		-111.328125
1634		-115.234375
1635		-107.421875
1636		-113.281250
1637		-105.468750
1638		-109.375000
1639		-103.515625
1640		-107.421875
1641		-99.609375
1642		-105.468750
1643		-97.656250
1644		-101.562500
1645		-95.703125
1646		-99.609375
1647		-93.750000
1648		-93.750000
1649		-89.843750
1650		-91.796875
1651		-85.937500
1652		-89.843750
1653		-82.031250
1654		-87.890625
1655		-80.078125
1656		-83.984375
1657		-76.171875
1658		-80.078125
1659		-72.265625
1660		-76.171875
1661		-68.359375
1662		-74.218750
1663		-66.406250
1664		-68.359375
1665		-62.500000
1666		-64.453125
1667		-58.593750
1668		-62.500000
1669		-54.687500
1670		-60.546875
1671		-50.781250
1672		-56.640625
1673		-46.875000
1674		-52.734375
1675		-42.968750
1676		-48.828125
1677		-39.062500
1678		-44.921875
1679		-35.156250
1680		-39.062500
1681		-33.203125
1682		-35.156250
1683		-31.250000
1684		-31.250000
1685		-23.437500
1686		-29.296875
1687		-21.484375
1688		-25.390625
1689		-17.578125
1690		-21.484375
1691		-13.671875
1692		-17.578125
1693		-9.765625
1694		-13.671875
1695		-5.859375
1696		-9.765625
1697		-3.906250
1698		-5.859375
1699		0.000000
1700		-1.953125
1701		3.906250
1702		0.000000
1703		9.765625
1704		3.906250
1705		11.718750
1706		7.812500
1707		15.625000
1708		11.718750
1709		19.531250
1710		15.625000
1711		23.437500
1712		19.531250
1713		27.343750
1714		25.390625
1715		29.296875
1716		27.343750
1717		33.203125
1718		31.250000
1719		39.062500
1720		33.203125
1721		41.015625
1722		37.109375
1723		44.921875
1724		39.062500
1725		48.828125
1726		42.968750
1727		50.781250
1728		44.921875
1729		54.687500
1730		48.828125
1731		56.640625
1732		54.687500
1733		60.546875
1734		58.593750
1735		64.453125
1736		60.546875
1737		66.406250
1738		60.546875
1739		70.312500
1740		64.453125
1741		72.265625
1742		68.359375
1743		76.171875
1744		70.312500
1745		78.125000
1746		74.218750
1747		82.031250
1748		78.125000
1749		82.031250
1750		82.031250
1751		85.937500
1752		82.031250
1753		89.843750
1754		85.937500
1755		91.796875
1756		87.890625
1757		93.750000
1758		89.843750
1759		95.703125
1760		93.750000
1761		97.656250
1762		95.703125
1763		101.562500
1764		97.656250
1765		101.562500
1766		101.562500
1767		105.468750
1768		101.562500
1769		107.421875
1770		101.562500
1771		109.375000
1772		105.468750
1773		111.328125
1774		105.468750
1775		113.281250
1776		109.375000
1777		115.234375
1778		109.375000
1779		117.187500
1780		111.328125
1781		119.140625
1782		115.234375
1783		119.140625
1784		117.187500
1785		121.093750
1786		115.234375
1787		123.046875
1788		117.187500
1789		125.000000
1790		119.140625
1791		125.000000
1792		121.093750
1793		126.953125
1794		121.093750
1795		128.906250
1796		121.093750
1797		128.906250
1798		125.000000
1799		128.906250
1800		126.953125
1801		130.859375
1802		125.000000
1803		132.812500
1804		126.953125
1805		132.812500
1806		126.953125
1807		132.812500
1808		126.953125
1809		134.765625
1810		128.906250
1811		134.765625
1812		128.906250
1813		134.765625
1814		128.906250
1815		134.765625
1816		130.859375
1817		134.765625
1818		130.859375
1819		134.765625
1820		128.906250
1821		136.718750
1822		128.906250
1823		136.718750
1824		128.906250
1825		136.718750
1826		128.906250
1827		136.718750
1828		128.906250
1829		136.718750
1830		128.906250
1831		134.765625
1832		130.859375
1833		132.812500
1834		128.906250
1835		132.812500
1836		126.953125
1837		134.765625
1838		126.953125
1839		134.765625
1840		126.953125
1841		132.812500
1842		126.953125
1843		132.812500
1844		125.000000
1845		130.859375
1846		125.000000
1847		130.859375
1848		125.000000
1849		128.906250
1850		125.000000
1851		126.953125
1852		121.093750
1853		126.953125
1854		119.140625
1855		126.953125
1856		119.140625
1857		125.000000
1858		117.187500
1859		125.000000
1860		117.187500
1861		123.046875
1862		113.281250
1863		121.093750
1864		113.281250
1865		119.140625
1866		113.281250
1867		117.187500
1868		111.328125
1869		115.234375
1870		107.421875
1871		115.234375
1872		105.468750
1873		113.281250
1874		103.515625
1875		111.328125
1876		101.562500
1877		109.375000
1878		99.609375
1879		107.421875
1880		97.656250
1881		105.468750
1882		97.656250
1883		101.562500
1884		95.703125
1885		99.609375
1886		89.843750
1887		97.656250
1888		87.890625
1889		95.703125
1890		85.937500
1891		93.750000
1892		82.031250
1893		89.843750
1894		80.078125
1895		87.890625
1896		78.125000
1897		85.937500
1898		76.171875
1899		82.031250
1900		74.218750
1901		78.125000
1902		68.359375
1903		74.218750
1904		66.406250
1905		74.218750
1906		62.500000
1907		70.312500
1908		58.593750
1909		66.406250
1910		56.640625
1911		64.453125
1912		52.734375
1913		62.500000
1914		50.781250
1915		58.593750
1916		48.828125
1917		52.734375
1918		44.921875
1919		48.828125
1920		39.062500
1921		46.875000
1922		37.109375
1923		44.921875
1924		33.203125
1925		41.015625
1926		29.296875
1927		37.109375
1928		25.390625
1929		33.203125
1930		21.484375
1931		31.250000
1932		19.531250
1933		25.390625
1934		17.578125
1935		21.484375
1936		11.718750
1937		17.578125
1938		7.812500
1939		15.625000
1940		3.906250
1941		11.718750
1942		0.000000
1943		9.765625
1944		-3.906250
1945		5.859375
1946		-5.859375
1947		1.953125
1948		-9.765625
1949		-1.953125
1950		-13.671875
1951		-7.812500
1952		-17.578125
1953		-11.718750
1954		-23.437500
1955		-13.671875
1956		-27.343750
1957		-15.625000
1958		-29.296875
1959		-21.484375
1960		-33.203125
1961		-25.390625
1962		-37.109375
1963		-29.296875
1964		-39.062500
1965		-31.250000
1966		-42.968750
1967		-37.109375
1968		-46.875000
1969		-41.015625
1970		-52.734375
1971		-44.921875
1972		-54.687500
1973		-46.875000
1974		-58.593750
1975		-50.781250
1976		-62.500000
1977		-54.687500
1978		-66.406250
1979		-56.640625
1980		-68.359375
1981		-60.546875
1982		-70.312500
1983		-64.453125
1984		-74.218750
1985		-70.312500
1986		-78.125000
1987		-72.265625
1988		-82.031250
1989		-74.218750
1990		-83.984375
1991		-76.171875
1992		-87.890625
1993		-80.078125
1994		-91.796875
1995		-82.031250
1996		-95.703125
1997		-85.937500
1998		-95.703125
1999		-89.843750
2000		-97.656250
2001		-93.750000
2002		-101.562500
2003		-97.656250
2004		-105.468750
2005		-99.609375
2006		-107.421875
2007		-99.609375
2008		-111.328125
2009		-103.515625
2010		-113.281250
2011		-105.468750
2012		-115.234375
2013		-109.375000
2014		-119.140625
2015		-111.328125
2016		-119.140625
2017		-113.281250
2018		-121.093750
2019		-117.187500
2020		-125.000000
2021		-119.140625
2022		-126.953125
2023		-119.140625
2024		-128.906250
2025		-121.093750
2026		-128.906250
2027		-123.046875
2028		-130.859375
2029		-125.000000
2030		-132.812500
2031		-126.953125
2032		-134.765625
2033		-128.906250
2034		-134.765625
2035		-130.859375
2036		-136.718750
2037		-132.812500
2038		-138.671875
2039		-132.812500
2040		-140.625000
2041		-132.812500
2042		-140.625000
2043		-134.765625
2044		-142.578125
2045		-134.765625
2046		-142.578125
2047		-136.718750
2048		-142.578125
2049		-136.718750
2050		-140.625000
2051		-138.671875
2052		-142.578125
2053		-138.671875
2054		-144.531250
2055		-138.671875
2056		-144.531250
2057		-138.671875
2058		-144.531250
2059		-136.718750
2060		-144.531250
2061		-138.671875
2062		-144.531250
2063		-138.671875
2064		-144.531250
2065		-138.671875
2066		-144.531250
2067		-136.718750
2068		-140.625000
2069		-138.671875
2070		-142.578125
2071		-136.718750
2072		-142.578125
2073		-134.765625
2074		-140.625000
2075		-134.765625
2076		-140.625000
2077		-132.812500
2078		-138.671875
2079		-132.812500
2080		-138.671875
2081		-130.859375
2082		-136.718750
2083		-128.906250
2084		-132.812500
2085		-128.906250
2086		-130.859375
2087		-128.906250
2088		-132.812500
2089		-125.000000
2090		-130.859375
2091		-123.046875
2092		-128.906250
2093		-121.093750
2094		-126.953125
2095		-119.140625
2096		-125.000000
2097		-117.187500
2098		-123.046875
2099		-115.234375
2100		-119.140625
2101		-115.234375
2102		-117.187500
2103		-113.281250
2104		-115.234375
2105		-109.375000
2106		-113.281250
2107		-105.468750
2108		-111.328125
2109		-103.515625
2110		-107.421875
2111		-101.562500
2112		-105.468750
2113		-97.656250
2114		-101.562500
2115		-93.750000
2116		-99.609375
2117		-91.796875
2118		-95.703125
2119		-89.843750
2120		-91.796875
2121		-85.937500
2122		-89.843750
2123		-82.031250
2124		-87.890625
2125		-78.125000
2126		-83.984375
2127		-76.171875
2128		-82.031250
2129		-72.265625
2130		-78.125000
2131		-70.312500
2132		-74.218750
2133		-66.406250
2134		-68.359375
2135		-64.453125
2136		-66.406250
2137		-60.546875
2138		-62.500000
2139		-54.687500
2140		-60.546875
2141		-52.734375
2142		-56.640625
2143		-48.828125
2144		-52.734375
2145		-44.921875
2146		-48.828125
2147		-41.015625
2148		-46.875000
2149		-37.109375
2150		-42.968750
2151		-35.156250
2152		-37.109375
2153		-31.250000
2154		-33.203125
2155		-27.343750
2156		-31.250000
2157		-21.484375
2158		-27.343750
2159		-17.578125
2160		-23.437500
2161		-15.625000
2162		-19.531250
2163		-11.718750
2164		-15.625000
2165		-7.812500
2166		-11.718750
2167		-3.906250
2168		-5.859375
2169		-1.953125
2170		-1.953125
2171		1.953125
2172		0.000000
2173		7.812500
2174		1.953125
2175		11.718750
2176		5.859375
2177		15.625000
2178		9.765625
2179		19.531250
2180		13.671875
2181		23.437500
2182		17.578125
2183		25.390625
2184		23.437500
2185		29.296875
2186		27.343750
2187		31.250000
2188		29.296875
2189		37.109375
2190		33.203125
2191		41.015625
2192		35.156250
2193		42.968750
2194		37.109375
2195		46.875000
2196		42.968750
2197		50.781250
2198		44.921875
2199		54.687500
2200		48.828125
2201		54.687500
2202		52.734375
2203		58.593750
2204		56.640625
2205		62.500000
2206		58.593750
2207		66.406250
2208		62.500000
2209		70.312500
2210		64.453125
2211		72.265625
2212		66.406250
2213		76.171875
2214		70.312500
2215		78.125000
2216		72.265625
2217		80.078125
2218		78.125000
2219		82.031250
2220		80.078125
2221		83.984375
2222		82.031250
2223		89.843750
2224		83.984375
2225		91.796875
2226		87.890625
2227		93.750000
2228		87.890625
2229		95.703125
2230		91.796875
2231		97.656250
2232		93.750000
2233		101.562500
2234		95.703125
2235		101.562500
2236		99.609375
2237		103.515625
2238		101.562500
2239		105.468750
2240		101.562500
2241		109.375000
2242		103.515625
2243		111.328125
2244		105.468750
2245		113.281250
2246		107.421875
2247		115.234375
2248		109.375000
2249		117.187500
2250		111.328125
2251		119.140625
2252		115.234375
2253		117.187500
2254		117.187500
2255		119.140625
2256		117.187500
2257		123.046875
2258		117.187500
2259		125.000000
2260		119.140625
2261		125.000000
2262		119.140625
2263		126.953125
2264		121.093750
2265		128.906250
2266		123.046875
2267		128.906250
2268		125.000000
2269		128.906250
2270		126.953125
2271		128.906250
2272		126.953125
2273		132.812500
2274		126.953125
2275		132.812500
2276		126.953125
2277		134.765625
2278		126.953125
2279		134.765625
2280		128.906250
2281		134.765625
2282		128.906250
2283		134.765625
2284		128.906250
2285		134.765625
2286		132.812500
2287		134.765625
2288		132.812500
2289		134.765625
2290		130.859375
2291		136.718750
2292		130.859375
2293		136.718750
2294		130.859375
2295		136.718750
2296		130.859375
2297		136.718750
2298		130.859375
2299		136.718750
2300		128.906250
2301		136.718750
2302		132.812500
2303		134.765625
2304		132.812500
2305		134.765625
2306		128.906250
2307		134.765625
2308		128.906250
2309		134.765625
2310		126.953125
2311		134.765625
2312		126.953125
2313		132.812500
2314		126.953125
2315		132.812500
2316		125.000000
2317		132.812500
2318		125.000000
2319		130.859375
2320		125.000000
2321		128.906250
2322		123.046875
2323		126.953125
2324		121.093750
2325		128.906250
2326		121.093750
2327		126.953125
2328		119.140625
2329		125.000000
2330		117.187500
2331		125.000000
2332		115.234375
2333		123.046875
2334		113.281250
2335		121.093750
2336		115.234375
2337		119.140625
2338		113.281250
2339		117.187500
2340		109.375000
2341		115.234375
2342		107.421875
2343		115.234375
2344		105.468750
2345		113.281250
2346		103.515625
2347		111.328125
2348		101.562500
2349		109.375000
2350		99.609375
2351		107.421875
2352		99.609375
2353		105.468750
2354		97.656250
2355		101.562500
2356		93.750000
2357		99.609375
2358		91.796875
2359		97.656250
2360		87.890625
2361		95.703125
2362		85.937500
2363		93.750000
2364		82.031250
2365		89.843750
2366		80.078125
2367		87.890625
2368		78.125000
2369		85.937500
2370		76.171875
2371		80.078125
2372		74.218750
2373		78.125000
2374		68.359375
2375		76.171875
2376		66.406250
2377		74.218750
2378		62.500000
2379		70.312500
2380		58.593750
2381		66.406250
2382		56.640625
2383		64.453125
2384		52.734375
2385		62.500000
2386		50.781250
2387		56.640625
2388		48.828125
2389		52.734375
2390		42.968750
2391		48.828125
2392		39.062500
2393		48.828125
2394		37.109375
2395		44.921875
2396		31.250000
2397		41.015625
2398		29.296875
2399		37.109375
2400		25.390625
2401		33.203125
2402		23.437500
2403		29.296875
2404		19.531250
2405		25.390625
2406		15.625000
2407		21.484375
2408		9.765625
2409		19.531250
2410		7.812500
2411		15.625000
2412		3.906250
2413		11.718750
2414		0.000000
2415		7.812500
2416		-3.906250
2417		3.906250
2418		-7.812500
2419		0.000000
2420		-9.765625
2421		-3.906250
2422		-13.671875
2423		-7.812500
2424		-19.531250
2425		-11.718750
2426		-23.437500
2427		-13.671875
2428		-27.343750
2429		-17.578125
2430		-29.296875
2431		-21.484375
2432		-33.203125
2433		-25.390625
2434		-37.109375
2435		-29.296875
2436		-39.062500
2437		-31.250000
2438		-42.968750
2439		-37.109375
2440		-48.828125
2441		-41.015625
2442		-50.781250
2443		-42.968750
2444		-54.687500
2445		-46.875000
2446		-58.593750
2447		-50.781250
2448		-62.500000
2449		-54.687500
2450		-64.453125
2451		-58.593750
2452		-68.359375
2453		-60.546875
2454		-72.265625
2455		-66.406250
2456		-74.218750
2457		-70.312500
2458		-78.125000
2459		-70.312500
2460		-83.984375
2461		-74.218750
2462		-85.937500
2463		-78.125000
2464		-87.890625
2465		-80.078125
2466		-91.796875
2467		-83.984375
2468		-93.750000
2469		-87.890625
2470		-95.703125
2471		-89.843750
2472		-97.656250
2473		-93.750000
2474		-103.515625
2475		-95.703125
2476		-105.468750
2477		-97.656250
2478		-107.421875
2479		-101.562500
2480		-109.375000
2481		-103.515625
2482		-113.281250
2483		-105.468750
2484		-115.234375
2485		-109.375000
2486		-117.187500
2487		-111.328125
2488		-119.140625
2489		-115.234375
2490		-121.093750
2491		-117.187500
2492		-125.000000
2493		-117.187500
2494		-126.953125
2495		-119.140625
2496		-126.953125
2497		-121.093750
2498		-130.859375
2499		-123.046875
2500		-132.812500
2501		-125.000000
2502		-132.812500
2503		-126.953125
2504		-132.812500
2505		-128.906250
2506		-134.765625
2507		-130.859375
2508		-138.671875
2509		-130.859375
2510		-138.671875
2511		-132.812500
2512		-138.671875
2513		-132.812500
2514		-140.625000
2515		-134.765625
2516		-140.625000
2517		-134.765625
2518		-142.578125
2519		-134.765625
2520		-142.578125
2521		-136.718750
2522		-140.625000
2523		-138.671875
2524		-142.578125
2525		-136.718750
2526		-144.531250
2527		-136.718750
2528		-144.531250
2529		-136.718750
2530		-144.531250
2531		-136.718750
2532		-144.531250
2533		-136.718750
2534		-144.531250
2535		-136.718750
2536		-142.578125
2537		-136.718750
2538		-140.625000
2539		-138.671875
2540		-140.625000
2541		-138.671875
2542		-142.578125
2543		-134.765625
2544		-140.625000
2545		-134.765625
2546		-140.625000
2547		-132.812500
2548		-138.671875
2549		-132.812500
2550		-138.671875
2551		-130.859375
2552		-136.718750
2553		-130.859375
2554		-134.765625
2555		-130.859375
2556		-132.812500
2557		-128.906250
2558		-130.859375
2559		-125.000000
2560		-130.859375
2561		-123.046875
2562		-128.906250
2563		-123.046875
2564		-126.953125
2565		-119.140625
2566		-125.000000
2567		-117.187500
2568		-123.046875
2569		-115.234375
2570		-121.093750
2571		-113.281250
2572		-117.187500
2573		-113.281250
2574		-115.234375
2575		-109.375000
2576		-113.281250
2577		-105.468750
2578		-111.328125
2579		-103.515625
2580		-109.375000
2581		-101.562500
2582		-105.468750
2583		-97.656250
2584		-101.562500
2585		-95.703125
2586		-99.609375
2587		-93.750000
2588		-95.703125
2589		-91.796875
2590		-91.796875
2591		-87.890625
2592		-89.843750
2593		-83.984375
2594		-87.890625
2595		-82.031250
2596		-83.984375
2597		-76.171875
2598		-82.031250
2599		-74.218750
2600		-78.125000
2601		-70.312500
2602		-74.218750
2603		-68.359375
2604		-70.312500
2605		-66.406250
2606		-66.406250
2607		-62.500000
2608		-62.500000
2609		-56.640625
2610		-60.546875
2611		-52.734375
2612		-56.640625
2613		-50.781250
2614		-54.687500
2615		-46.875000
2616		-50.781250
2617		-42.968750
2618		-48.828125
2619		-39.062500
2620		-42.968750
2621		-37.109375
2622		-37.109375
2623		-33.203125
2624		-35.156250
2625		-29.296875
2626		-31.250000
2627		-23.437500
2628		-27.343750
2629		-19.531250
2630		-23.437500
2631		-15.625000
2632		-19.531250
2633		-13.671875
2634		-17.578125
2635		-7.812500
2636		-13.671875
2637		-3.906250
2638		-9.765625
2639		-1.953125
2640		-3.906250
2641		1.953125
2642		0.000000
2643		5.859375
2644		1.953125
2645		9.765625
2646		5.859375
2647		13.671875
2648		7.812500
2649		17.578125
2650		13.671875
2651		21.484375
2652		15.625000
2653		25.390625
2654		19.531250
2655		27.343750
2656		25.390625
2657		29.296875
2658		29.296875
2659		33.203125
2660		29.296875
2661		39.062500
2662		33.203125
2663		41.015625
2664		37.109375
2665		44.921875
2666		41.015625
2667		48.828125
2668		44.921875
2669		52.734375
2670		46.875000
2671		54.687500
2672		52.734375
2673		56.640625
2674		56.640625
2675		60.546875
2676		58.593750
2677		64.453125
2678		60.546875
2679		68.359375
2680		62.500000
2681		70.312500
2682		66.406250
2683		74.218750
2684		70.312500
2685		76.171875
2686		72.265625
2687		80.078125
2688		76.171875
2689		80.078125
2690		80.078125
2691		83.984375
2692		82.031250
2693		87.890625
2694		83.984375
2695		89.843750
2696		85.937500
2697		93.750000
2698		87.890625
2699		95.703125
2700		89.843750
2701		97.656250
2702		91.796875
2703		99.609375
2704		95.703125
2705		101.562500
2706		99.609375
2707		103.515625
2708		101.562500
2709		105.468750
2710		101.562500
2711		109.375000
2712		103.515625
2713		111.328125
2714		105.468750
2715		113.281250
2716		107.421875
2717		115.234375
2718		109.375000
2719		117.187500
2720		111.328125
2721		117.187500
2722		113.281250
2723		117.187500
2724		115.234375
2725		119.140625
2726		117.187500
2727		123.046875
2728		117.187500
2729		125.000000
2730		119.140625
2731		126.953125
2732		119.140625
2733		126.953125
2734		121.093750
2735		128.906250
2736		123.046875
2737		128.906250
2738		123.046875
2739		130.859375
2740		126.953125
2741		128.906250
2742		126.953125
2743		130.859375
2744		126.953125
2745		132.812500
2746		126.953125
2747		134.765625
2748		128.906250
2749		134.765625
2750		128.906250
2751		134.765625
2752		128.906250
2753		136.718750
2754		130.859375
2755		136.718750
2756		132.812500
2757		134.765625
2758		132.812500
2759		134.765625
2760		130.859375
2761		138.671875
2762		130.859375
2763		138.671875
2764		130.859375
2765		136.718750
2766		130.859375
2767		138.671875
2768		130.859375
2769		138.671875
2770		130.859375
2771		136.718750
2772		130.859375
2773		136.718750
2774		132.812500
2775		134.765625
2776		132.812500
2777		134.765625
2778		128.906250
2779		136.718750
2780		128.906250
2781		136.718750
2782		128.906250
2783		134.765625
2784		126.953125
2785		134.765625
2786		126.953125
2787		134.765625
2788		126.953125
2789		132.812500
2790		126.953125
2791		130.859375
2792		126.953125
2793		128.906250
2794		123.046875
2795		130.859375
2796		123.046875
2797		128.906250
2798		121.093750
2799		128.906250
2800		119.140625
2801		126.953125
2802		117.187500
2803		125.000000
2804		117.187500
2805		123.046875
2806		117.187500
2807		123.046875
2808		115.234375
2809		119.140625
2810		111.328125
2811		117.187500
2812		111.328125
2813		117.187500
2814		107.421875
2815		115.234375
2816		107.421875
2817		113.281250
2818		103.515625
2819		111.328125
2820		101.562500
2821		109.375000
2822		101.562500
2823		107.421875
2824		99.609375
2825		103.515625
2826		95.703125
2827		101.562500
2828		93.750000
2829		101.562500
2830		91.796875
2831		99.609375
2832		87.890625
2833		95.703125
2834		85.937500
2835		93.750000
2836		83.984375
2837		91.796875
2838		80.078125
2839		89.843750
2840		80.078125
2841		83.984375
2842		76.171875
2843		82.031250
2844		74.218750
2845		78.125000
2846		68.359375
2847		78.125000
2848		66.406250
2849		74.218750
2850		62.500000
2851		70.312500
2852		60.546875
2853		68.359375
2854		56.640625
2855		64.453125
2856		54.687500
2857		62.500000
2858		52.734375
2859		56.640625
2860		48.828125
2861		52.734375
2862		42.968750
2863		52.734375
2864		39.062500
2865		48.828125
2866		37.109375
2867		42.968750
2868		33.203125
2869		41.015625
2870		31.250000
2871		37.109375
2872		27.343750
2873		33.203125
2874		23.437500
2875		29.296875
2876		19.531250
2877		25.390625
2878		15.625000
2879		21.484375
2880		9.765625
2881		19.531250
2882		7.812500
2883		15.625000
2884		3.906250
2885		13.671875
2886		0.000000
2887		7.812500
2888		-1.953125
2889		3.906250
2890		-5.859375
2891		1.953125
2892		-9.765625
2893		-3.906250
2894		-13.671875
2895		-7.812500
2896		-17.578125
2897		-9.765625
2898		-21.484375
2899		-11.718750
2900		-25.390625
2901		-17.578125
2902		-29.296875
2903		-21.484375
2904		-33.203125
2905		-25.390625
2906		-35.156250
2907		-27.343750
2908		-39.062500
2909		-33.203125
2910		-42.968750
2911		-37.109375
2912		-46.875000
2913		-39.062500
2914		-50.781250
2915		-42.968750
2916		-54.687500
2917		-46.875000
2918		-58.593750
2919		-48.828125
2920		-60.546875
2921		-52.734375
2922		-64.453125
2923		-56.640625
2924		-66.406250
2925		-62.500000
2926		-70.312500
2927		-66.406250
2928		-74.218750
2929		-68.359375
2930		-78.125000
2931		-70.312500
2932		-82.031250
2933		-72.265625
2934		-85.937500
2935		-76.171875
2936		-87.890625
2937		-80.078125
2938		-89.843750
2939		-82.031250
2940		-91.796875
2941		-85.937500
2942		-93.750000
2943		-89.843750
2944		-97.656250
2945		-93.750000
2946		-101.562500
2947		-93.750000
2948		-105.468750
2949		-97.656250
2950		-107.421875
2951		-99.609375
2952		-109.375000
2953		-101.562500
2954		-113.281250
2955		-105.468750
2956		-113.281250
2957		-107.421875
2958		-115.234375
2959		-111.328125
2960		-117.187500
2961		-113.281250
2962		-121.093750
2963		-115.234375
2964		-123.046875
2965		-115.234375
2966		-125.000000
2967		-117.187500
2968		-126.953125
2969		-119.140625
2970		-128.906250
2971		-121.093750
2972		-130.859375
2973		-123.046875
2974		-130.859375
2975		-125.000000
2976		-130.859375
2977		-128.906250
2978		-134.765625
2979		-128.906250
2980		-136.718750
2981		-128.906250
2982		-136.718750
2983		-130.859375
2984		-138.671875
2985		-130.859375
2986		-138.671875
2987		-130.859375
2988		-138.671875
2989		-132.812500
2990		-140.625000
2991		-132.812500
2992		-138.671875
2993		-136.718750
2994		-138.671875
2995		-136.718750
2996		-142.578125
2997		-134.765625
2998		-142.578125
2999		-134.765625
3000		-142.578125
3001		-134.765625
3002		-142.578125
3003		-134.765625
3004		-140.625000
3005		-134.765625
3006		-140.625000
3007		-134.765625
3008		-138.671875
3009		-136.718750
3010		-138.671875
3011		-136.718750
3012		-140.625000
3013		-132.812500
3014		-140.625000
3015		-132.812500
3016		-138.671875
3017		-132.812500
3018		-136.718750
3019		-130.859375
3020		-136.718750
3021		-130.859375
3022		-136.718750
3023		-128.906250
3024		-134.765625
3025		-126.953125
3026		-130.859375
3027		-128.906250
3028		-130.859375
3029		-125.000000
3030		-130.859375
3031		-121.093750
3032		-128.906250
3033		-121.093750
3034		-126.953125
3035		-119.140625
3036		-125.000000
3037		-117.187500
3038		-123.046875
3039		-115.234375
3040		-121.093750
3041		-113.281250
3042		-117.187500
3043		-113.281250
3044		-115.234375
3045		-111.328125
3046		-113.281250
3047		-105.468750
3048		-111.328125
3049		-103.515625
3050		-109.375000
3051		-101.562500
3052		-107.421875
3053		-97.656250
3054		-103.515625
3055		-93.750000
3056		-101.562500
3057		-91.796875
3058		-97.656250
3059		-91.796875
3060		-93.750000
3061		-87.890625
3062		-89.843750
3063		-83.984375
3064		-89.843750
3065		-82.031250
3066		-85.937500
3067		-78.125000
3068		-82.031250
3069		-74.218750
3070		-78.125000
3071		-70.312500
3072		-76.171875
3073		-68.359375
3074		-74.218750
3075		-66.406250
3076		-68.359375
3077		-62.500000
3078		-64.453125
3079		-58.593750
3080		-62.500000
3081		-54.687500
3082		-58.593750
3083		-50.781250
3084		-54.687500
3085		-46.875000
3086		-50.781250
3087		-42.968750
3088		-48.828125
3089		-39.062500
3090		-44.921875
3091		-35.156250
3092		-39.062500
3093		-33.203125
3094		-35.156250
3095		-29.296875
3096		-31.250000
3097		-23.437500
3098		-29.296875
3099		-21.484375
3100		-25.390625
3101		-17.578125
3102		-21.484375
3103		-13.671875
3104		-17.578125
3105		-9.765625
3106		-13.671875
3107		-5.859375
3108		-9.765625
3109		-3.906250
3110		-5.859375
3111		0.000000
3112		-1.953125
3113		3.906250
3114		0.000000
3115		9.765625
3116		3.906250
3117		13.671875
3118		7.812500
3119		15.625000
3120		11.718750
3121		19.531250
3122		15.625000
3123		23.437500
3124		19.531250
3125		27.343750
3126		23.437500
3127		29.296875
3128		27.343750
3129		33.203125
3130		31.250000
3131		39.062500
3132		33.203125
3133		41.015625
3134		37.109375
3135		44.921875
3136		41.015625
3137		48.828125
3138		42.968750
3139		52.734375
3140		46.875000
3141		54.687500
3142		50.781250
3143		56.640625
3144		54.687500
3145		60.546875
3146		58.593750
3147		64.453125
3148		60.546875
3149		66.406250
3150		62.500000
3151		70.312500
3152		64.453125
3153		74.218750
3154		68.359375
3155		76.171875
3156		70.312500
3157		80.078125
3158		74.218750
3159		80.078125
3160		80.078125
3161		83.984375
3162		82.031250
3163		85.937500
3164		83.984375
3165		89.843750
3166		85.937500
3167		93.750000
3168		87.890625
3169		95.703125
3170		89.843750
3171		97.656250
3172		91.796875
3173		99.609375
3174		95.703125
3175		103.515625
3176		97.656250
3177		103.515625
3178		101.562500
3179		105.468750
3180		103.515625
3181		107.421875
3182		103.515625
3183		111.328125
3184		105.468750
3185		113.281250
3186		107.421875
3187		115.234375
3188		109.375000
3189		117.187500
3190		111.328125
3191		119.140625
3192		113.281250
3193		119.140625
3194		117.187500
3195		119.140625
3196		119.140625
3197		123.046875
3198		117.187500
3199		125.000000
3200		119.140625
3201		126.953125
3202		121.093750
3203		126.953125
3204		123.046875
3205		128.906250
3206		123.046875
3207		128.906250
3208		125.000000
3209		130.859375
3210		126.953125
3211		130.859375
3212		126.953125
3213		130.859375
3214		126.953125
3215		132.812500
3216		128.906250
3217		134.765625
3218		128.906250
3219		134.765625
3220		128.906250
3221		136.718750
3222		128.906250
3223		136.718750
3224		128.906250
3225		136.718750
3226		130.859375
3227		136.718750
3228		132.812500
3229		134.765625
3230		132.812500
3231		136.718750
3232		130.859375
3233		138.671875
3234		130.859375
3235		138.671875
3236		130.859375
3237		138.671875
3238		130.859375
3239		138.671875
3240		132.812500
3241		138.671875
3242		132.812500
3243		138.671875
3244		132.812500
3245		136.718750
3246		132.812500
3247		134.765625
3248		130.859375
3249		136.718750
3250		130.859375
3251		136.718750
3252		130.859375
3253		134.765625
3254		130.859375
3255		134.765625
3256		128.906250
3257		134.765625
3258		126.953125
3259		134.765625
3260		128.906250
3261		132.812500
3262		126.953125
3263		130.859375
3264		125.000000
3265		130.859375
3266		123.046875
3267		128.906250
3268		123.046875
3269		126.953125
3270		123.046875
3271		126.953125
3272		119.140625
3273		125.000000
3274		117.187500
3275		125.000000
3276		117.187500
3277		121.093750
3278		117.187500
3279		119.140625
3280		113.281250
3281		119.140625
3282		113.281250
3283		117.187500
3284		111.328125
3285		115.234375
3286		109.375000
3287		113.281250
3288		107.421875
3289		111.328125
3290		105.468750
3291		109.375000
3292		103.515625
3293		109.375000
3294		101.562500
3295		105.468750
3296		99.609375
3297		103.515625
3298		95.703125
3299		101.562500
3300		93.750000
3301		97.656250
3302		91.796875
3303		95.703125
3304		89.843750
3305		93.750000
3306		85.937500
3307		91.796875
3308		83.984375
3309		89.843750
3310		82.031250
3311		85.937500
3312		78.125000
3313		82.031250
3314		74.218750
3315		80.078125
3316		72.265625
3317		78.125000
3318		70.312500
3319		74.218750
3320		66.406250
3321		72.265625
3322		62.500000
3323		68.359375
3324		60.546875
3325		64.453125
3326		56.640625
3327		62.500000
3328		54.687500
3329		58.593750
3330		50.781250
3331		54.687500
3332		46.875000
3333		52.734375
3334		42.968750
3335		48.828125
3336		41.015625
3337		44.921875
3338		37.109375
3339		41.015625
3340		33.203125
3341		39.062500
3342		29.296875
3343		35.156250
3344		25.390625
3345		33.203125
3346		23.437500
3347		27.343750
3348		19.531250
3349		23.437500
3350		15.625000
3351		21.484375
3352		11.718750
3353		17.578125
3354		7.812500
3355		13.671875
3356		3.906250
3357		9.765625
3358		0.000000
3359		5.859375
3360		-1.953125
3361		1.953125
3362		-7.812500
3363		-1.953125
3364		-11.718750
3365		-5.859375
3366		-15.625000
3367		-9.765625
3368		-17.578125
3369		-13.671875
3370		-21.484375
3371		-15.625000
3372		-25.390625
3373		-19.531250
3374		-29.296875
3375		-23.437500
3376		-33.203125
3377		-27.343750
3378		-37.109375
3379		-31.250000
3380		-41.015625
3381		-35.156250
3382		-44.921875
3383		-39.062500
3384		-46.875000
3385		-42.968750
3386		-50.781250
3387		-44.921875
3388		-54.687500
3389		-48.828125
3390		-58.593750
3391		-52.734375
3392		-60.546875
3393		-56.640625
3394		-64.453125
3395		-58.593750
3396		-68.359375
3397		-62.500000
3398		-72.265625
3399		-66.406250
3400		-76.171875
3401		-70.312500
3402		-78.125000
3403		-72.265625
3404		-82.031250
3405		-76.171875
3406		-83.984375
3407		-80.078125
3408		-87.890625
3409		-82.031250
3410		-91.796875
3411		-85.937500
3412		-93.750000
3413		-87.890625
3414		-95.703125
3415		-91.796875
3416		-97.656250
3417		-93.750000
3418		-101.562500
3419		-97.656250
3420		-103.515625
3421		-99.609375
3422		-107.421875
3423		-101.562500
3424		-109.375000
3425		-105.468750
3426		-111.328125
3427		-107.421875
3428		-113.281250
3429		-109.375000
3430		-117.187500
3431		-111.328125
3432		-119.140625
3433		-115.234375
3434		-121.093750
3435		-117.187500
3436		-123.046875
3437		-119.140625
3438		-125.000000
3439		-121.093750
3440		-125.000000
3441		-123.046875
3442		-126.953125
3443		-125.000000
3444		-128.906250
3445		-125.000000
3446		-130.859375
3447		-126.953125
3448		-132.812500
3449		-128.906250
3450		-132.812500
3451		-128.906250
3452		-134.765625
3453		-130.859375
3454		-134.765625
3455		-132.812500
3456		-136.718750
3457		-132.812500
3458		-136.718750
3459		-134.765625
3460		-138.671875
3461		-134.765625
3462		-138.671875
3463		-134.765625
3464		-138.671875
3465		-136.718750
3466		-138.671875
3467		-136.718750
3468		-140.625000
3469		-136.718750
3470		-140.625000
3471		-136.718750
3472		-140.625000
3473		-136.718750
3474		-140.625000
3475		-136.718750
3476		-140.625000
3477		-136.718750
3478		-140.625000
3479		-134.765625
3480		-138.671875
3481		-136.718750
3482		-138.671875
3483		-136.718750
3484		-138.671875
3485		-134.765625
3486		-136.718750
3487		-134.765625
3488		-136.718750
3489		-132.812500
3490		-136.718750
3491		-132.812500
3492		-134.765625
3493		-130.859375
3494		-132.812500
3495		-128.906250
3496		-132.812500
3497		-128.906250
3498		-130.859375
3499		-126.953125
3500		-130.859375
3501		-126.953125
3502		-126.953125
3503		-125.000000
3504		-126.953125
3505		-123.046875
3506		-125.000000
3507		-119.140625
3508		-123.046875
3509		-119.140625
3510		-121.093750
3511		-117.187500
3512		-119.140625
3513		-115.234375
3514		-115.234375
3515		-111.328125
3516		-113.281250
3517		-109.375000
3518		-111.328125
3519		-107.421875
3520		-109.375000
3521		-105.468750
3522		-107.421875
3523		-101.562500
3524		-103.515625
3525		-99.609375
3526		-101.562500
3527		-95.703125
3528		-97.656250
3529		-93.750000
3530		-95.703125
3531		-91.796875
3532		-93.750000
3533		-87.890625
3534		-89.843750
3535		-85.937500
3536		-87.890625
3537		-82.031250
3538		-83.984375
3539		-80.078125
3540		-80.078125
3541		-76.171875
3542		-76.171875
3543		-72.265625
3544		-74.218750
3545		-68.359375
3546		-70.312500
3547		-64.453125
3548		-66.406250
3549		-62.500000
3550		-64.453125
3551		-58.593750
3552		-60.546875
3553		-54.687500
3554		-56.640625
3555		-50.781250
3556		-52.734375
3557		-48.828125
3558		-48.828125
3559		-42.968750
3560		-44.921875
3561		-41.015625
3562		-42.968750
3563		-37.109375
3564		-39.062500
3565		-33.203125
3566		-35.156250
3567		-29.296875
3568		-31.250000
3569		-25.390625
3570		-27.343750
3571		-21.484375
3572		-23.437500
3573		-17.578125
3574		-19.531250
3575		-13.671875
3576		-15.625000
3577		-9.765625
3578		-11.718750
3579		-5.859375
3580		-7.812500
3581		-3.906250
3582		-3.906250
3583		0.000000
3584		-1.953125
3585		3.906250
3586		3.906250
3587		7.812500
3588		5.859375
3589		11.718750
3590		9.765625
3591		15.625000
3592		13.671875
3593		19.531250
3594		17.578125
3595		23.437500
3596		19.531250
3597		25.390625
3598		25.390625
3599		29.296875
3600		29.296875
3601		33.203125
3602		31.250000
3603		37.109375
3604		35.156250
3605		41.015625
3606		39.062500
3607		44.921875
3608		42.968750
3609		46.875000
3610		44.921875
3611		50.781250
3612		48.828125
3613		52.734375
3614		52.734375
3615		56.640625
3616		54.687500
3617		60.546875
3618		58.593750
3619		64.453125
3620		62.500000
3621		66.406250
3622		64.453125
3623		70.312500
3624		68.359375
3625		72.265625
3626		70.312500
3627		76.171875
3628		74.218750
3629		80.078125
3630		76.171875
3631		80.078125
3632		80.078125
3633		83.984375
3634		82.031250
3635		85.937500
3636		83.984375
3637		89.843750
3638		87.890625
3639		91.796875
3640		89.843750
3641		93.750000
3642		91.796875
3643		97.656250
3644		95.703125
3645		99.609375
3646		97.656250
3647		101.562500
3648		99.609375
3649		103.515625
3650		101.562500
3651		107.421875
3652		103.515625
3653		109.375000
3654		105.468750
3655		109.375000
3656		107.421875
3657		111.328125
3658		109.375000
3659		115.234375
3660		111.328125
3661		115.234375
3662		113.281250
3663		117.187500
3664		115.234375
3665		119.140625
3666		117.187500
3667		121.093750
3668		119.140625
3669		123.046875
3670		121.093750
3671		123.046875
3672		121.093750
3673		125.000000
3674		123.046875
3675		125.000000
3676		125.000000
3677		126.953125
3678		125.000000
3679		128.906250
3680		125.000000
3681		128.906250
3682		126.953125
3683		130.859375
3684		128.906250
3685		132.812500
3686		128.906250
3687		132.812500
3688		130.859375
3689		134.765625
3690		130.859375
3691		134.765625
3692		130.859375
3693		134.765625
3694		132.812500
3695		136.718750
3696		132.812500
3697		136.718750
3698		134.765625
3699		136.718750
3700		134.765625
3701		136.718750
3702		132.812500
3703		136.718750
3704		134.765625
3705		136.718750
3706		134.765625
3707		136.718750
3708		134.765625
3709		138.671875
3710		134.765625
3711		136.718750
3712		134.765625
3713		136.718750
3714		134.765625
3715		138.671875
3716		134.765625
3717		136.718750
3718		132.812500
3719		136.718750
3720		132.812500
3721		136.718750
3722		132.812500
3723		136.718750
3724		132.812500
3725		134.765625
3726		130.859375
3727		134.765625
3728		130.859375
3729		134.765625
3730		130.859375
3731		132.812500
3732		128.906250
3733		132.812500
3734		126.953125
3735		130.859375
3736		126.953125
3737		130.859375
3738		125.000000
3739		128.906250
3740		125.000000
3741		128.906250
3742		123.046875
3743		126.953125
3744		123.046875
3745		126.953125
3746		119.140625
3747		123.046875
3748		119.140625
3749		123.046875
3750		117.187500
3751		121.093750
3752		115.234375
3753		119.140625
3754		115.234375
3755		117.187500
3756		111.328125
3757		117.187500
3758		111.328125
3759		113.281250
3760		109.375000
3761		113.281250
3762		105.468750
3763		109.375000
3764		105.468750
3765		109.375000
3766		101.562500
3767		105.468750
3768		99.609375
3769		103.515625
3770		97.656250
3771		101.562500
3772		95.703125
3773		99.609375
3774		91.796875
3775		97.656250
3776		89.843750
3777		95.703125
3778		87.890625
3779		91.796875
3780		83.984375
3781		89.843750
3782		82.031250
3783		85.937500
3784		80.078125
3785		83.984375
3786		76.171875
3787		82.031250
3788		72.265625
3789		78.125000
3790		70.312500
3791		74.218750
3792		66.406250
3793		72.265625
3794		64.453125
3795		68.359375
3796		60.546875
3797		66.406250
3798		58.593750
3799		62.500000
3800		54.687500
3801		58.593750
3802		50.781250
3803		56.640625
3804		46.875000
3805		52.734375
3806		44.921875
3807		48.828125
3808		41.015625
3809		46.875000
3810		37.109375
3811		42.968750
3812		33.203125
3813		39.062500
3814		31.250000
3815		35.156250
3816		27.343750
3817		31.250000
3818		21.484375
3819		29.296875
3820		19.531250
3821		25.390625
3822		15.625000
3823		21.484375
3824		11.718750
3825		17.578125
3826		9.765625
3827		13.671875
3828		5.859375
3829		11.718750
3830		0.000000
3831		5.859375
3832		-1.953125
3833		1.953125
3834		-5.859375
3835		0.000000
3836		-9.765625
3837		-3.906250
3838		-13.671875
3839		-7.812500
3840		-17.578125
3841		-11.718750
3842		-21.484375
3843		-15.625000
3844		-25.390625
3845		-19.531250
3846		-27.343750
3847		-23.437500
3848		-31.250000
3849		-25.390625
3850		-35.156250
3851		-29.296875
3852		-39.062500
3853		-35.156250
3854		-42.968750
3855		-37.109375
3856		-46.875000
3857		-41.015625
3858		-50.781250
3859		-44.921875
3860		-52.734375
3861		-48.828125
3862		-56.640625
3863		-52.734375
3864		-60.546875
3865		-54.687500
3866		-64.453125
3867		-58.593750
3868		-66.406250
3869		-62.500000
3870		-70.312500
3871		-64.453125
3872		-74.218750
3873		-68.359375
3874		-76.171875
3875		-72.265625
3876		-80.078125
3877		-74.218750
3878		-82.031250
3879		-78.125000
3880		-85.937500
3881		-82.031250
3882		-87.890625
3883		-83.984375
3884		-91.796875
3885		-87.890625
3886		-93.750000
3887		-89.843750
3888		-97.656250
3889		-93.750000
3890		-99.609375
3891		-95.703125
3892		-103.515625
3893		-97.656250
3894		-105.468750
3895		-101.562500
3896		-107.421875
3897		-103.515625
3898		-109.375000
3899		-105.468750
3900		-113.281250
3901		-107.421875
3902		-115.234375
3903		-111.328125
3904		-117.187500
3905		-113.281250
3906		-119.140625
3907		-115.234375
3908		-121.093750
3909		-115.234375
3910		-123.046875
3911		-119.140625
3912		-125.000000
3913		-119.140625
3914		-126.953125
3915		-123.046875
3916		-126.953125
3917		-123.046875
3918		-128.906250
3919		-125.000000
3920		-130.859375
3921		-126.953125
3922		-130.859375
3923		-126.953125
3924		-132.812500
3925		-128.906250
3926		-132.812500
3927		-130.859375
3928		-134.765625
3929		-130.859375
3930		-134.765625
3931		-130.859375
3932		-134.765625
3933		-132.812500
3934		-136.718750
3935		-132.812500
3936		-138.671875
3937		-132.812500
3938		-136.718750
3939		-134.765625
3940		-138.671875
3941		-134.765625
3942		-138.671875
3943		-134.765625
3944		-138.671875
3945		-134.765625
3946		-136.718750
3947		-134.765625
3948		-138.671875
3949		-134.765625
3950		-136.718750
3951		-134.765625
3952		-136.718750
3953		-134.765625
3954		-136.718750
3955		-132.812500
3956		-136.718750
3957		-132.812500
3958		-134.765625
3959		-130.859375
3960		-134.765625
3961		-130.859375
3962		-132.812500
3963		-128.906250
3964		-132.812500
3965		-128.906250
3966		-130.859375
3967		-126.953125
3968		-128.906250
3969		-126.953125
3970		-128.906250
3971		-125.000000
3972		-126.953125
3973		-123.046875
3974		-125.000000
3975		-121.093750
3976		-123.046875
3977		-119.140625
3978		-121.093750
3979		-117.187500
3980		-121.093750
3981		-115.234375
3982		-117.187500
3983		-113.281250
3984		-115.234375
3985		-111.328125
3986		-113.281250
3987		-109.375000
3988		-111.328125
3989		-105.468750
3990		-109.375000
3991		-105.468750
3992		-107.421875
3993		-101.562500
3994		-103.515625
3995		-99.609375
3996		-101.562500
3997		-95.703125
3998		-97.656250
3999		-93.750000
4000		-95.703125
4001		-91.796875
4002		-91.796875
4003		-87.890625
4004		-89.843750
4005		-83.984375
4006		-87.890625
4007		-82.031250
4008		-83.984375
4009		-78.125000
4010		-80.078125
4011		-76.171875
4012		-76.171875
4013		-72.265625
4014		-74.218750
4015		-68.359375
4016		-72.265625
4017		-66.406250
4018		-66.406250
4019		-62.500000
4020		-64.453125
4021		-58.593750
4022		-60.546875
4023		-54.687500
4024		-56.640625
4025		-50.781250
4026		-52.734375
4027		-48.828125
4028		-48.828125
4029		-44.921875
4030		-46.875000
4031		-41.015625
4032		-42.968750
4033		-37.109375
4034		-39.062500
4035		-33.203125
4036		-35.156250
4037		-29.296875
4038		-31.250000
4039		-25.390625
4040		-27.343750
4041		-21.484375
4042		-23.437500
4043		-19.531250
4044		-19.531250
4045		-13.671875
4046		-15.625000
4047		-11.718750
4048		-13.671875
4049		-7.812500
4050		-9.765625
4051		-3.906250
4052		-5.859375
4053		0.000000
4054		-1.953125
4055		3.906250
4056		1.953125
4057		7.812500
4058		5.859375
4059		11.718750
4060		9.765625
4061		15.625000
4062		13.671875
4063		17.578125
4064		17.578125
4065		21.484375
4066		21.484375
4067		25.390625
4068		23.437500
4069		29.296875
4070		27.343750
4071		33.203125
4072		31.250000
4073		37.109375
4074		35.156250
4075		39.062500
4076		39.062500
4077		42.968750
4078		41.015625
4079		46.875000
4080		44.921875
4081		50.781250
4082		48.828125
4083		54.687500
4084		52.734375
4085		56.640625
4086		54.687500
4087		60.546875
4088		58.593750
4089		62.500000
4090		60.546875
4091		66.406250
4092		64.453125
4093		68.359375
4094		68.359375
4095		72.265625
4096		70.312500
4097		76.171875
4098		74.218750
4099		78.125000
4100		76.171875
4101		80.078125
4102		78.125000
4103		83.984375
4104		82.031250
4105		87.890625
4106		83.984375
4107		89.843750
4108		87.890625
4109		91.796875
4110		89.843750
4111		95.703125
4112		91.796875
4113		95.703125
4114		95.703125
4115		99.609375
4116		97.656250
4117		101.562500
4118		99.609375
4119		103.515625
4120		101.562500
4121		105.468750
4122		103.515625
4123		107.421875
4124		105.468750
4125		109.375000
4126		107.421875
4127		111.328125
4128		109.375000
4129		113.281250
4130		111.328125
4131		115.234375
4132		113.281250
4133		117.187500
4134		115.234375
4135		119.140625
4136		117.187500
4137		121.093750
4138		119.140625
4139		123.046875
4140		121.093750
4141		123.046875
4142		121.093750
4143		125.000000
4144		123.046875
4145		126.953125
4146		125.000000
4147		128.906250
4148		125.000000
4149		128.906250
4150		126.953125
4151		130.859375
4152		128.906250
4153		130.859375
4154		128.906250
4155		132.812500
4156		130.859375
4157		134.765625
4158		130.859375
4159		134.765625
4160		130.859375
4161		134.765625
4162		132.812500
4163		136.718750
4164		132.812500
4165		136.718750
4166		132.812500
4167		136.718750
4168		134.765625
4169		136.718750
4170		134.765625
4171		136.718750
4172		134.765625
4173		138.671875
4174		134.765625
4175		138.671875
4176		134.765625
4177		138.671875
4178		134.765625
4179		138.671875
4180		134.765625
4181		138.671875
4182		134.765625
4183		138.671875
4184		134.765625
4185		138.671875
4186		134.765625
4187		138.671875
4188		132.812500
4189		138.671875
4190		134.765625
4191		138.671875
4192		132.812500
4193		138.671875
4194		132.812500
4195		136.718750
4196		132.812500
4197		136.718750
4198		132.812500
4199		134.765625
4200		130.859375
4201		134.765625
4202		130.859375
4203		132.812500
4204		130.859375
4205		132.812500
4206		126.953125
4207		132.812500
4208		126.953125
4209		130.859375
4210		126.953125
4211		130.859375
4212		125.000000
4213		130.859375
4214		123.046875
4215		128.906250
4216		123.046875
4217		126.953125
4218		121.093750
4219		126.953125
4220		119.140625
4221		123.046875
4222		117.187500
4223		123.046875
4224		115.234375
4225		121.093750
4226		113.281250
4227		119.140625
4228		111.328125
4229		117.187500
4230		111.328125
4231		115.234375
4232		109.375000
4233		113.281250
4234		107.421875
4235		111.328125
4236		105.468750
4237		109.375000
4238		101.562500
4239		107.421875
4240		99.609375
4241		105.468750
4242		97.656250
4243		103.515625
4244		95.703125
4245		99.609375
4246		91.796875
4247		99.609375
4248		89.843750
4249		95.703125
4250		85.937500
4251		93.750000
4252		85.937500
4253		89.843750
4254		82.031250
4255		85.937500
4256		80.078125
4257		83.984375
4258		76.171875
4259		82.031250
4260		72.265625
4261		80.078125
4262		70.312500
4263		76.171875
4264		68.359375
4265		74.218750
4266		64.453125
4267		70.312500
4268		62.500000
4269		66.406250
4270		58.593750
4271		62.500000
4272		54.687500
4273		60.546875
4274		52.734375
4275		56.640625
4276		48.828125
4277		52.734375
4278		44.921875
4279		50.781250
4280		41.015625
4281		46.875000
4282		37.109375
4283		42.968750
4284		33.203125
4285		39.062500
4286		31.250000
4287		35.156250
4288		27.343750
4289		33.203125
4290		23.437500
4291		29.296875
4292		19.531250
4293		25.390625
4294		17.578125
4295		21.484375
4296		13.671875
4297		17.578125
4298		9.765625
4299		13.671875
4300		5.859375
4301		9.765625
4302		1.953125
4303		7.812500
4304		-1.953125
4305		3.906250
4306		-5.859375
4307		0.000000
4308		-9.765625
4309		-3.906250
4310		-13.671875
4311		-7.812500
4312		-17.578125
4313		-11.718750
4314		-19.531250
4315		-15.625000
4316		-23.437500
4317		-19.531250
4318		-27.343750
4319		-21.484375
4320		-31.250000
4321		-25.390625
4322		-35.156250
4323		-29.296875
4324		-39.062500
4325		-33.203125
4326		-42.968750
4327		-37.109375
4328		-44.921875
4329		-41.015625
4330		-48.828125
4331		-44.921875
4332		-52.734375
4333		-48.828125
4334		-56.640625
4335		-50.781250
4336		-58.593750
4337		-54.687500
4338		-62.500000
4339		-58.593750
4340		-66.406250
4341		-60.546875
4342		-70.312500
4343		-64.453125
4344		-72.265625
4345		-68.359375
4346		-76.171875
4347		-72.265625
4348		-80.078125
4349		-74.218750
4350		-82.031250
4351		-78.125000
4352		-85.937500
4353		-80.078125
4354		-87.890625
4355		-83.984375
4356		-91.796875
4357		-85.937500
4358		-93.750000
4359		-89.843750
4360		-95.703125
4361		-91.796875
4362		-99.609375
4363		-95.703125
4364		-101.562500
4365		-97.656250
4366		-103.515625
4367		-99.609375
4368		-107.421875
4369		-103.515625
4370		-109.375000
4371		-105.468750
4372		-111.328125
4373		-107.421875
4374		-115.234375
4375		-107.421875
4376		-117.187500
4377		-109.375000
4378		-119.140625
4379		-111.328125
4380		-119.140625
4381		-115.234375
4382		-121.093750
4383		-117.187500
4384		-123.046875
4385		-119.140625
4386		-125.000000
4387		-121.093750
4388		-125.000000
4389		-123.046875
4390		-130.859375
4391		-123.046875
4392		-130.859375
4393		-123.046875
4394		-132.812500
4395		-123.046875
4396		-132.812500
4397		-125.000000
4398		-132.812500
4399		-128.906250
4400		-132.812500
4401		-130.859375
4402		-132.812500
4403		-130.859375
4404		-134.765625
4405		-130.859375
4406		-134.765625
4407		-132.812500
4408		-136.718750
4409		-128.906250
4410		-138.671875
4411		-128.906250
4412		-138.671875
4413		-128.906250
4414		-136.718750
4415		-134.765625
4416		-136.718750
4417		-132.812500
4418		-136.718750
4419		-132.812500
4420		-134.765625
4421		-132.812500
4422		-134.765625
4423		-132.812500
4424		-138.671875
4425		-128.906250
4426		-136.718750
4427		-128.906250
4428		-136.718750
4429		-126.953125
4430		-132.812500
4431		-130.859375
4432		-132.812500
4433		-128.906250
4434		-130.859375
4435		-128.906250
4436		-130.859375
4437		-126.953125
4438		-128.906250
4439		-126.953125
4440		-128.906250
4441		-121.093750
4442		-128.906250
4443		-119.140625
4444		-126.953125
4445		-119.140625
4446		-126.953125
4447		-119.140625
4448		-121.093750
4449		-119.140625
4450		-119.140625
4451		-115.234375
4452		-117.187500
4453		-113.281250
4454		-115.234375
4455		-111.328125
4456		-113.281250
4457		-109.375000
4458		-113.281250
4459		-105.468750
4460		-111.328125
4461		-103.515625
4462		-109.375000
4463		-99.609375
4464		-103.515625
4465		-99.609375
4466		-101.562500
4467		-97.656250
4468		-99.609375
4469		-93.750000
4470		-97.656250
4471		-91.796875
4472		-93.750000
4473		-89.843750
4474		-91.796875
4475		-82.031250
4476		-89.843750
4477		-80.078125
4478		-87.890625
4479		-76.171875
4480		-83.984375
4481		-76.171875
4482		-78.125000
4483		-74.218750
4484		-74.218750
4485		-70.312500
4486		-72.265625
4487		-66.406250
4488		-68.359375
4489		-64.453125
4490		-64.453125
4491		-60.546875
4492		-64.453125
4493		-54.687500
4494		-60.546875
4495		-50.781250
4496		-56.640625
4497		-48.828125
4498		-50.781250
4499		-46.875000
4500		-46.875000
4501		-42.968750
4502		-42.968750
4503		-39.062500
4504		-41.015625
4505		-35.156250
4506		-37.109375
4507		-31.250000
4508		-33.203125
4509		-25.390625
4510		-31.250000
4511		-21.484375
4512		-27.343750
4513		-17.578125
4514		-21.484375
4515		-17.578125
4516		-17.578125
4517		-13.671875
4518		-13.671875
4519		-9.765625
4520		-9.765625
4521		-5.859375
4522		-5.859375
4523		-1.953125
4524		-3.906250
4525		3.906250
4526		-1.953125
4527		7.812500
4528		0.000000
4529		11.718750
4530		5.859375
4531		13.671875
4532		11.718750
4533		15.625000
4534		15.625000
4535		19.531250
4536		19.531250
4537		23.437500
4538		21.484375
4539		27.343750
4540		25.390625
4541		31.250000
4542		27.343750
4543		37.109375
4544		31.250000
4545		41.015625
4546		35.156250
4547		42.968750
4548		41.015625
4549		44.921875
4550		42.968750
4551		48.828125
4552		46.875000
4553		50.781250
4554		50.781250
4555		54.687500
4556		52.734375
4557		58.593750
4558		56.640625
4559		60.546875
4560		60.546875
4561		66.406250
4562		60.546875
4563		70.312500
4564		66.406250
4565		70.312500
4566		68.359375
4567		74.218750
4568		72.265625
4569		76.171875
4570		76.171875
4571		80.078125
4572		78.125000
4573		82.031250
4574		80.078125
4575		83.984375
4576		83.984375
4577		87.890625
4578		83.984375
4579		93.750000
4580		85.937500
4581		93.750000
4582		91.796875
4583		95.703125
4584		93.750000
4585		97.656250
4586		95.703125
4587		99.609375
4588		99.609375
4589		103.515625
4590		101.562500
4591		105.468750
4592		103.515625
4593		107.421875
4594		103.515625
4595		109.375000
4596		105.468750
4597		111.328125
4598		109.375000
4599		113.281250
4600		111.328125
4601		115.234375
4602		113.281250
4603		117.187500
4604		115.234375
4605		119.140625
4606		117.187500
4607		119.140625
4608		119.140625
4609		121.093750
4610		119.140625
4611		123.046875
4612		121.093750
4613		125.000000
4614		123.046875
4615		125.000000
4616		125.000000
4617		126.953125
4618		125.000000
4619		128.906250
4620		126.953125
4621		128.906250
4622		126.953125
4623		130.859375
4624		128.906250
4625		132.812500
4626		128.906250
4627		132.812500
4628		130.859375
4629		132.812500
4630		130.859375
4631		134.765625
4632		132.812500
4633		134.765625
4634		132.812500
4635		136.718750
4636		132.812500
4637		136.718750
4638		134.765625
4639		136.718750
4640		134.765625
4641		136.718750
4642		134.765625
4643		138.671875
4644		134.765625
4645		138.671875
4646		136.718750
4647		138.671875
4648		136.718750
4649		138.671875
4650		136.718750
4651		138.671875
4652		136.718750
4653		138.671875
4654		136.718750
4655		138.671875
4656		136.718750
4657		138.671875
4658		136.718750
4659		138.671875
4660		134.765625
4661		138.671875
4662		134.765625
4663		138.671875
4664		134.765625
4665		136.718750
4666		132.812500
4667		136.718750
4668		132.812500
4669		136.718750
4670		132.812500
4671		134.765625
4672		132.812500
4673		134.765625
4674		130.859375
4675		134.765625
4676		130.859375
4677		132.812500
4678		128.906250
4679		132.812500
4680		128.906250
4681		130.859375
4682		126.953125
4683		130.859375
4684		125.000000
4685		128.906250
4686		125.000000
4687		126.953125
4688		123.046875
4689		126.953125
4690		121.093750
4691		125.000000
4692		119.140625
4693		123.046875
4694		119.140625
4695		123.046875
4696		117.187500
4697		121.093750
4698		115.234375
4699		119.140625
4700		113.281250
4701		117.187500
4702		111.328125
4703		115.234375
4704		109.375000
4705		113.281250
4706		107.421875
4707		111.328125
4708		105.468750
4709		109.375000
4710		103.515625
4711		107.421875
4712		101.562500
4713		105.468750
4714		97.656250
4715		101.562500
4716		95.703125
4717		99.609375
4718		93.750000
4719		97.656250
4720		91.796875
4721		95.703125
4722		87.890625
4723		91.796875
4724		85.937500
4725		89.843750
4726		82.031250
4727		87.890625
4728		80.078125
4729		85.937500
4730		76.171875
4731		82.031250
4732		74.218750
4733		78.125000
4734		70.312500
4735		76.171875
4736		68.359375
4737		72.265625
4738		64.453125
4739		70.312500
4740		62.500000
4741		66.406250
4742		58.593750
4743		62.500000
4744		54.687500
4745		60.546875
4746		52.734375
4747		56.640625
4748		48.828125
4749		52.734375
4750		44.921875
4751		50.781250
4752		41.015625
4753		46.875000
4754		39.062500
4755		42.968750
4756		35.156250
4757		39.062500
4758		31.250000
4759		35.156250
4760		25.390625
4761		33.203125
4762		23.437500
4763		29.296875
4764		19.531250
4765		25.390625
4766		15.625000
4767		21.484375
4768		13.671875
4769		19.531250
4770		9.765625
4771		13.671875
4772		5.859375
4773		9.765625
4774		1.953125
4775		7.812500
4776		-3.906250
4777		3.906250
4778		-5.859375
4779		0.000000
4780		-9.765625
4781		-3.906250
4782		-13.671875
4783		-7.812500
4784		-17.578125
4785		-11.718750
4786		-21.484375
4787		-13.671875
4788		-23.437500
4789		-19.531250
4790		-27.343750
4791		-21.484375
4792		-31.250000
4793		-27.343750
4794		-35.156250
4795		-29.296875
4796		-39.062500
4797		-33.203125
4798		-42.968750
4799		-37.109375
4800		-46.875000
4801		-41.015625
4802		-48.828125
4803		-44.921875
4804		-52.734375
4805		-48.828125
4806		-56.640625
4807		-50.781250
4808		-60.546875
4809		-54.687500
4810		-64.453125
4811		-58.593750
4812		-66.406250
4813		-60.546875
4814		-70.312500
4815		-64.453125
4816		-74.218750
4817		-68.359375
4818		-76.171875
4819		-70.312500
4820		-80.078125
4821		-74.218750
4822		-82.031250
4823		-78.125000
4824		-85.937500
4825		-80.078125
4826		-87.890625
4827		-83.984375
4828		-91.796875
4829		-85.937500
4830		-93.750000
4831		-89.843750
4832		-97.656250
4833		-91.796875
4834		-99.609375
4835		-95.703125
4836		-101.562500
4837		-97.656250
4838		-103.515625
4839		-99.609375
4840		-107.421875
4841		-103.515625
4842		-109.375000
4843		-105.468750
4844		-111.328125
4845		-107.421875
4846		-113.281250
4847		-109.375000
4848		-115.234375
4849		-111.328125
4850		-117.187500
4851		-113.281250
4852		-119.140625
4853		-115.234375
4854		-121.093750
4855		-117.187500
4856		-123.046875
4857		-119.140625
4858		-125.000000
4859		-121.093750
4860		-126.953125
4861		-123.046875
4862		-126.953125
4863		-123.046875
4864		-128.906250
4865		-125.000000
4866		-128.906250
4867		-126.953125
4868		-130.859375
4869		-128.906250
4870		-130.859375
4871		-128.906250
4872		-132.812500
4873		-128.906250
4874		-132.812500
4875		-130.859375
4876		-134.765625
4877		-130.859375
4878		-134.765625
4879		-130.859375
4880		-134.765625
4881		-132.812500
4882		-134.765625
4883		-132.812500
4884		-134.765625
4885		-132.812500
4886		-134.765625
4887		-132.812500
4888		-134.765625
4889		-132.812500
4890		-134.765625
4891		-132.812500
4892		-134.765625
4893		-132.812500
4894		-134.765625
4895		-132.812500
4896		-134.765625
4897		-130.859375
4898		-132.812500
4899		-130.859375
4900		-132.812500
4901		-130.859375
4902		-132.812500
4903		-128.906250
4904		-130.859375
4905		-128.906250
4906		-130.859375
4907		-126.953125
4908		-128.906250
4909		-126.953125
4910		-126.953125
4911		-125.000000
4912		-126.953125
4913		-123.046875
4914		-125.000000
4915		-121.093750
4916		-125.000000
4917		-121.093750
4918		-121.093750
4919		-119.140625
4920		-119.140625
4921		-117.187500
4922		-119.140625
4923		-115.234375
4924		-115.234375
4925		-113.281250
4926		-113.281250
4927		-111.328125
4928		-111.328125
4929		-109.375000
4930		-109.375000
4931		-105.468750
4932		-107.421875
4933		-103.515625
4934		-105.468750
4935		-101.562500
4936		-103.515625
4937		-97.656250
4938		-101.562500
4939		-95.703125
4940		-97.656250
4941		-91.796875
4942		-95.703125
4943		-89.843750
4944		-91.796875
4945		-87.890625
4946		-89.843750
4947		-83.984375
4948		-85.937500
4949		-82.031250
4950		-82.031250
4951		-78.125000
4952		-80.078125
4953		-76.171875
4954		-76.171875
4955		-72.265625
4956		-72.265625
4957		-68.359375
4958		-70.312500
4959		-64.453125
4960		-68.359375
4961		-62.500000
4962		-64.453125
4963		-58.593750
4964		-60.546875
4965		-54.687500
4966		-56.640625
4967		-50.781250
4968		-52.734375
4969		-48.828125
4970		-48.828125
4971		-44.921875
4972		-44.921875
4973		-41.015625
4974		-42.968750
4975		-37.109375
4976		-39.062500
4977		-33.203125
4978		-35.156250
4979		-29.296875
4980		-31.250000
4981		-25.390625
4982		-27.343750
4983		-21.484375
4984		-23.437500
4985		-19.531250
4986		-19.531250
4987		-15.625000
4988		-15.625000
4989		-11.718750
4990		-11.718750
4991		-7.812500
4992		-9.765625
4993		-3.906250
4994		-5.859375
4995		0.000000
4996		-1.953125
4997		3.906250
4998		0.000000
4999		7.812500
5000		5.859375
5001		11.718750
5002		9.765625
5003		15.625000
5004		13.671875
5005		17.578125
5006		17.578125
5007		21.484375
5008		21.484375
5009		25.390625
5010		23.437500
5011		29.296875
5012		27.343750
5013		35.156250
5014		31.250000
5015		37.109375
5016		35.156250
5017		39.062500
5018		39.062500
5019		42.968750
5020		41.015625
5021		46.875000
5022		44.921875
5023		48.828125
5024		48.828125
5025		52.734375
5026		52.734375
5027		56.640625
5028		54.687500
5029		60.546875
5030		56.640625
5031		64.453125
5032		60.546875
5033		66.406250
5034		64.453125
5035		68.359375
5036		68.359375
5037		72.265625
5038		70.312500
5039		74.218750
5040		72.265625
5041		78.125000
5042		76.171875
5043		80.078125
5044		80.078125
5045		83.984375
5046		80.078125
5047		87.890625
5048		83.984375
5049		89.843750
5050		87.890625
5051		91.796875
5052		89.843750
5053		93.750000
5054		91.796875
5055		95.703125
5056		93.750000
5057		99.609375
5058		97.656250
5059		101.562500
5060		99.609375
5061		103.515625
5062		101.562500
5063		107.421875
5064		101.562500
5065		109.375000
5066		105.468750
5067		109.375000
5068		107.421875
5069		111.328125
5070		109.375000
5071		113.281250
5072		111.328125
5073		115.234375
5074		113.281250
5075		117.187500
5076		115.234375
5077		119.140625
5078		117.187500
5079		121.093750
5080		117.187500
5081		123.046875
5082		119.140625
5083		125.000000
5084		121.093750
5085		125.000000
5086		123.046875
5087		126.953125
5088		125.000000
5089		128.906250
5090		126.953125
5091		128.906250
5092		126.953125
5093		130.859375
5094		128.906250
5095		130.859375
5096		128.906250
5097		134.765625
5098		128.906250
5099		134.765625
5100		130.859375
5101		134.765625
5102		132.812500
5103		134.765625
5104		132.812500
5105		136.718750
5106		134.765625
5107		136.718750
5108		134.765625
5109		136.718750
5110		134.765625
5111		136.718750
5112		134.765625
5113		138.671875
5114		132.812500
5115		138.671875
5116		134.765625
5117		140.625000
5118		136.718750
5119		138.671875
5120		136.718750
5121		138.671875
5122		136.718750
5123		138.671875
5124		136.718750
5125		138.671875
5126		136.718750
5127		138.671875
5128		136.718750
5129		138.671875
5130		132.812500
5131		140.625000
5132		134.765625
5133		140.625000
5134		134.765625
5135		138.671875
5136		134.765625
5137		136.718750
5138		134.765625
5139		136.718750
5140		132.812500
5141		136.718750
5142		132.812500
5143		134.765625
5144		132.812500
5145		134.765625
5146		128.906250
5147		134.765625
5148		128.906250
5149		134.765625
5150		128.906250
5151		132.812500
5152		126.953125
5153		130.859375
5154		126.953125
5155		130.859375
5156		125.000000
5157		128.906250
5158		123.046875
5159		126.953125
5160		123.046875
5161		126.953125
5162		121.093750
5163		125.000000
5164		119.140625
5165		125.000000
5166		117.187500
5167		123.046875
5168		117.187500
5169		119.140625
5170		115.234375
5171		117.187500
5172		113.281250
5173		115.234375
5174		111.328125
5175		113.281250
5176		109.375000
5177		111.328125
5178		107.421875
5179		109.375000
5180		103.515625
5181		109.375000
5182		101.562500
5183		105.468750
5184		99.609375
5185		103.515625
5186		95.703125
5187		101.562500
5188		95.703125
5189		99.609375
5190		91.796875
5191		95.703125
5192		89.843750
5193		93.750000
5194		87.890625
5195		91.796875
5196		83.984375
5197		87.890625
5198		82.031250
5199		85.937500
5200		78.125000
5201		83.984375
5202		76.171875
5203		80.078125
5204		72.265625
5205		78.125000
5206		70.312500
5207		74.218750
5208		66.406250
5209		72.265625
5210		62.500000
5211		68.359375
5212		60.546875
5213		64.453125
5214		56.640625
5215		62.500000
5216		54.687500
5217		58.593750
5218		50.781250
5219		54.687500
5220		46.875000
5221		52.734375
5222		42.968750
5223		48.828125
5224		41.015625
5225		44.921875
5226		37.109375
5227		41.015625
5228		33.203125
5229		39.062500
5230		29.296875
5231		35.156250
5232		25.390625
5233		31.250000
5234		23.437500
5235		27.343750
5236		19.531250
5237		23.437500
5238		15.625000
5239		19.531250
5240		11.718750
5241		15.625000
5242		7.812500
5243		13.671875
5244		3.906250
5245		9.765625
5246		0.000000
5247		5.859375
5248		-3.906250
5249		1.953125
5250		-7.812500
5251		-1.953125
5252		-11.718750
5253		-5.859375
5254		-13.671875
5255		-9.765625
5256		-17.578125
5257		-13.671875
5258		-21.484375
5259		-17.578125
5260		-25.390625
5261		-19.531250
5262		-29.296875
5263		-23.437500
5264		-33.203125
5265		-27.343750
5266		-37.109375
5267		-31.250000
5268		-39.062500
5269		-35.156250
5270		-42.968750
5271		-39.062500
5272		-46.875000
5273		-42.968750
5274		-50.781250
5275		-44.921875
5276		-54.687500
5277		-48.828125
5278		-58.593750
5279		-52.734375
5280		-60.546875
5281		-56.640625
5282		-64.453125
5283		-58.593750
5284		-66.406250
5285		-62.500000
5286		-70.312500
5287		-66.406250
5288		-74.218750
5289		-70.312500
5290		-76.171875
5291		-72.265625
5292		-80.078125
5293		-76.171875
5294		-83.984375
5295		-78.125000
5296		-85.937500
5297		-82.031250
5298		-87.890625
5299		-83.984375
5300		-91.796875
5301		-87.890625
5302		-93.750000
5303		-89.843750
5304		-97.656250
5305		-93.750000
5306		-99.609375
5307		-95.703125
5308		-101.562500
5309		-97.656250
5310		-105.468750
5311		-101.562500
5312		-107.421875
5313		-103.515625
5314		-109.375000
5315		-105.468750
5316		-111.328125
5317		-107.421875
5318		-113.281250
5319		-109.375000
5320		-115.234375
5321		-113.281250
5322		-117.187500
5323		-115.234375
5324		-119.140625
5325		-115.234375
5326		-121.093750
5327		-117.187500
5328		-123.046875
5329		-119.140625
5330		-125.000000
5331		-121.093750
5332		-125.000000
5333		-123.046875
5334		-126.953125
5335		-125.000000
5336		-128.906250
5337		-125.000000
5338		-130.859375
5339		-126.953125
5340		-130.859375
5341		-128.906250
5342		-132.812500
5343		-128.906250
5344		-132.812500
5345		-130.859375
5346		-132.812500
5347		-130.859375
5348		-134.765625
5349		-130.859375
5350		-134.765625
5351		-132.812500
5352		-134.765625
5353		-132.812500
5354		-134.765625
5355		-132.812500
5356		-134.765625
5357		-132.812500
5358		-136.718750
5359		-132.812500
5360		-134.765625
5361		-132.812500
5362		-134.765625
5363		-132.812500
5364		-134.765625
5365		-132.812500
5366		-134.765625
5367		-132.812500
5368		-134.765625
5369		-130.859375
5370		-132.812500
5371		-130.859375
5372		-132.812500
5373		-130.859375
5374		-132.812500
5375		-128.906250
5376		-130.859375
5377		-128.906250
5378		-130.859375
5379		-126.953125
5380		-128.906250
5381		-126.953125
5382		-128.906250
5383		-125.000000
5384		-126.953125
5385		-123.046875
5386		-125.000000
5387		-121.093750
5388		-123.046875
5389		-119.140625
5390		-121.093750
5391		-119.140625
5392		-119.140625
5393		-117.187500
5394		-117.187500
5395		-115.234375
5396		-115.234375
5397		-113.281250
5398		-113.281250
5399		-111.328125
5400		-111.328125
5401		-107.421875
5402		-109.375000
5403		-105.468750
5404		-107.421875
5405		-103.515625
5406		-105.468750
5407		-101.562500
5408		-101.562500
5409		-97.656250
5410		-99.609375
5411		-95.703125
5412		-97.656250
5413		-91.796875
5414		-93.750000
5415		-89.843750
5416		-91.796875
5417		-85.937500
5418		-87.890625
5419		-83.984375
5420		-85.937500
5421		-80.078125
5422		-82.031250
5423		-78.125000
5424		-78.125000
5425		-74.218750
5426		-76.171875
5427		-72.265625
5428		-72.265625
5429		-68.359375
5430		-70.312500
5431		-64.453125
5432		-66.406250
5433		-60.546875
5434		-62.500000
5435		-56.640625
5436		-58.593750
5437		-54.687500
5438		-56.640625
5439		-50.781250
5440		-52.734375
5441		-46.875000
5442		-48.828125
5443		-42.968750
5444		-44.921875
5445		-41.015625
5446		-41.015625
5447		-37.109375
5448		-37.109375
5449		-33.203125
5450		-33.203125
5451		-29.296875
5452		-29.296875
5453		-25.390625
5454		-27.343750
5455		-21.484375
5456		-23.437500
5457		-17.578125
5458		-19.531250
5459		-13.671875
5460		-15.625000
5461		-9.765625
5462		-11.718750
5463		-5.859375
5464		-7.812500
5465		-3.906250
5466		-3.906250
5467		0.000000
5468		0.000000
5469		3.906250
5470		3.906250
5471		7.812500
5472		7.812500
5473		11.718750
5474		11.718750
5475		15.625000
5476		13.671875
5477		19.531250
5478		17.578125
5479		23.437500
5480		21.484375
5481		27.343750
5482		25.390625
5483		29.296875
5484		29.296875
5485		33.203125
5486		31.250000
5487		37.109375
5488		35.156250
5489		41.015625
5490		39.062500
5491		44.921875
5492		42.968750
5493		46.875000
5494		46.875000
5495		50.781250
5496		48.828125
5497		54.687500
5498		52.734375
5499		56.640625
5500		56.640625
5501		60.546875
5502		58.593750
5503		64.453125
5504		62.500000
5505		66.406250
5506		64.453125
5507		70.312500
5508		68.359375
5509		72.265625
5510		70.312500
5511		76.171875
5512		74.218750
5513		78.125000
5514		76.171875
5515		82.031250
5516		80.078125
5517		83.984375
5518		82.031250
5519		85.937500
5520		85.937500
5521		89.843750
5522		87.890625
5523		91.796875
5524		89.843750
5525		93.750000
5526		93.750000
5527		97.656250
5528		95.703125
5529		99.609375
5530		97.656250
5531		101.562500
5532		99.609375
5533		103.515625
5534		101.562500
5535		105.468750
5536		105.468750
5537		109.375000
5538		107.421875
5539		109.375000
5540		109.375000
5541		113.281250
5542		111.328125
5543		113.281250
5544		113.281250
5545		115.234375
5546		115.234375
5547		117.187500
5548		117.187500
5549		119.140625
5550		117.187500
5551		121.093750
5552		119.140625
5553		123.046875
5554		121.093750
5555		125.000000
5556		123.046875
5557		126.953125
5558		123.046875
5559		126.953125
5560		125.000000
5561		128.906250
5562		126.953125
5563		128.906250
5564		126.953125
5565		130.859375
5566		128.906250
5567		130.859375
5568		130.859375
5569		132.812500
5570		130.859375
5571		132.812500
5572		130.859375
5573		134.765625
5574		132.812500
5575		134.765625
5576		132.812500
5577		136.718750
5578		134.765625
5579		136.718750
5580		134.765625
5581		136.718750
5582		134.765625
5583		136.718750
5584		134.765625
5585		138.671875
5586		136.718750
5587		138.671875
5588		136.718750
5589		138.671875
5590		136.718750
5591		138.671875
5592		136.718750
5593		138.671875
5594		136.718750
5595		138.671875
5596		136.718750
5597		138.671875
5598		136.718750
5599		138.671875
5600		136.718750
5601		138.671875
5602		134.765625
5603		138.671875
5604		134.765625
5605		138.671875
5606		134.765625
5607		136.718750
5608		134.765625
5609		136.718750
5610		132.812500
5611		136.718750
5612		132.812500
5613		136.718750
5614		132.812500
5615		134.765625
5616		130.859375
5617		134.765625
5618		130.859375
5619		132.812500
5620		128.906250
5621		132.812500
5622		128.906250
5623		130.859375
5624		126.953125
5625		130.859375
5626		126.953125
5627		128.906250
5628		125.000000
5629		128.906250
5630		123.046875
5631		126.953125
5632		123.046875
5633		125.000000
5634		121.093750
5635		125.000000
5636		119.140625
5637		123.046875
5638		117.187500
5639		121.093750
5640		115.234375
5641		119.140625
5642		113.281250
5643		117.187500
5644		111.328125
5645		115.234375
5646		109.375000
5647		113.281250
5648		107.421875
5649		111.328125
5650		105.468750
5651		109.375000
5652		103.515625
5653		107.421875
5654		101.562500
5655		105.468750
5656		99.609375
5657		103.515625
5658		95.703125
5659		101.562500
5660		93.750000
5661		97.656250
5662		91.796875
5663		95.703125
5664		87.890625
5665		93.750000
5666		85.937500
5667		89.843750
5668		83.984375
5669		87.890625
5670		80.078125
5671		85.937500
5672		78.125000
5673		82.031250
5674		74.218750
5675		80.078125
5676		72.265625
5677		76.171875
5678		68.359375
5679		74.218750
5680		66.406250
5681		70.312500
5682		62.500000
5683		66.406250
5684		58.593750
5685		64.453125
5686		56.640625
5687		60.546875
5688		52.734375
5689		58.593750
5690		48.828125
5691		54.687500
5692		46.875000
5693		50.781250
5694		42.968750
5695		46.875000
5696		39.062500
5697		44.921875
5698		35.156250
5699		41.015625
5700		33.203125
5701		37.109375
5702		29.296875
5703		33.203125
5704		25.390625
5705		29.296875
5706		21.484375
5707		25.390625
5708		17.578125
5709		23.437500
5710		13.671875
5711		19.531250
5712		9.765625
5713		15.625000
5714		5.859375
5715		11.718750
5716		3.906250
5717		7.812500
5718		-1.953125
5719		3.906250
5720		-3.906250
5721		0.000000
5722		-7.812500
5723		-3.906250
5724		-11.718750
5725		-5.859375
5726		-15.625000
5727		-9.765625
5728		-19.531250
5729		-13.671875
5730		-23.437500
5731		-17.578125
5732		-27.343750
5733		-21.484375
5734		-31.250000
5735		-25.390625
5736		-33.203125
5737		-29.296875
5738		-37.109375
5739		-33.203125
5740		-41.015625
5741		-35.156250
5742		-44.921875
5743		-39.062500
5744		-48.828125
5745		-42.968750
5746		-52.734375
5747		-46.875000
5748		-54.687500
5749		-50.781250
5750		-58.593750
5751		-52.734375
5752		-62.500000
5753		-56.640625
5754		-64.453125
5755		-60.546875
5756		-68.359375
5757		-64.453125
5758		-72.265625
5759		-66.406250
5760		-74.218750
5761		-70.312500
5762		-78.125000
5763		-74.218750
5764		-82.031250
5765		-76.171875
5766		-83.984375
5767		-80.078125
5768		-87.890625
5769		-82.031250
5770		-89.843750
5771		-85.937500
5772		-93.750000
5773		-87.890625
5774		-95.703125
5775		-91.796875
5776		-97.656250
5777		-93.750000
5778		-101.562500
5779		-97.656250
5780		-103.515625
5781		-99.609375
5782		-105.468750
5783		-101.562500
5784		-109.375000
5785		-103.515625
5786		-111.328125
5787		-107.421875
5788		-113.281250
5789		-109.375000
5790		-115.234375
5791		-111.328125
5792		-117.187500
5793		-113.281250
5794		-119.140625
5795		-115.234375
5796		-121.093750
5797		-117.187500
5798		-123.046875
5799		-119.140625
5800		-123.046875
5801		-121.093750
5802		-125.000000
5803		-123.046875
5804		-126.953125
5805		-123.046875
5806		-128.906250
5807		-125.000000
5808		-128.906250
5809		-126.953125
5810		-130.859375
5811		-126.953125
5812		-130.859375
5813		-128.906250
5814		-132.812500
5815		-128.906250
5816		-132.812500
5817		-128.906250
5818		-134.765625
5819		-130.859375
5820		-134.765625
5821		-132.812500
5822		-134.765625
5823		-132.812500
5824		-134.765625
5825		-132.812500
5826		-136.718750
5827		-132.812500
5828		-134.765625
5829		-132.812500
5830		-134.765625
5831		-132.812500
5832		-134.765625
5833		-132.812500
5834		-134.765625
5835		-132.812500
5836		-136.718750
5837		-132.812500
5838		-134.765625
5839		-132.812500
5840		-134.765625
5841		-130.859375
5842		-132.812500
5843		-130.859375
5844		-132.812500
5845		-130.859375
5846		-132.812500
5847		-128.906250
5848		-130.859375
5849		-128.906250
5850		-130.859375
5851		-126.953125
5852		-128.906250
5853		-126.953125
5854		-126.953125
5855		-125.000000
5856		-126.953125
5857		-123.046875
5858		-125.000000
5859		-121.093750
5860		-123.046875
5861		-119.140625
5862		-121.093750
5863		-117.187500
5864		-119.140625
5865		-117.187500
5866		-117.187500
5867		-115.234375
5868		-115.234375
5869		-113.281250
5870		-115.234375
5871		-109.375000
5872		-111.328125
5873		-107.421875
5874		-109.375000
5875		-105.468750
5876		-107.421875
5877		-103.515625
5878		-103.515625
5879		-99.609375
5880		-101.562500
5881		-97.656250
5882		-99.609375
5883		-95.703125
5884		-95.703125
5885		-91.796875
5886		-93.750000
5887		-89.843750
5888		-89.843750
5889		-85.937500
5890		-87.890625
5891		-82.031250
5892		-83.984375
5893		-80.078125
5894		-82.031250
5895		-78.125000
5896		-78.125000
5897		-74.218750
5898		-74.218750
5899		-70.312500
5900		-72.265625
5901		-66.406250
5902		-68.359375
5903		-64.453125
5904		-64.453125
5905		-60.546875
5906		-62.500000
5907		-56.640625
5908		-58.593750
5909		-52.734375
5910		-54.687500
5911		-50.781250
5912		-50.781250
5913		-46.875000
5914		-46.875000
5915		-42.968750
5916		-44.921875
5917		-39.062500
5918		-41.015625
5919		-35.156250
5920		-37.109375
5921		-31.250000
5922		-33.203125
5923		-27.343750
5924		-29.296875
5925		-25.390625
5926		-25.390625
5927		-21.484375
5928		-21.484375
5929		-17.578125
5930		-17.578125
5931		-13.671875
5932		-15.625000
5933		-9.765625
5934		-9.765625
5935		-5.859375
5936		-7.812500
5937		-1.953125
5938		-3.906250
5939		1.953125
5940		0.000000
5941		5.859375
5942		3.906250
5943		9.765625
5944		7.812500
5945		13.671875
5946		9.765625
5947		15.625000
5948		15.625000
5949		19.531250
5950		19.531250
5951		23.437500
5952		21.484375
5953		27.343750
5954		25.390625
5955		31.250000
5956		29.296875
5957		35.156250
5958		33.203125
5959		37.109375
5960		37.109375
5961		41.015625
5962		39.062500
5963		44.921875
5964		42.968750
5965		48.828125
5966		46.875000
5967		52.734375
5968		50.781250
5969		54.687500
5970		52.734375
5971		58.593750
5972		56.640625
5973		60.546875
5974		60.546875
5975		64.453125
5976		62.500000
5977		68.359375
5978		66.406250
5979		70.312500
5980		68.359375
5981		74.218750
5982		72.265625
5983		76.171875
5984		74.218750
5985		80.078125
5986		78.125000
5987		82.031250
5988		80.078125
5989		85.937500
5990		83.984375
5991		87.890625
5992		85.937500
5993		89.843750
5994		87.890625
5995		91.796875
5996		91.796875
5997		95.703125
5998		93.750000
5999		97.656250
6000		95.703125
6001		99.609375
6002		97.656250
6003		101.562500
6004		101.562500
6005		105.468750
6006		103.515625
6007		107.421875
6008		105.468750
6009		109.375000
6010		107.421875
6011		111.328125
6012		109.375000
6013		113.281250
6014		111.328125
6015		115.234375
6016		113.281250
6017		117.187500
6018		115.234375
6019		117.187500
6020		117.187500
6021		121.093750
6022		117.187500
6023		121.093750
6024		119.140625
6025		123.046875
6026		121.093750
6027		125.000000
6028		123.046875
6029		126.953125
6030		121.093750
6031		128.906250
6032		125.000000
6033		128.906250
6034		126.953125
6035		128.906250
6036		126.953125
6037		130.859375
6038		128.906250
6039		132.812500
6040		130.859375
6041		132.812500
6042		128.906250
6043		134.765625
6044		130.859375
6045		134.765625
6046		130.859375
6047		136.718750
6048		132.812500
6049		136.718750
6050		132.812500
6051		138.671875
6052		134.765625
6053		136.718750
6054		134.765625
6055		138.671875
6056		134.765625
6057		138.671875
6058		134.765625
6059		140.625000
6060		136.718750
6061		138.671875
6062		134.765625
6063		140.625000
6064		136.718750
6065		138.671875
6066		134.765625
6067		140.625000
6068		136.718750
6069		138.671875
6070		136.718750
6071		138.671875
6072		134.765625
6073		140.625000
6074		134.765625
6075		138.671875
6076		134.765625
6077		138.671875
6078		134.765625
6079		138.671875
6080		132.812500
6081		138.671875
6082		132.812500
6083		136.718750
6084		132.812500
6085		138.671875
6086		132.812500
6087		134.765625
6088		128.906250
6089		134.765625
6090		128.906250
6091		134.765625
6092		126.953125
6093		134.765625
6094		128.906250
6095		130.859375
6096		125.000000
6097		130.859375
6098		125.000000
6099		128.906250
6100		123.046875
6101		128.906250
6102		123.046875
6103		126.953125
6104		121.093750
6105		125.000000
6106		119.140625
6107		125.000000
6108		117.187500
6109		125.000000
6110		117.187500
6111		121.093750
6112		115.234375
6113		119.140625
6114		111.328125
6115		119.140625
6116		107.421875
6117		115.234375
6118		109.375000
6119		113.281250
6120		107.421875
6121		111.328125
6122		103.515625
6123		109.375000
6124		101.562500
6125		109.375000
6126		99.609375
6127		105.468750
6128		97.656250
6129		101.562500
6130		93.750000
6131		101.562500
6132		93.750000
6133		99.609375
6134		89.843750
6135		95.703125
6136		87.890625
6137		91.796875
6138		83.984375
6139		89.843750
6140		80.078125
6141		87.890625
6142		78.125000
6143		85.937500
6144		76.171875
6145		82.031250
6146		72.265625
6147		78.125000
6148		70.312500
6149		78.125000
6150		66.406250
6151		74.218750
6152		64.453125
6153		70.312500
6154		62.500000
6155		66.406250
6156		58.593750
6157		64.453125
6158		52.734375
6159		62.500000
6160		50.781250
6161		58.593750
6162		48.828125
6163		52.734375
6164		41.015625
6165		50.781250
6166		41.015625
6167		48.828125
6168		37.109375
6169		46.875000
6170		35.156250
6171		39.062500
6172		29.296875
6173		35.156250
6174		25.390625
6175		33.203125
6176		23.437500
6177		29.296875
6178		19.531250
6179		25.390625
6180		13.671875
6181		21.484375
6182		11.718750
6183		21.484375
6184		7.812500
6185		15.625000
6186		5.859375
6187		9.765625
6188		1.953125
6189		7.812500
6190		-3.906250
6191		3.906250
6192		-7.812500
6193		1.953125
6194		-9.765625
6195		-3.906250
6196		-13.671875
6197		-7.812500
6198		-19.531250
6199		-9.765625
6200		-23.437500
6201		-15.625000
6202		-23.437500
6203		-19.531250
6204		-27.343750
6205		-23.437500
6206		-33.203125
6207		-27.343750
6208		-37.109375
6209		-27.343750
6210		-39.062500
6211		-33.203125
6212		-42.968750
6213		-37.109375
6214		-48.828125
6215		-41.015625
6216		-48.828125
6217		-41.015625
6218		-52.734375
6219		-44.921875
6220		-56.640625
6221		-50.781250
6222		-60.546875
6223		-54.687500
6224		-64.453125
6225		-56.640625
6226		-68.359375
6227		-58.593750
6228		-70.312500
6229		-64.453125
6230		-74.218750
6231		-68.359375
6232		-78.125000
6233		-68.359375
6234		-82.031250
6235		-74.218750
6236		-82.031250
6237		-78.125000
6238		-85.937500
6239		-80.078125
6240		-89.843750
6241		-83.984375
6242		-91.796875
6243		-83.984375
6244		-93.750000
6245		-87.890625
6246		-95.703125
6247		-91.796875
6248		-101.562500
6249		-93.750000
6250		-101.562500
6251		-93.750000
6252		-105.468750
6253		-97.656250
6254		-107.421875
6255		-101.562500
6256		-109.375000
6257		-105.468750
6258		-113.281250
6259		-105.468750
6260		-115.234375
6261		-107.421875
6262		-115.234375
6263		-111.328125
6264		-121.093750
6265		-111.328125
6266		-121.093750
6267		-113.281250
6268		-123.046875
6269		-115.234375
6270		-123.046875
6271		-119.140625
6272		-125.000000
6273		-121.093750
6274		-126.953125
6275		-121.093750
6276		-128.906250
6277		-121.093750
6278		-128.906250
6279		-125.000000
6280		-130.859375
6281		-126.953125
6282		-132.812500
6283		-125.000000
6284		-134.765625
6285		-126.953125
6286		-132.812500
6287		-128.906250
6288		-132.812500
6289		-130.859375
6290		-134.765625
6291		-130.859375
6292		-136.718750
6293		-128.906250
6294		-136.718750
6295		-130.859375
6296		-134.765625
6297		-132.812500
6298		-136.718750
6299		-130.859375
6300		-134.765625
6301		-132.812500
6302		-136.718750
6303		-130.859375
6304		-134.765625
6305		-132.812500
6306		-134.765625
6307		-132.812500
6308		-134.765625
6309		-132.812500
6310		-136.718750
6311		-128.906250
6312		-134.765625
6313		-130.859375
6314		-132.812500
6315		-128.906250
6316		-134.765625
6317		-128.906250
6318		-130.859375
6319		-128.906250
6320		-130.859375
6321		-126.953125
6322		-128.906250
6323		-126.953125
6324		-128.906250
6325		-125.000000
6326		-126.953125
6327		-123.046875
6328		-126.953125
6329		-121.093750
6330		-123.046875
6331		-121.093750
6332		-123.046875
6333		-117.187500
6334		-121.093750
6335		-117.187500
6336		-119.140625
6337		-115.234375
6338		-117.187500
6339		-113.281250
6340		-115.234375
6341		-111.328125
6342		-111.328125
6343		-109.375000
6344		-109.375000
6345		-105.468750
6346		-107.421875
6347		-103.515625
6348		-105.468750
6349		-101.562500
6350		-103.515625
6351		-99.609375
6352		-99.609375
6353		-95.703125
6354		-97.656250
6355		-93.750000
6356		-93.750000
6357		-89.843750
6358		-93.750000
6359		-87.890625
6360		-89.843750
6361		-83.984375
6362		-85.937500
6363		-82.031250
6364		-83.984375
6365		-78.125000
6366		-80.078125
6367		-76.171875
6368		-76.171875
6369		-72.265625
6370		-74.218750
6371		-68.359375
6372		-70.312500
6373		-64.453125
6374		-66.406250
6375		-60.546875
6376		-64.453125
6377		-56.640625
6378		-60.546875
6379		-54.687500
6380		-56.640625
6381		-50.781250
6382		-54.687500
6383		-46.875000
6384		-50.781250
6385		-42.968750
6386		-46.875000
6387		-41.015625
6388		-42.968750
6389		-37.109375
6390		-39.062500
6391		-31.250000
6392		-35.156250
6393		-29.296875
6394		-31.250000
6395		-23.437500
6396		-29.296875
6397		-19.531250
6398		-25.390625
6399		-17.578125
6400		-21.484375
6401		-13.671875
6402		-17.578125
6403		-9.765625
6404		-11.718750
6405		-7.812500
6406		-7.812500
6407		-3.906250
6408		-5.859375
6409		1.953125
6410		-1.953125
6411		3.906250
6412		1.953125
6413		7.812500
6414		3.906250
6415		11.718750
6416		7.812500
6417		15.625000
6418		11.718750
6419		19.531250
6420		17.578125
6421		21.484375
6422		21.484375
6423		25.390625
6424		23.437500
6425		31.250000
6426		27.343750
6427		33.203125
6428		29.296875
6429		37.109375
6430		35.156250
6431		41.015625
6432		39.062500
6433		44.921875
6434		41.015625
6435		46.875000
6436		42.968750
6437		50.781250
6438		48.828125
6439		52.734375
6440		50.781250
6441		56.640625
6442		54.687500
6443		60.546875
6444		58.593750
6445		64.453125
6446		62.500000
6447		66.406250
6448		62.500000
6449		70.312500
6450		68.359375
6451		72.265625
6452		70.312500
6453		76.171875
6454		72.265625
6455		78.125000
6456		76.171875
6457		82.031250
6458		80.078125
6459		83.984375
6460		82.031250
6461		87.890625
6462		83.984375
6463		89.843750
6464		85.937500
6465		91.796875
6466		89.843750
6467		93.750000
6468		91.796875
6469		95.703125
6470		95.703125
6471		99.609375
6472		97.656250
6473		101.562500
6474		99.609375
6475		103.515625
6476		101.562500
6477		107.421875
6478		103.515625
6479		109.375000
6480		105.468750
6481		111.328125
6482		107.421875
6483		113.281250
6484		109.375000
6485		115.234375
6486		111.328125
6487		117.187500
6488		115.234375
6489		117.187500
6490		115.234375
6491		119.140625
6492		117.187500
6493		121.093750
6494		119.140625
6495		123.046875
6496		121.093750
6497		125.000000
6498		121.093750
6499		126.953125
6500		123.046875
6501		126.953125
6502		125.000000
6503		128.906250
6504		126.953125
6505		130.859375
6506		126.953125
6507		130.859375
6508		128.906250
6509		132.812500
6510		128.906250
6511		132.812500
6512		130.859375
6513		134.765625
6514		128.906250
6515		136.718750
6516		130.859375
6517		136.718750
6518		132.812500
6519		136.718750
6520		132.812500
6521		136.718750
6522		134.765625
6523		136.718750
6524		134.765625
6525		138.671875
6526		134.765625
6527		138.671875
6528		134.765625
6529		138.671875
6530		134.765625
6531		138.671875
6532		134.765625
6533		140.625000
6534		136.718750
6535		138.671875
6536		134.765625
6537		138.671875
6538		136.718750
6539		140.625000
6540		136.718750
6541		138.671875
6542		134.765625
6543		138.671875
6544		134.765625
6545		138.671875
6546		134.765625
6547		138.671875
6548		132.812500
6549		138.671875
6550		134.765625
6551		136.718750
6552		132.812500
6553		136.718750
6554		132.812500
6555		136.718750
6556		132.812500
6557		134.765625
6558		130.859375
6559		134.765625
6560		130.859375
6561		134.765625
6562		128.906250
6563		132.812500
6564		128.906250
6565		132.812500
6566		126.953125
6567		130.859375
6568		126.953125
6569		130.859375
6570		125.000000
6571		128.906250
6572		125.000000
6573		126.953125
6574		123.046875
6575		126.953125
6576		121.093750
6577		125.000000
6578		119.140625
6579		123.046875
6580		117.187500
6581		121.093750
6582		115.234375
6583		121.093750
6584		115.234375
6585		119.140625
6586		113.281250
6587		117.187500
6588		111.328125
6589		115.234375
6590		109.375000
6591		113.281250
6592		105.468750
6593		111.328125
6594		105.468750
6595		109.375000
6596		101.562500
6597		107.421875
6598		99.609375
6599		103.515625
6600		97.656250
6601		101.562500
6602		95.703125
6603		99.609375
6604		91.796875
6605		97.656250
6606		89.843750
6607		93.750000
6608		87.890625
6609		91.796875
6610		83.984375
6611		89.843750
6612		82.031250
6613		85.937500
6614		78.125000
6615		83.984375
6616		76.171875
6617		82.031250
6618		72.265625
6619		78.125000
6620		70.312500
6621		76.171875
6622		66.406250
6623		72.265625
6624		64.453125
6625		68.359375
6626		60.546875
6627		64.453125
6628		56.640625
6629		62.500000
6630		54.687500
6631		60.546875
6632		50.781250
6633		56.640625
6634		46.875000
6635		52.734375
6636		42.968750
6637		48.828125
6638		41.015625
6639		44.921875
6640		37.109375
6641		42.968750
6642		33.203125
6643		39.062500
6644		29.296875
6645		35.156250
6646		25.390625
6647		31.250000
6648		23.437500
6649		27.343750
6650		19.531250
6651		23.437500
6652		15.625000
6653		21.484375
6654		9.765625
6655		17.578125
6656		7.812500
6657		13.671875
6658		3.906250
6659		9.765625
6660		0.000000
6661		5.859375
6662		-1.953125
6663		1.953125
6664		-5.859375
6665		-1.953125
6666		-9.765625
6667		-5.859375
6668		-13.671875
6669		-9.765625
6670		-17.578125
6671		-11.718750
6672		-21.484375
6673		-15.625000
6674		-25.390625
6675		-19.531250
6676		-29.296875
6677		-23.437500
6678		-33.203125
6679		-27.343750
6680		-35.156250
6681		-31.250000
6682		-39.062500
6683		-33.203125
6684		-42.968750
6685		-39.062500
6686		-46.875000
6687		-41.015625
6688		-50.781250
6689		-44.921875
6690		-54.687500
6691		-48.828125
6692		-56.640625
6693		-52.734375
6694		-60.546875
6695		-54.687500
6696		-64.453125
6697		-58.593750
6698		-66.406250
6699		-60.546875
6700		-70.312500
6701		-66.406250
6702		-74.218750
6703		-68.359375
6704		-76.171875
6705		-72.265625
6706		-80.078125
6707		-74.218750
6708		-82.031250
6709		-78.125000
6710		-85.937500
6711		-82.031250
6712		-87.890625
6713		-83.984375
6714		-91.796875
6715		-85.937500
6716		-93.750000
6717		-89.843750
6718		-97.656250
6719		-91.796875
6720		-99.609375
6721		-95.703125
6722		-101.562500
6723		-97.656250
6724		-105.468750
6725		-101.562500
6726		-107.421875
6727		-103.515625
6728		-109.375000
6729		-103.515625
6730		-111.328125
6731		-107.421875
6732		-113.281250
6733		-109.375000
6734		-115.234375
6735		-111.328125
6736		-117.187500
6737		-113.281250
6738		-119.140625
6739		-115.234375
6740		-121.093750
6741		-117.187500
6742		-123.046875
6743		-119.140625
6744		-125.000000
6745		-121.093750
6746		-125.000000
6747		-121.093750
6748		-126.953125
6749		-123.046875
6750		-128.906250
6751		-125.000000
6752		-128.906250
6753		-125.000000
6754		-130.859375
6755		-126.953125
6756		-130.859375
6757		-126.953125
6758		-132.812500
6759		-128.906250
6760		-134.765625
6761		-130.859375
6762		-134.765625
6763		-130.859375
6764		-134.765625
6765		-130.859375
6766		-134.765625
6767		-130.859375
6768		-134.765625
6769		-132.812500
6770		-134.765625
6771		-132.812500
6772		-134.765625
6773		-132.812500
6774		-134.765625
6775		-132.812500
6776		-134.765625
6777		-132.812500
6778		-134.765625
6779		-130.859375
6780		-134.765625
6781		-130.859375
6782		-134.765625
6783		-130.859375
6784		-132.812500
6785		-130.859375
6786		-132.812500
6787		-128.906250
6788		-132.812500
6789		-128.906250
6790		-130.859375
6791		-126.953125
6792		-128.906250
6793		-126.953125
6794		-128.906250
6795		-125.000000
6796		-126.953125
6797		-125.000000
6798		-126.953125
6799		-123.046875
6800		-125.000000
6801		-121.093750
6802		-123.046875
6803		-119.140625
6804		-121.093750
6805		-117.187500
6806		-121.093750
6807		-115.234375
6808		-117.187500
6809		-113.281250
6810		-115.234375
6811		-111.328125
6812		-113.281250
6813		-109.375000
6814		-111.328125
6815		-107.421875
6816		-109.375000
6817		-105.468750
6818		-107.421875
6819		-101.562500
6820		-103.515625
6821		-99.609375
6822		-101.562500
6823		-97.656250
6824		-101.562500
6825		-93.750000
6826		-95.703125
6827		-91.796875
6828		-93.750000
6829		-89.843750
6830		-91.796875
6831		-85.937500
6832		-87.890625
6833		-83.984375
6834		-85.937500
6835		-80.078125
6836		-82.031250
6837		-76.171875
6838		-78.125000
6839		-74.218750
6840		-76.171875
6841		-70.312500
6842		-72.265625
6843		-68.359375
6844		-68.359375
6845		-62.500000
6846		-66.406250
6847		-60.546875
6848		-62.500000
6849		-56.640625
6850		-58.593750
6851		-54.687500
6852		-54.687500
6853		-50.781250
6854		-52.734375
6855		-46.875000
6856		-48.828125
6857		-42.968750
6858		-44.921875
6859		-39.062500
6860		-41.015625
6861		-35.156250
6862		-37.109375
6863		-31.250000
6864		-33.203125
6865		-29.296875
6866		-29.296875
6867		-25.390625
6868		-27.343750
6869		-21.484375
6870		-23.437500
6871		-17.578125
6872		-19.531250
6873		-13.671875
6874		-15.625000
6875		-9.765625
6876		-11.718750
6877		-5.859375
6878		-7.812500
6879		-1.953125
6880		-3.906250
6881		1.953125
6882		0.000000
6883		5.859375
6884		3.906250
6885		9.765625
6886		5.859375
6887		11.718750
6888		11.718750
6889		15.625000
6890		13.671875
6891		19.531250
6892		17.578125
6893		23.437500
6894		21.484375
6895		27.343750
6896		25.390625
6897		29.296875
6898		29.296875
6899		35.156250
6900		33.203125
6901		37.109375
6902		35.156250
6903		41.015625
6904		39.062500
6905		44.921875
6906		42.968750
6907		48.828125
6908		46.875000
6909		50.781250
6910		48.828125
6911		54.687500
6912		52.734375
6913		58.593750
6914		56.640625
6915		60.546875
6916		58.593750
6917		64.453125
6918		62.500000
6919		66.406250
6920		66.406250
6921		70.312500
6922		68.359375
6923		72.265625
6924		70.312500
6925		76.171875
6926		74.218750
6927		78.125000
6928		78.125000
6929		82.031250
6930		80.078125
6931		85.937500
6932		82.031250
6933		87.890625
6934		85.937500
6935		89.843750
6936		87.890625
6937		91.796875
6938		89.843750
6939		95.703125
6940		93.750000
6941		97.656250
6942		95.703125
6943		99.609375
6944		97.656250
6945		101.562500
6946		99.609375
6947		105.468750
6948		103.515625
6949		107.421875
6950		103.515625
6951		109.375000
6952		107.421875
6953		111.328125
6954		109.375000
6955		113.281250
6956		111.328125
6957		115.234375
6958		111.328125
6959		117.187500
6960		115.234375
6961		117.187500
6962		117.187500
6963		121.093750
6964		117.187500
6965		121.093750
6966		119.140625
6967		123.046875
6968		121.093750
6969		125.000000
6970		123.046875
6971		126.953125
6972		123.046875
6973		126.953125
6974		125.000000
6975		128.906250
6976		126.953125
6977		128.906250
6978		128.906250
6979		130.859375
6980		128.906250
6981		132.812500
6982		128.906250
6983		132.812500
6984		130.859375
6985		132.812500
6986		130.859375
6987		134.765625
6988		132.812500
6989		134.765625
6990		132.812500
6991		136.718750
6992		132.812500
6993		136.718750
6994		134.765625
6995		136.718750
6996		134.765625
6997		138.671875
6998		134.765625
6999		138.671875
7000		134.765625
7001		138.671875
7002		136.718750
7003		138.671875
7004		136.718750
7005		138.671875
7006		136.718750
7007		138.671875
7008		134.765625
7009		138.671875
7010		136.718750
7011		138.671875
7012		136.718750
7013		138.671875
7014		134.765625
7015		138.671875
7016		134.765625
7017		138.671875
7018		134.765625
7019		138.671875
7020		134.765625
7021		138.671875
7022		134.765625
7023		136.718750
7024		132.812500
7025		136.718750
7026		132.812500
7027		136.718750
7028		132.812500
7029		134.765625
7030		130.859375
7031		134.765625
7032		130.859375
7033		132.812500
7034		128.906250
7035		132.812500
7036		128.906250
7037		132.812500
7038		126.953125
7039		130.859375
7040		126.953125
7041		128.906250
7042		125.000000
7043		128.906250
7044		123.046875
7045		126.953125
7046		121.093750
7047		125.000000
7048		121.093750
7049		125.000000
7050		119.140625
7051		123.046875
7052		117.187500
7053		121.093750
7054		115.234375
7055		119.140625
7056		113.281250
7057		117.187500
7058		111.328125
7059		115.234375
7060		109.375000
7061		113.281250
7062		107.421875
7063		111.328125
7064		105.468750
7065		111.328125
7066		103.515625
7067		107.421875
7068		101.562500
7069		105.468750
7070		99.609375
7071		103.515625
7072		95.703125
7073		101.562500
7074		93.750000
7075		97.656250
7076		91.796875
7077		95.703125
7078		87.890625
7079		93.750000
7080		85.937500
7081		89.843750
7082		83.984375
7083		87.890625
7084		80.078125
7085		85.937500
7086		78.125000
7087		82.031250
7088		74.218750
7089		80.078125
7090		72.265625
7091		76.171875
7092		68.359375
7093		74.218750
7094		66.406250
7095		70.312500
7096		62.500000
7097		66.406250
7098		58.593750
7099		64.453125
7100		56.640625
7101		60.546875
7102		52.734375
7103		58.593750
7104		48.828125
7105		54.687500
7106		44.921875
7107		50.781250
7108		41.015625
7109		46.875000
7110		39.062500
7111		44.921875
7112		35.156250
7113		41.015625
7114		33.203125
7115		37.109375
7116		29.296875
7117		35.156250
7118		23.437500
7119		29.296875
7120		21.484375
7121		27.343750
7122		17.578125
7123		23.437500
7124		13.671875
7125		19.531250
7126		9.765625
7127		15.625000
7128		5.859375
7129		11.718750
7130		1.953125
7131		7.812500
7132		0.000000
7133		5.859375
7134		-3.906250
7135		0.000000
7136		-7.812500
7137		-3.906250
7138		-13.671875
7139		-5.859375
7140		-15.625000
7141		-9.765625
7142		-19.531250
7143		-13.671875
7144		-23.437500
7145		-17.578125
7146		-27.343750
7147		-21.484375
7148		-31.250000
7149		-25.390625
7150		-35.156250
7151		-29.296875
7152		-37.109375
7153		-33.203125
7154		-41.015625
7155		-35.156250
7156		-44.921875
7157		-39.062500
7158		-48.828125
7159		-42.968750
7160		-52.734375
7161		-46.875000
7162		-54.687500
7163		-50.781250
7164		-58.593750
7165		-52.734375
7166		-62.500000
7167		-56.640625
7168		-66.406250
7169		-60.546875
7170		-68.359375
7171		-64.453125
7172		-72.265625
7173		-66.406250
7174		-76.171875
7175		-70.312500
7176		-78.125000
7177		-74.218750
7178		-82.031250
7179		-76.171875
7180		-85.937500
7181		-80.078125
7182		-87.890625
7183		-82.031250
7184		-89.843750
7185		-83.984375
7186		-93.750000
7187		-87.890625
7188		-95.703125
7189		-91.796875
7190		-99.609375
7191		-93.750000
7192		-101.562500
7193		-97.656250
7194		-103.515625
7195		-99.609375
7196		-105.468750
7197		-101.562500
7198		-109.375000
7199		-103.515625
7200		-111.328125
7201		-107.421875
7202		-113.281250
7203		-109.375000
7204		-115.234375
7205		-111.328125
7206		-117.187500
7207		-113.281250
7208		-119.140625
7209		-115.234375
7210		-121.093750
7211		-117.187500
7212		-123.046875
7213		-119.140625
7214		-125.000000
7215		-121.093750
7216		-125.000000
7217		-123.046875
7218		-126.953125
7219		-123.046875
7220		-128.906250
7221		-125.000000
7222		-130.859375
7223		-126.953125
7224		-130.859375
7225		-126.953125
7226		-132.812500
7227		-128.906250
7228		-132.812500
7229		-130.859375
7230		-132.812500
7231		-130.859375
7232		-134.765625
7233		-130.859375
7234		-134.765625
7235		-130.859375
7236		-136.718750
7237		-132.812500
7238		-136.718750
7239		-132.812500
7240		-136.718750
7241		-132.812500
7242		-136.718750
7243		-132.812500
7244		-138.671875
7245		-132.812500
7246		-136.718750
7247		-132.812500
7248		-136.718750
7249		-132.812500
7250		-136.718750
7251		-132.812500
7252		-134.765625
7253		-132.812500
7254		-134.765625
7255		-130.859375
7256		-134.765625
7257		-130.859375
7258		-134.765625
7259		-130.859375
7260		-132.812500
7261		-128.906250
7262		-130.859375
7263		-128.906250
7264		-130.859375
7265		-126.953125
7266		-130.859375
7267		-125.000000
7268		-128.906250
7269		-125.000000
7270		-126.953125
7271		-123.046875
7272		-125.000000
7273		-123.046875
7274		-125.000000
7275		-119.140625
7276		-121.093750
7277		-117.187500
7278		-119.140625
7279		-117.187500
7280		-119.140625
7281		-115.234375
7282		-117.187500
7283		-113.281250
7284		-115.234375
7285		-109.375000
7286		-111.328125
7287		-107.421875
7288		-109.375000
7289		-105.468750
7290		-107.421875
7291		-103.515625
7292		-105.468750
7293		-99.609375
7294		-103.515625
7295		-97.656250
7296		-99.609375
7297		-95.703125
7298		-97.656250
7299		-91.796875
7300		-93.750000
7301		-89.843750
7302		-91.796875
7303		-85.937500
7304		-89.843750
7305		-83.984375
7306		-85.937500
7307		-80.078125
7308		-82.031250
7309		-78.125000
7310		-80.078125
7311		-74.218750
7312		-76.171875
7313		-72.265625
7314		-72.265625
7315		-68.359375
7316		-70.312500
7317		-64.453125
7318		-66.406250
7319		-60.546875
7320		-62.500000
7321		-58.593750
7322		-58.593750
7323		-54.687500
7324		-56.640625
7325		-50.781250
7326		-52.734375
7327		-46.875000
7328		-48.828125
7329		-42.968750
7330		-44.921875
7331		-39.062500
7332		-41.015625
7333		-35.156250
7334		-37.109375
7335		-33.203125
7336		-35.156250
7337		-29.296875
7338		-29.296875
7339		-25.390625
7340		-27.343750
7341		-21.484375
7342		-23.437500
7343		-17.578125
7344		-19.531250
7345		-13.671875
7346		-15.625000
7347		-9.765625
7348		-11.718750
7349		-5.859375
7350		-9.765625
7351		-1.953125
7352		-3.906250
7353		1.953125
7354		0.000000
7355		3.906250
7356		3.906250
7357		7.812500
7358		5.859375
7359		13.671875
7360		9.765625
7361		15.625000
7362		11.718750
7363		19.531250
7364		17.578125
7365		23.437500
7366		21.484375
7367		27.343750
7368		23.437500
7369		31.250000
7370		27.343750
7371		35.156250
7372		31.250000
7373		37.109375
7374		35.156250
7375		41.015625
7376		39.062500
7377		44.921875
7378		42.968750
7379		46.875000
7380		46.875000
7381		50.781250
7382		48.828125
7383		54.687500
7384		50.781250
7385		58.593750
7386		54.687500
7387		62.500000
7388		58.593750
7389		64.453125
7390		62.500000
7391		66.406250
7392		64.453125
7393		70.312500
7394		68.359375
7395		74.218750
7396		70.312500
7397		76.171875
7398		74.218750
7399		78.125000
7400		76.171875
7401		83.984375
7402		78.125000
7403		85.937500
7404		82.031250
7405		89.843750
7406		83.984375
7407		91.796875
7408		85.937500
7409		91.796875
7410		89.843750
7411		95.703125
7412		91.796875
7413		97.656250
7414		95.703125
7415		99.609375
7416		97.656250
7417		103.515625
7418		97.656250
7419		105.468750
7420		101.562500
7421		107.421875
7422		103.515625
7423		109.375000
7424		105.468750
7425		111.328125
7426		109.375000
7427		113.281250
7428		109.375000
7429		115.234375
7430		113.281250
7431		115.234375
7432		115.234375
7433		117.187500
7434		113.281250
7435		121.093750
7436		117.187500
7437		123.046875
7438		117.187500
7439		125.000000
7440		119.140625
7441		125.000000
7442		121.093750
7443		126.953125
7444		123.046875
7445		128.906250
7446		123.046875
7447		128.906250
7448		126.953125
7449		128.906250
7450		126.953125
7451		132.812500
7452		126.953125
7453		134.765625
7454		128.906250
7455		134.765625
7456		128.906250
7457		136.718750
7458		130.859375
7459		136.718750
7460		130.859375
7461		136.718750
7462		132.812500
7463		136.718750
7464		134.765625
7465		136.718750
7466		132.812500
7467		138.671875
7468		132.812500
7469		140.625000
7470		132.812500
7471		140.625000
7472		134.765625
7473		140.625000
7474		134.765625
7475		140.625000
7476		134.765625
7477		140.625000
7478		134.765625
7479		140.625000
7480		136.718750
7481		138.671875
7482		136.718750
7483		138.671875
7484		134.765625
7485		140.625000
7486		134.765625
7487		140.625000
7488		132.812500
7489		140.625000
7490		132.812500
7491		140.625000
7492		132.812500
7493		140.625000
7494		132.812500
7495		138.671875
7496		132.812500
7497		136.718750
7498		132.812500
7499		136.718750
7500		130.859375
7501		136.718750
7502		128.906250
7503		136.718750
7504		128.906250
7505		136.718750
7506		126.953125
7507		134.765625
7508		126.953125
7509		132.812500
7510		125.000000
7511		132.812500
7512		125.000000
7513		132.812500
7514		125.000000
7515		128.906250
7516		123.046875
7517		126.953125
7518		119.140625
7519		126.953125
7520		119.140625
7521		125.000000
7522		117.187500
7523		125.000000
7524		115.234375
7525		123.046875
7526		115.234375
7527		121.093750
7528		111.328125
7529		119.140625
7530		111.328125
7531		117.187500
7532		109.375000
7533		113.281250
7534		105.468750
7535		113.281250
7536		105.468750
7537		111.328125
7538		101.562500
7539		109.375000
7540		99.609375
7541		105.468750
7542		97.656250
7543		105.468750
7544		95.703125
7545		103.515625
7546		93.750000
7547		99.609375
7548		91.796875
7549		95.703125
7550		87.890625
7551		93.750000
7552		83.984375
7553		91.796875
7554		80.078125
7555		89.843750
7556		78.125000
7557		85.937500
7558		76.171875
7559		83.984375
7560		74.218750
7561		82.031250
7562		70.312500
7563		78.125000
7564		68.359375
7565		74.218750
7566		64.453125
7567		70.312500
7568		60.546875
7569		68.359375
7570		56.640625
7571		66.406250
7572		54.687500
7573		62.500000
7574		50.781250
7575		60.546875
7576		46.875000
7577		56.640625
7578		42.968750
7579		52.734375
7580		42.968750
7581		48.828125
7582		39.062500
7583		44.921875
7584		35.156250
7585		41.015625
7586		29.296875
7587		39.062500
7588		27.343750
7589		35.156250
7590		23.437500
7591		33.203125
7592		19.531250
7593		27.343750
7594		15.625000
7595		23.437500
7596		13.671875
7597		21.484375
7598		9.765625
7599		15.625000
7600		5.859375
7601		11.718750
7602		0.000000
7603		9.765625
7604		-1.953125
7605		5.859375
7606		-5.859375
7607		1.953125
7608		-9.765625
7609		-1.953125
7610		-13.671875
7611		-5.859375
7612		-17.578125
7613		-7.812500
7614		-19.531250
7615		-13.671875
7616		-23.437500
7617		-17.578125
7618		-27.343750
7619		-21.484375
7620		-31.250000
7621		-21.484375
7622		-35.156250
7623		-27.343750
7624		-41.015625
7625		-31.250000
7626		-42.968750
7627		-35.156250
7628		-46.875000
7629		-37.109375
7630		-48.828125
7631		-41.015625
7632		-50.781250
7633		-46.875000
7634		-54.687500
7635		-50.781250
7636		-60.546875
7637		-50.781250
7638		-62.500000
7639		-54.687500
7640		-68.359375
7641		-58.593750
7642		-70.312500
7643		-62.500000
7644		-74.218750
7645		-64.453125
7646		-76.171875
7647		-68.359375
7648		-78.125000
7649		-72.265625
7650		-82.031250
7651		-76.171875
7652		-85.937500
7653		-78.125000
7654		-89.843750
7655		-80.078125
7656		-89.843750
7657		-83.984375
7658		-93.750000
7659		-85.937500
7660		-97.656250
7661		-89.843750
7662		-99.609375
7663		-91.796875
7664		-99.609375
7665		-93.750000
7666		-103.515625
7667		-97.656250
7668		-107.421875
7669		-101.562500
7670		-109.375000
7671		-101.562500
7672		-111.328125
7673		-103.515625
7674		-115.234375
7675		-107.421875
7676		-115.234375
7677		-109.375000
7678		-117.187500
7679		-111.328125
7680		-119.140625
7681		-111.328125
7682		-119.140625
7683		-115.234375
7684		-121.093750
7685		-117.187500
7686		-125.000000
7687		-117.187500
7688		-126.953125
7689		-119.140625
7690		-128.906250
7691		-121.093750
7692		-128.906250
7693		-123.046875
7694		-130.859375
7695		-123.046875
7696		-130.859375
7697		-125.000000
7698		-130.859375
7699		-126.953125
7700		-130.859375
7701		-128.906250
7702		-134.765625
7703		-128.906250
7704		-134.765625
7705		-128.906250
7706		-134.765625
7707		-128.906250
7708		-136.718750
7709		-128.906250
7710		-136.718750
7711		-130.859375
7712		-136.718750
7713		-130.859375
7714		-136.718750
7715		-130.859375
7716		-134.765625
7717		-132.812500
7718		-134.765625
7719		-132.812500
7720		-136.718750
7721		-128.906250
7722		-136.718750
7723		-128.906250
7724		-134.765625
7725		-128.906250
7726		-134.765625
7727		-128.906250
7728		-134.765625
7729		-126.953125
7730		-132.812500
7731		-126.953125
7732		-130.859375
7733		-126.953125
7734		-128.906250
7735		-126.953125
7736		-130.859375
7737		-123.046875
7738		-128.906250
7739		-123.046875
7740		-128.906250
7741		-121.093750
7742		-126.953125
7743		-119.140625
7744		-125.000000
7745		-117.187500
7746		-123.046875
7747		-115.234375
7748		-123.046875
7749		-117.187500
7750		-117.187500
7751		-113.281250
7752		-117.187500
7753		-111.328125
7754		-115.234375
7755		-107.421875
7756		-115.234375
7757		-107.421875
7758		-111.328125
7759		-103.515625
7760		-109.375000
7761		-101.562500
7762		-105.468750
7763		-99.609375
7764		-105.468750
7765		-97.656250
7766		-99.609375
7767		-95.703125
7768		-97.656250
7769		-93.750000
7770		-95.703125
7771		-89.843750
7772		-93.750000
7773		-85.937500
7774		-89.843750
7775		-82.031250
7776		-87.890625
7777		-78.125000
7778		-85.937500
7779		-76.171875
7780		-82.031250
7781		-72.265625
7782		-78.125000
7783		-72.265625
7784		-74.218750
7785		-68.359375
7786		-70.312500
7787		-64.453125
7788		-68.359375
7789		-60.546875
7790		-64.453125
7791		-56.640625
7792		-60.546875
7793		-52.734375
7794		-58.593750
7795		-48.828125
7796		-54.687500
7797		-46.875000
7798		-50.781250
7799		-44.921875
7800		-44.921875
7801		-41.015625
7802		-42.968750
7803		-37.109375
7804		-41.015625
7805		-31.250000
7806		-37.109375
7807		-27.343750
7808		-33.203125
7809		-25.390625
7810		-29.296875
7811		-21.484375
7812		-25.390625
7813		-15.625000
7814		-21.484375
7815		-13.671875
7816		-15.625000
7817		-11.718750
7818		-11.718750
7819		-7.812500
7820		-9.765625
7821		-1.953125
7822		-5.859375
7823		1.953125
7824		-1.953125
7825		3.906250
7826		0.000000
7827		9.765625
7828		3.906250
7829		13.671875
7830		9.765625
7831		15.625000
7832		11.718750
7833		17.578125
7834		17.578125
7835		21.484375
7836		19.531250
7837		27.343750
7838		23.437500
7839		31.250000
7840		27.343750
7841		35.156250
7842		29.296875
7843		37.109375
7844		33.203125
7845		41.015625
7846		37.109375
7847		44.921875
7848		41.015625
7849		46.875000
7850		44.921875
7851		48.828125
7852		48.828125
7853		52.734375
7854		50.781250
7855		58.593750
7856		52.734375
7857		62.500000
7858		56.640625
7859		64.453125
7860		58.593750
7861		68.359375
7862		62.500000
7863		70.312500
7864		66.406250
7865		74.218750
7866		70.312500
7867		74.218750
7868		74.218750
7869		78.125000
7870		76.171875
7871		82.031250
7872		78.125000
7873		85.937500
7874		82.031250
7875		87.890625
7876		82.031250
7877		89.843750
7878		85.937500
7879		93.750000
7880		87.890625
7881		95.703125
7882		89.843750
7883		97.656250
7884		95.703125
7885		99.609375
7886		97.656250
7887		101.562500
7888		97.656250
7889		105.468750
7890		99.609375
7891		107.421875
7892		101.562500
7893		109.375000
7894		103.515625
7895		111.328125
7896		107.421875
7897		115.234375
7898		109.375000
7899		115.234375
7900		113.281250
7901		117.187500
7902		115.234375
7903		117.187500
7904		115.234375
7905		121.093750
7906		117.187500
7907		123.046875
7908		117.187500
7909		125.000000
7910		119.140625
7911		126.953125
7912		121.093750
7913		126.953125
7914		121.093750
7915		128.906250
7916		123.046875
7917		128.906250
7918		126.953125
7919		128.906250
7920		126.953125
7921		132.812500
7922		126.953125
7923		134.765625
7924		128.906250
7925		134.765625
7926		128.906250
7927		136.718750
7928		130.859375
7929		136.718750
7930		130.859375
7931		136.718750
7932		130.859375
7933		138.671875
7934		134.765625
7935		136.718750
7936		134.765625
7937		138.671875
7938		132.812500
7939		140.625000
7940		134.765625
7941		140.625000
7942		134.765625
7943		140.625000
7944		134.765625
7945		140.625000
7946		134.765625
7947		142.578125
7948		134.765625
7949		142.578125
7950		136.718750
7951		140.625000
7952		136.718750
7953		140.625000
7954		134.765625
7955		142.578125
7956		134.765625
7957		140.625000
7958		134.765625
7959		140.625000
7960		134.765625
7961		140.625000
7962		134.765625
7963		140.625000
7964		132.812500
7965		140.625000
7966		134.765625
7967		140.625000
7968		134.765625
7969		136.718750
7970		134.765625
7971		136.718750
7972		130.859375
7973		138.671875
7974		130.859375
7975		138.671875
7976		130.859375
7977		136.718750
7978		128.906250
7979		134.765625
7980		126.953125
7981		134.765625
7982		126.953125
7983		132.812500
7984		126.953125
7985		130.859375
7986		125.000000
7987		128.906250
7988		121.093750
7989		128.906250
7990		121.093750
7991		128.906250
7992		119.140625
7993		126.953125
7994		117.187500
7995		125.000000
7996		115.234375
7997		123.046875
7998		115.234375
7999		121.093750
8000		113.281250
8001		119.140625
8002		113.281250
8003		115.234375
8004		109.375000
8005		113.281250
8006		107.421875
8007		113.281250
8008		103.515625
8009		111.328125
8010		101.562500
8011		109.375000
8012		99.609375
8013		107.421875
8014		97.656250
8015		105.468750
8016		95.703125
8017		103.515625
8018		93.750000
8019		99.609375
8020		91.796875
8021		95.703125
8022		87.890625
8023		93.750000
8024		83.984375
8025		91.796875
8026		82.031250
8027		89.843750
8028		78.125000
8029		87.890625
8030		76.171875
8031		83.984375
8032		74.218750
8033		80.078125
8034		72.265625
8035		76.171875
8036		68.359375
8037		74.218750
8038		64.453125
8039		70.312500
8040		60.546875
8041		68.359375
8042		56.640625
8043		64.453125
8044		54.687500
8045		62.500000
8046		50.781250
8047		58.593750
8048		48.828125
8049		56.640625
8050		44.921875
8051		52.734375
8052		42.968750
8053		46.875000
8054		39.062500
8055		44.921875
8056		35.156250
8057		41.015625
8058		31.250000
8059		37.109375
8060		27.343750
8061		35.156250
8062		23.437500
8063		31.250000
8064		19.531250
8065		27.343750
8066		15.625000
8067		23.437500
8068		13.671875
8069		19.531250
8070		9.765625
8071		15.625000
8072		3.906250
8073		11.718750
8074		1.953125
8075		9.765625
8076		-1.953125
8077		5.859375
8078		-5.859375
8079		1.953125
8080		-9.765625
8081		-1.953125
8082		-13.671875
8083		-3.906250
8084		-15.625000
8085		-7.812500
8086		-19.531250
8087		-13.671875
8088		-25.390625
8089		-17.578125
8090		-27.343750
8091		-19.531250
8092		-33.203125
8093		-23.437500
8094		-35.156250
8095		-27.343750
8096		-39.062500
8097		-29.296875
8098		-41.015625
8099		-35.156250
8100		-44.921875
8101		-39.062500
8102		-48.828125
8103		-42.968750
8104		-50.781250
8105		-46.875000
8106		-56.640625
8107		-48.828125
8108		-60.546875
8109		-50.781250
8110		-62.500000
8111		-54.687500
8112		-66.406250
8113		-58.593750
8114		-70.312500
8115		-60.546875
8116		-72.265625
8117		-64.453125
8118		-74.218750
8119		-68.359375
8120		-78.125000
8121		-72.265625
8122		-82.031250
8123		-76.171875
8124		-83.984375
8125		-78.125000
8126		-87.890625
8127		-80.078125
8128		-91.796875
8129		-82.031250
8130		-93.750000
8131		-85.937500
8132		-95.703125
8133		-87.890625
8134		-97.656250
8135		-91.796875
8136		-99.609375
8137		-95.703125
8138		-101.562500
8139		-97.656250
8140		-105.468750
8141		-97.656250
8142		-109.375000
8143		-101.562500
8144		-109.375000
8145		-103.515625
8146		-113.281250
8147		-105.468750
8148		-115.234375
8149		-107.421875
8150		-117.187500
8151		-109.375000
8152		-117.187500
8153		-111.328125
8154		-119.140625
8155		-115.234375
8156		-123.046875
8157		-117.187500
8158		-125.000000
8159		-117.187500
8160		-125.000000
8161		-119.140625
8162		-126.953125
8163		-121.093750
8164		-128.906250
8165		-121.093750
8166		-130.859375
8167		-123.046875
8168		-128.906250
8169		-125.000000
8170		-128.906250
8171		-126.953125
8172		-132.812500
8173		-126.953125
8174		-134.765625
8175		-126.953125
8176		-134.765625
8177		-126.953125
8178		-134.765625
8179		-128.906250
8180		-134.765625
8181		-128.906250
8182		-134.765625
8183		-128.906250
8184		-134.765625
8185		-128.906250
8186		-132.812500
8187		-130.859375
8188		-132.812500
8189		-130.859375
8190		-134.765625
8191		-128.906250
8192		-134.765625
8193		-128.906250
8194		-134.765625
8195		-128.906250
8196		-134.765625
8197		-126.953125
8198		-134.765625
8199		-126.953125
8200		-132.812500
8201		-126.953125
8202		-132.812500
8203		-126.953125
8204		-128.906250
8205		-126.953125
8206		-128.906250
8207		-123.046875
8208		-128.906250
8209		-123.046875
8210		-128.906250
8211		-121.093750
8212		-126.953125
8213		-119.140625
8214		-125.000000
8215		-119.140625
8216		-123.046875
8217		-117.187500
8218		-121.093750
8219		-115.234375
8220		-119.140625
8221		-115.234375
8222		-117.187500
8223		-113.281250
8224		-117.187500
8225		-109.375000
8226		-115.234375
8227		-107.421875
8228		-113.281250
8229		-105.468750
8230		-109.375000
8231		-103.515625
8232		-109.375000
8233		-101.562500
8234		-105.468750
8235		-97.656250
8236		-101.562500
8237		-97.656250
8238		-99.609375
8239		-93.750000
8240		-97.656250
8241		-89.843750
8242		-93.750000
8243		-87.890625
8244		-91.796875
8245		-83.984375
8246		-89.843750
8247		-82.031250
8248		-87.890625
8249		-78.125000
8250		-83.984375
8251		-76.171875
8252		-80.078125
8253		-74.218750
8254		-76.171875
8255		-70.312500
8256		-72.265625
8257		-66.406250
8258		-70.312500
8259		-62.500000
8260		-66.406250
8261		-58.593750
8262		-62.500000
8263		-56.640625
8264		-60.546875
8265		-52.734375
8266		-56.640625
8267		-48.828125
8268		-52.734375
8269		-44.921875
8270		-48.828125
8271		-42.968750
8272		-44.921875
8273		-39.062500
8274		-41.015625
8275		-33.203125
8276		-39.062500
8277		-31.250000
8278		-35.156250
8279		-27.343750
8280		-31.250000
8281		-23.437500
8282		-27.343750
8283		-19.531250
8284		-23.437500
8285		-15.625000
8286		-21.484375
8287		-13.671875
8288		-15.625000
8289		-9.765625
8290		-11.718750
8291		-3.906250
8292		-9.765625
8293		0.000000
8294		-5.859375
8295		1.953125
8296		-1.953125
8297		7.812500
8298		1.953125
8299		9.765625
8300		5.859375
8301		13.671875
8302		9.765625
8303		15.625000
8304		13.671875
8305		19.531250
8306		17.578125
8307		23.437500
8308		19.531250
8309		29.296875
8310		23.437500
8311		31.250000
8312		27.343750
8313		35.156250
8314		31.250000
8315		39.062500
8316		35.156250
8317		42.968750
8318		37.109375
8319		44.921875
8320		41.015625
8321		46.875000
8322		46.875000
8323		50.781250
8324		48.828125
8325		54.687500
8326		50.781250
8327		58.593750
8328		54.687500
8329		62.500000
8330		56.640625
8331		66.406250
8332		60.546875
8333		68.359375
8334		64.453125
8335		72.265625
8336		66.406250
8337		74.218750
8338		72.265625
8339		76.171875
8340		74.218750
8341		80.078125
8342		76.171875
8343		83.984375
8344		78.125000
8345		85.937500
8346		80.078125
8347		87.890625
8348		83.984375
8349		91.796875
8350		85.937500
8351		93.750000
8352		89.843750
8353		95.703125
8354		93.750000
8355		97.656250
8356		95.703125
8357		99.609375
8358		97.656250
8359		103.515625
8360		99.609375
8361		105.468750
8362		99.609375
8363		107.421875
8364		103.515625
8365		111.328125
8366		105.468750
8367		111.328125
8368		107.421875
8369		115.234375
8370		111.328125
8371		115.234375
8372		113.281250
8373		117.187500
8374		115.234375
8375		121.093750
8376		115.234375
8377		121.093750
8378		117.187500
8379		123.046875
8380		117.187500
8381		125.000000
8382		119.140625
8383		126.953125
8384		121.093750
8385		128.906250
8386		123.046875
8387		128.906250
8388		126.953125
8389		128.906250
8390		126.953125
8391		130.859375
8392		126.953125
8393		132.812500
8394		126.953125
8395		134.765625
8396		128.906250
8397		134.765625
8398		128.906250
8399		136.718750
8400		130.859375
8401		136.718750
8402		130.859375
8403		138.671875
8404		132.812500
8405		136.718750
8406		134.765625
8407		136.718750
8408		132.812500
8409		138.671875
8410		132.812500
8411		140.625000
8412		134.765625
8413		140.625000
8414		134.765625
8415		140.625000
8416		134.765625
8417		140.625000
8418		134.765625
8419		140.625000
8420		134.765625
8421		140.625000
8422		136.718750
8423		138.671875
8424		136.718750
8425		140.625000
8426		134.765625
8427		142.578125
8428		134.765625
8429		140.625000
8430		134.765625
8431		140.625000
8432		134.765625
8433		140.625000
8434		134.765625
8435		140.625000
8436		132.812500
8437		140.625000
8438		134.765625
8439		136.718750
8440		134.765625
8441		136.718750
8442		130.859375
8443		136.718750
8444		130.859375
8445		138.671875
8446		130.859375
8447		136.718750
8448		128.906250
8449		134.765625
8450		126.953125
8451		134.765625
8452		126.953125
8453		132.812500
8454		126.953125
8455		132.812500
8456		126.953125
8457		128.906250
8458		123.046875
8459		128.906250
8460		121.093750
8461		128.906250
8462		121.093750
8463		126.953125
8464		119.140625
8465		125.000000
8466		117.187500
8467		123.046875
8468		115.234375
8469		123.046875
8470		113.281250
8471		121.093750
8472		113.281250
8473		117.187500
8474		111.328125
8475		115.234375
8476		107.421875
8477		113.281250
8478		105.468750
8479		113.281250
8480		103.515625
8481		111.328125
8482		101.562500
8483		109.375000
8484		97.656250
8485		107.421875
8486		95.703125
8487		103.515625
8488		95.703125
8489		101.562500
8490		93.750000
8491		97.656250
8492		87.890625
8493		95.703125
8494		85.937500
8495		93.750000
8496		83.984375
8497		89.843750
8498		80.078125
8499		87.890625
8500		78.125000
8501		85.937500
8502		74.218750
8503		82.031250
8504		74.218750
8505		80.078125
8506		70.312500
8507		76.171875
8508		68.359375
8509		72.265625
8510		62.500000
8511		70.312500
8512		58.593750
8513		66.406250
8514		56.640625
8515		64.453125
8516		52.734375
8517		60.546875
8518		50.781250
8519		56.640625
8520		46.875000
8521		54.687500
8522		44.921875
8523		48.828125
8524		41.015625
8525		46.875000
8526		35.156250
8527		42.968750
8528		33.203125
8529		41.015625
8530		29.296875
8531		37.109375
8532		25.390625
8533		35.156250
8534		21.484375
8535		29.296875
8536		17.578125
8537		27.343750
8538		15.625000
8539		23.437500
8540		11.718750
8541		17.578125
8542		5.859375
8543		13.671875
8544		3.906250
8545		11.718750
8546		0.000000
8547		9.765625
8548		-3.906250
8549		3.906250
8550		-7.812500
8551		0.000000
8552		-11.718750
8553		-3.906250
8554		-13.671875
8555		-5.859375
8556		-17.578125
8557		-11.718750
8558		-21.484375
8559		-15.625000
8560		-25.390625
8561		-19.531250
8562		-29.296875
8563		-19.531250
8564		-33.203125
8565		-25.390625
8566		-37.109375
8567		-27.343750
8568		-41.015625
8569		-31.250000
8570		-44.921875
8571		-35.156250
8572		-46.875000
8573		-41.015625
8574		-50.781250
8575		-44.921875
8576		-54.687500
8577		-48.828125
8578		-58.593750
8579		-50.781250
8580		-62.500000
8581		-54.687500
8582		-64.453125
8583		-56.640625
8584		-68.359375
8585		-60.546875
8586		-72.265625
8587		-62.500000
8588		-72.265625
8589		-66.406250
8590		-76.171875
8591		-72.265625
8592		-80.078125
8593		-74.218750
8594		-83.984375
8595		-76.171875
8596		-87.890625
8597		-80.078125
8598		-89.843750
8599		-82.031250
8600		-93.750000
8601		-85.937500
8602		-95.703125
8603		-87.890625
8604		-97.656250
8605		-89.843750
8606		-99.609375
8607		-93.750000
8608		-101.562500
8609		-97.656250
8610		-105.468750
8611		-99.609375
8612		-109.375000
8613		-101.562500
8614		-111.328125
8615		-103.515625
8616		-113.281250
8617		-105.468750
8618		-115.234375
8619		-107.421875
8620		-117.187500
8621		-109.375000
8622		-117.187500
8623		-111.328125
8624		-119.140625
8625		-115.234375
8626		-123.046875
8627		-117.187500
8628		-125.000000
8629		-117.187500
8630		-126.953125
8631		-119.140625
8632		-126.953125
8633		-121.093750
8634		-128.906250
8635		-123.046875
8636		-130.859375
8637		-123.046875
8638		-130.859375
8639		-123.046875
8640		-130.859375
8641		-126.953125
8642		-130.859375
8643		-128.906250
8644		-134.765625
8645		-128.906250
8646		-134.765625
8647		-126.953125
8648		-136.718750
8649		-128.906250
8650		-136.718750
8651		-128.906250
8652		-136.718750
8653		-128.906250
8654		-136.718750
8655		-130.859375
8656		-134.765625
8657		-130.859375
8658		-134.765625
8659		-132.812500
8660		-136.718750
8661		-130.859375
8662		-136.718750
8663		-130.859375
8664		-136.718750
8665		-130.859375
8666		-136.718750
8667		-128.906250
8668		-136.718750
8669		-128.906250
8670		-134.765625
8671		-128.906250
8672		-134.765625
8673		-128.906250
8674		-132.812500
8675		-128.906250
8676		-130.859375
8677		-126.953125
8678		-130.859375
8679		-125.000000
8680		-130.859375
8681		-123.046875
8682		-128.906250
8683		-121.093750
8684		-128.906250
8685		-121.093750
8686		-126.953125
8687		-119.140625
8688		-125.000000
8689		-117.187500
8690		-123.046875
8691		-117.187500
8692		-119.140625
8693		-115.234375
8694		-119.140625
8695		-113.281250
8696		-117.187500
8697		-111.328125
8698		-115.234375
8699		-109.375000
8700		-113.281250
8701		-105.468750
8702		-111.328125
8703		-103.515625
8704		-109.375000
8705		-99.609375
8706		-107.421875
8707		-99.609375
8708		-101.562500
8709		-97.656250
8710		-99.609375
8711		-93.750000
8712		-99.609375
8713		-89.843750
8714		-95.703125
8715		-87.890625
8716		-91.796875
8717		-83.984375
8718		-89.843750
8719		-82.031250
8720		-87.890625
8721		-78.125000
8722		-83.984375
8723		-76.171875
8724		-78.125000
8725		-74.218750
8726		-76.171875
8727		-70.312500
8728		-72.265625
8729		-66.406250
8730		-70.312500
8731		-62.500000
8732		-66.406250
8733		-58.593750
8734		-64.453125
8735		-54.687500
8736		-60.546875
8737		-52.734375
8738		-56.640625
8739		-48.828125
8740		-54.687500
8741		-46.875000
8742		-48.828125
8743		-42.968750
8744		-44.921875
8745		-37.109375
8746		-42.968750
8747		-35.156250
8748		-39.062500
8749		-29.296875
8750		-35.156250
8751		-27.343750
8752		-33.203125
8753		-23.437500
8754		-27.343750
8755		-19.531250
8756		-23.437500
8757		-17.578125
8758		-19.531250
8759		-13.671875
8760		-15.625000
8761		-9.765625
8762		-13.671875
8763		-3.906250
8764		-9.765625
8765		-1.953125
8766		-5.859375
8767		3.906250
8768		-1.953125
8769		7.812500
8770		1.953125
8771		9.765625
8772		5.859375
8773		13.671875
8774		9.765625
8775		15.625000
8776		13.671875
8777		19.531250
8778		17.578125
8779		25.390625
8780		21.484375
8781		29.296875
8782		23.437500
8783		31.250000
8784		27.343750
8785		35.156250
8786		31.250000
8787		39.062500
8788		35.156250
8789		42.968750
8790		37.109375
8791		44.921875
8792		42.968750
8793		46.875000
8794		46.875000
8795		52.734375
8796		46.875000
8797		56.640625
8798		50.781250
8799		58.593750
8800		54.687500
8801		62.500000
8802		56.640625
8803		64.453125
8804		60.546875
8805		68.359375
8806		62.500000
8807		70.312500
8808		68.359375
8809		72.265625
8810		72.265625
8811		76.171875
8812		72.265625
8813		80.078125
8814		74.218750
8815		83.984375
8816		78.125000
8817		85.937500
8818		82.031250
8819		87.890625
8820		83.984375
8821		91.796875
8822		85.937500
8823		95.703125
8824		87.890625
8825		93.750000
8826		93.750000
8827		97.656250
8828		95.703125
8829		101.562500
8830		95.703125
8831		103.515625
8832		97.656250
8833		105.468750
8834		101.562500
8835		107.421875
8836		103.515625
8837		111.328125
8838		105.468750
8839		113.281250
8840		107.421875
8841		113.281250
8842		111.328125
8843		113.281250
8844		113.281250
8845		117.187500
8846		113.281250
8847		121.093750
8848		115.234375
8849		121.093750
8850		117.187500
8851		123.046875
8852		117.187500
8853		125.000000
8854		119.140625
8855		126.953125
8856		121.093750
8857		126.953125
8858		123.046875
8859		128.906250
8860		125.000000
8861		128.906250
8862		125.000000
8863		130.859375
8864		125.000000
8865		132.812500
8866		126.953125
8867		134.765625
8868		128.906250
8869		134.765625
8870		128.906250
8871		134.765625
8872		128.906250
8873		136.718750
8874		130.859375
8875		136.718750
8876		132.812500
8877		136.718750
8878		134.765625
8879		138.671875
8880		132.812500
8881		138.671875
8882		132.812500
8883		140.625000
8884		132.812500
8885		140.625000
8886		132.812500
8887		140.625000
8888		134.765625
8889		140.625000
8890		134.765625
8891		140.625000
8892		136.718750
8893		138.671875
8894		136.718750
8895		138.671875
8896		134.765625
8897		140.625000
8898		134.765625
8899		140.625000
8900		134.765625
8901		140.625000
8902		134.765625
8903		140.625000
8904		134.765625
8905		138.671875
8906		134.765625
8907		138.671875
8908		134.765625
8909		138.671875
8910		134.765625
8911		136.718750
8912		132.812500
8913		138.671875
8914		130.859375
8915		136.718750
8916		130.859375
8917		136.718750
8918		128.906250
8919		136.718750
8920		128.906250
8921		136.718750
8922		126.953125
8923		134.765625
8924		126.953125
8925		132.812500
8926		126.953125
8927		130.859375
8928		125.000000
8929		128.906250
8930		123.046875
8931		128.906250
8932		121.093750
8933		128.906250
8934		119.140625
8935		126.953125
8936		119.140625
8937		125.000000
8938		117.187500
8939		123.046875
8940		115.234375
8941		121.093750
8942		115.234375
8943		119.140625
8944		113.281250
8945		117.187500
8946		109.375000
8947		115.234375
8948		107.421875
8949		115.234375
8950		105.468750
8951		113.281250
8952		103.515625
8953		109.375000
8954		101.562500
8955		107.421875
8956		97.656250
8957		107.421875
8958		97.656250
8959		103.515625
8960		95.703125
8961		99.609375
8962		91.796875
8963		97.656250
8964		87.890625
8965		97.656250
8966		85.937500
8967		93.750000
8968		82.031250
8969		91.796875
8970		80.078125
8971		87.890625
8972		78.125000
8973		85.937500
8974		74.218750
8975		82.031250
8976		74.218750
8977		78.125000
8978		70.312500
8979		74.218750
8980		66.406250
8981		72.265625
8982		62.500000
8983		70.312500
8984		58.593750
8985		66.406250
8986		56.640625
8987		64.453125
8988		52.734375
8989		60.546875
8990		48.828125
8991		58.593750
8992		46.875000
8993		52.734375
8994		44.921875
8995		48.828125
8996		39.062500
8997		44.921875
8998		35.156250
8999		42.968750
9000		33.203125
9001		41.015625
9002		27.343750
9003		37.109375
9004		25.390625
9005		33.203125
9006		21.484375
9007		29.296875
9008		19.531250
9009		25.390625
9010		15.625000
9011		21.484375
9012		11.718750
9013		17.578125
9014		5.859375
9015		13.671875
9016		3.906250
9017		11.718750
9018		0.000000
9019		7.812500
9020		-5.859375
9021		3.906250
9022		-9.765625
9023		0.000000
9024		-11.718750
9025		-3.906250
9026		-13.671875
9027		-7.812500
9028		-17.578125
9029		-13.671875
9030		-23.437500
9031		-15.625000
9032		-27.343750
9033		-17.578125
9034		-29.296875
9035		-21.484375
9036		-35.156250
9037		-25.390625
9038		-37.109375
9039		-29.296875
9040		-41.015625
9041		-33.203125
9042		-42.968750
9043		-37.109375
9044		-46.875000
9045		-41.015625
9046		-50.781250
9047		-44.921875
9048		-56.640625
9049		-46.875000
9050		-58.593750
9051		-50.781250
9052		-62.500000
9053		-54.687500
9054		-64.453125
9055		-58.593750
9056		-70.312500
9057		-60.546875
9058		-72.265625
9059		-64.453125
9060		-74.218750
9061		-68.359375
9062		-76.171875
9063		-72.265625
9064		-82.031250
9065		-74.218750
9066		-83.984375
9067		-76.171875
9068		-87.890625
9069		-80.078125
9070		-89.843750
9071		-82.031250
9072		-93.750000
9073		-85.937500
9074		-95.703125
9075		-87.890625
9076		-97.656250
9077		-91.796875
9078		-99.609375
9079		-95.703125
9080		-103.515625
9081		-97.656250
9082		-107.421875
9083		-99.609375
9084		-109.375000
9085		-101.562500
9086		-111.328125
9087		-103.515625
9088		-113.281250
9089		-107.421875
9090		-115.234375
9091		-107.421875
9092		-117.187500
9093		-109.375000
9094		-117.187500
9095		-113.281250
9096		-119.140625
9097		-115.234375
9098		-123.046875
9099		-115.234375
9100		-125.000000
9101		-117.187500
9102		-125.000000
9103		-119.140625
9104		-126.953125
9105		-121.093750
9106		-128.906250
9107		-123.046875
9108		-130.859375
9109		-123.046875
9110		-128.906250
9111		-125.000000
9112		-130.859375
9113		-126.953125
9114		-132.812500
9115		-126.953125
9116		-132.812500
9117		-126.953125
9118		-134.765625
9119		-128.906250
9120		-134.765625
9121		-128.906250
9122		-134.765625
9123		-128.906250
9124		-136.718750
9125		-128.906250
9126		-136.718750
9127		-128.906250
9128		-134.765625
9129		-130.859375
9130		-134.765625
9131		-130.859375
9132		-136.718750
9133		-128.906250
9134		-136.718750
9135		-128.906250
9136		-136.718750
9137		-128.906250
9138		-134.765625
9139		-128.906250
9140		-134.765625
9141		-126.953125
9142		-134.765625
9143		-126.953125
9144		-130.859375
9145		-128.906250
9146		-130.859375
9147		-126.953125
9148		-130.859375
9149		-125.000000
9150		-130.859375
9151		-123.046875
9152		-128.906250
9153		-123.046875
9154		-128.906250
9155		-121.093750
9156		-126.953125
9157		-119.140625
9158		-125.000000
9159		-117.187500
9160		-123.046875
9161		-117.187500
9162		-119.140625
9163		-115.234375
9164		-119.140625
9165		-111.328125
9166		-117.187500
9167		-109.375000
9168		-115.234375
9169		-107.421875
9170		-113.281250
9171		-105.468750
9172		-111.328125
9173		-103.515625
9174		-109.375000
9175		-101.562500
9176		-107.421875
9177		-99.609375
9178		-103.515625
9179		-97.656250
9180		-99.609375
9181		-95.703125
9182		-97.656250
9183		-91.796875
9184		-97.656250
9185		-87.890625
9186		-93.750000
9187		-85.937500
9188		-89.843750
9189		-82.031250
9190		-87.890625
9191		-80.078125
9192		-85.937500
9193		-76.171875
9194		-82.031250
9195		-74.218750
9196		-76.171875
9197		-72.265625
9198		-74.218750
9199		-66.406250
9200		-72.265625
9201		-64.453125
9202		-68.359375
9203		-60.546875
9204		-66.406250
9205		-56.640625
9206		-62.500000
9207		-52.734375
9208		-56.640625
9209		-50.781250
9210		-54.687500
9211		-46.875000
9212		-48.828125
9213		-44.921875
9214		-44.921875
9215		-41.015625
9216		-42.968750
9217		-35.156250
9218		-41.015625
9219		-31.250000
9220		-37.109375
9221		-29.296875
9222		-33.203125
9223		-25.390625
9224		-29.296875
9225		-21.484375
9226		-25.390625
9227		-17.578125
9228		-21.484375
9229		-15.625000
9230		-15.625000
9231		-11.718750
9232		-13.671875
9233		-5.859375
9234		-11.718750
9235		-1.953125
9236		-7.812500
9237		1.953125
9238		-3.906250
9239		5.859375
9240		0.000000
9241		9.765625
9242		3.906250
9243		11.718750
9244		7.812500
9245		13.671875
9246		13.671875
9247		17.578125
9248		15.625000
9249		23.437500
9250		19.531250
9251		27.343750
9252		21.484375
9253		29.296875
9254		25.390625
9255		33.203125
9256		29.296875
9257		37.109375
9258		31.250000
9259		41.015625
9260		35.156250
9261		44.921875
9262		41.015625
9263		46.875000
9264		44.921875
9265		48.828125
9266		46.875000
9267		54.687500
9268		48.828125
9269		58.593750
9270		54.687500
9271		60.546875
9272		56.640625
9273		64.453125
9274		60.546875
9275		66.406250
9276		62.500000
9277		70.312500
9278		64.453125
9279		72.265625
9280		70.312500
9281		74.218750
9282		72.265625
9283		80.078125
9284		74.218750
9285		82.031250
9286		76.171875
9287		85.937500
9288		80.078125
9289		87.890625
9290		83.984375
9291		89.843750
9292		85.937500
9293		93.750000
9294		87.890625
9295		95.703125
9296		91.796875
9297		95.703125
9298		95.703125
9299		99.609375
9300		95.703125
9301		103.515625
9302		97.656250
9303		105.468750
9304		99.609375
9305		107.421875
9306		103.515625
9307		111.328125
9308		105.468750
9309		111.328125
9310		107.421875
9311		113.281250
9312		109.375000
9313		113.281250
9314		113.281250
9315		115.234375
9316		113.281250
9317		119.140625
9318		115.234375
9319		121.093750
9320		117.187500
9321		123.046875
9322		117.187500
9323		125.000000
9324		119.140625
9325		126.953125
9326		121.093750
9327		126.953125
9328		123.046875
9329		128.906250
9330		125.000000
9331		128.906250
9332		126.953125
9333		130.859375
9334		126.953125
9335		132.812500
9336		126.953125
9337		134.765625
9338		126.953125
9339		134.765625
9340		128.906250
9341		136.718750
9342		130.859375
9343		136.718750
9344		130.859375
9345		138.671875
9346		134.765625
9347		136.718750
9348		134.765625
9349		136.718750
9350		132.812500
9351		140.625000
9352		134.765625
9353		140.625000
9354		134.765625
9355		140.625000
9356		134.765625
9357		140.625000
9358		134.765625
9359		140.625000
9360		134.765625
9361		142.578125
9362		134.765625
9363		142.578125
9364		136.718750
9365		140.625000
9366		134.765625
9367		142.578125
9368		134.765625
9369		142.578125
9370		134.765625
9371		142.578125
9372		134.765625
9373		142.578125
9374		134.765625
9375		140.625000
9376		134.765625
9377		140.625000
9378		134.765625
9379		140.625000
9380		134.765625
9381		138.671875
9382		134.765625
9383		138.671875
9384		132.812500
9385		138.671875
9386		130.859375
9387		138.671875
9388		130.859375
9389		136.718750
9390		130.859375
9391		136.718750
9392		128.906250
9393		134.765625
9394		126.953125
9395		134.765625
9396		126.953125
9397		132.812500
9398		126.953125
9399		130.859375
9400		125.000000
9401		130.859375
9402		123.046875
9403		128.906250
9404		121.093750
9405		128.906250
9406		121.093750
9407		126.953125
9408		119.140625
9409		125.000000
9410		117.187500
9411		123.046875
9412		115.234375
9413		123.046875
9414		115.234375
9415		119.140625
9416		111.328125
9417		117.187500
9418		109.375000
9419		117.187500
9420		107.421875
9421		115.234375
9422		105.468750
9423		113.281250
9424		103.515625
9425		111.328125
9426		101.562500
9427		107.421875
9428		99.609375
9429		105.468750
9430		97.656250
9431		103.515625
9432		95.703125
9433		99.609375
9434		91.796875
9435		97.656250
9436		87.890625
9437		95.703125
9438		85.937500
9439		93.750000
9440		83.984375
9441		91.796875
9442		80.078125
9443		87.890625
9444		76.171875
9445		85.937500
9446		76.171875
9447		83.984375
9448		72.265625
9449		78.125000
9450		66.406250
9451		74.218750
9452		64.453125
9453		72.265625
9454		62.500000
9455		70.312500
9456		58.593750
9457		66.406250
9458		56.640625
9459		62.500000
9460		52.734375
9461		60.546875
9462		48.828125
9463		58.593750
9464		46.875000
9465		52.734375
9466		42.968750
9467		48.828125
9468		39.062500
9469		46.875000
9470		35.156250
9471		44.921875
9472		31.250000
9473		41.015625
9474		29.296875
9475		37.109375
9476		23.437500
9477		33.203125
9478		21.484375
9479		29.296875
9480		19.531250
9481		25.390625
9482		15.625000
9483		21.484375
9484		9.765625
9485		17.578125
9486		5.859375
9487		15.625000
9488		1.953125
9489		11.718750
9490		-1.953125
9491		7.812500
9492		-3.906250
9493		3.906250
9494		-7.812500
9495		0.000000
9496		-9.765625
9497		-3.906250
9498		-13.671875
9499		-9.765625
9500		-19.531250
9501		-13.671875
9502		-23.437500
9503		-13.671875
9504		-27.343750
9505		-17.578125
9506		-31.250000
9507		-21.484375
9508		-33.203125
9509		-25.390625
9510		-37.109375
9511		-29.296875
9512		-41.015625
9513		-31.250000
9514		-42.968750
9515		-37.109375
9516		-46.875000
9517		-41.015625
9518		-50.781250
9519		-44.921875
9520		-54.687500
9521		-46.875000
9522		-58.593750
9523		-50.781250
9524		-62.500000
9525		-52.734375
9526		-64.453125
9527		-56.640625
9528		-68.359375
9529		-60.546875
9530		-70.312500
9531		-62.500000
9532		-72.265625
9533		-68.359375
9534		-78.125000
9535		-72.265625
9536		-82.031250
9537		-72.265625
9538		-83.984375
9539		-76.171875
9540		-85.937500
9541		-80.078125
9542		-89.843750
9543		-82.031250
9544		-91.796875
9545		-83.984375
9546		-95.703125
9547		-87.890625
9548		-95.703125
9549		-91.796875
9550		-99.609375
9551		-93.750000
9552		-103.515625
9553		-95.703125
9554		-105.468750
9555		-97.656250
9556		-107.421875
9557		-101.562500
9558		-111.328125
9559		-103.515625
9560		-113.281250
9561		-105.468750
9562		-115.234375
9563		-107.421875
9564		-115.234375
9565		-109.375000
9566		-117.187500
9567		-113.281250
9568		-121.093750
9569		-113.281250
9570		-123.046875
9571		-115.234375
9572		-123.046875
9573		-115.234375
9574		-125.000000
9575		-117.187500
9576		-126.953125
9577		-119.140625
9578		-128.906250
9579		-121.093750
9580		-128.906250
9581		-123.046875
9582		-128.906250
9583		-125.000000
9584		-128.906250
9585		-126.953125
9586		-132.812500
9587		-125.000000
9588		-132.812500
9589		-126.953125
9590		-134.765625
9591		-126.953125
9592		-134.765625
9593		-128.906250
9594		-134.765625
9595		-128.906250
9596		-134.765625
9597		-128.906250
9598		-132.812500
9599		-130.859375
9600		-132.812500
9601		-130.859375
9602		-136.718750
9603		-128.906250
9604		-136.718750
9605		-128.906250
9606		-136.718750
9607		-128.906250
9608		-134.765625
9609		-128.906250
9610		-134.765625
9611		-128.906250
9612		-134.765625
9613		-126.953125
9614		-132.812500
9615		-126.953125
9616		-130.859375
9617		-126.953125
9618		-130.859375
9619		-125.000000
9620		-130.859375
9621		-123.046875
9622		-128.906250
9623		-123.046875
9624		-128.906250
9625		-121.093750
9626		-126.953125
9627		-121.093750
9628		-125.000000
9629		-119.140625
9630		-125.000000
9631		-117.187500
9632		-121.093750
9633		-117.187500
9634		-119.140625
9635		-115.234375
9636		-119.140625
9637		-111.328125
9638		-117.187500
9639		-111.328125
9640		-115.234375
9641		-107.421875
9642		-113.281250
9643		-105.468750
9644		-111.328125
9645		-103.515625
9646		-109.375000
9647		-99.609375
9648		-105.468750
9649		-99.609375
9650		-101.562500
9651		-97.656250
9652		-99.609375
9653		-93.750000
9654		-99.609375
9655		-89.843750
9656		-95.703125
9657		-87.890625
9658		-93.750000
9659		-83.984375
9660		-89.843750
9661		-82.031250
9662		-87.890625
9663		-78.125000
9664		-83.984375
9665		-76.171875
9666		-80.078125
9667		-74.218750
9668		-76.171875
9669		-70.312500
9670		-74.218750
9671		-66.406250
9672		-70.312500
9673		-62.500000
9674		-68.359375
9675		-60.546875
9676		-64.453125
9677		-56.640625
9678		-60.546875
9679		-52.734375
9680		-58.593750
9681		-48.828125
9682		-52.734375
9683		-46.875000
9684		-48.828125
9685		-44.921875
9686		-46.875000
9687		-39.062500
9688		-42.968750
9689		-35.156250
9690		-41.015625
9691		-31.250000
9692		-37.109375
9693		-27.343750
9694		-31.250000
9695		-23.437500
9696		-29.296875
9697		-19.531250
9698		-25.390625
9699		-17.578125
9700		-19.531250
9701		-13.671875
9702		-15.625000
9703		-9.765625
9704		-13.671875
9705		-5.859375
9706		-9.765625
9707		-1.953125
9708		-7.812500
9709		1.953125
9710		-1.953125
9711		5.859375
9712		1.953125
9713		9.765625
9714		3.906250
9715		13.671875
9716		9.765625
9717		15.625000
9718		13.671875
9719		19.531250
9720		15.625000
9721		23.437500
9722		19.531250
9723		27.343750
9724		21.484375
9725		31.250000
9726		25.390625
9727		35.156250
9728		31.250000
9729		37.109375
9730		33.203125
9731		42.968750
9732		37.109375
9733		42.968750
9734		42.968750
9735		46.875000
9736		44.921875
9737		50.781250
9738		46.875000
9739		54.687500
9740		50.781250
9741		58.593750
9742		52.734375
9743		62.500000
9744		56.640625
9745		64.453125
9746		58.593750
9747		68.359375
9748		62.500000
9749		68.359375
9750		68.359375
9751		72.265625
9752		70.312500
9753		74.218750
9754		72.265625
9755		80.078125
9756		76.171875
9757		83.984375
9758		78.125000
9759		85.937500
9760		80.078125
9761		87.890625
9762		82.031250
9763		89.843750
9764		85.937500
9765		93.750000
9766		89.843750
9767		93.750000
9768		93.750000
9769		97.656250
9770		95.703125
9771		101.562500
9772		95.703125
9773		103.515625
9774		99.609375
9775		105.468750
9776		101.562500
9777		107.421875
9778		103.515625
9779		109.375000
9780		105.468750
9781		113.281250
9782		107.421875
9783		113.281250
9784		111.328125
9785		113.281250
9786		113.281250
9787		117.187500
9788		113.281250
9789		119.140625
9790		115.234375
9791		121.093750
9792		115.234375
9793		123.046875
9794		117.187500
9795		125.000000
9796		119.140625
9797		125.000000
9798		121.093750
9799		126.953125
9800		123.046875
9801		126.953125
9802		125.000000
9803		128.906250
9804		125.000000
9805		130.859375
9806		125.000000
9807		132.812500
9808		126.953125
9809		132.812500
9810		128.906250
9811		134.765625
9812		128.906250
9813		136.718750
9814		128.906250
9815		136.718750
9816		130.859375
9817		136.718750
9818		132.812500
9819		136.718750
9820		132.812500
9821		138.671875
9822		132.812500
9823		138.671875
9824		132.812500
9825		140.625000
9826		134.765625
9827		140.625000
9828		134.765625
9829		140.625000
9830		134.765625
9831		140.625000
9832		134.765625
9833		140.625000
9834		136.718750
9835		138.671875
9836		136.718750
9837		138.671875
9838		134.765625
9839		142.578125
9840		134.765625
9841		140.625000
9842		134.765625
9843		140.625000
9844		134.765625
9845		140.625000
9846		134.765625
9847		140.625000
9848		134.765625
9849		140.625000
9850		134.765625
9851		138.671875
9852		134.765625
9853		136.718750
9854		132.812500
9855		138.671875
9856		130.859375
9857		138.671875
9858		130.859375
9859		136.718750
9860		130.859375
9861		136.718750
9862		128.906250
9863		136.718750
9864		128.906250
9865		134.765625
9866		128.906250
9867		134.765625
9868		128.906250
9869		130.859375
9870		125.000000
9871		128.906250
9872		123.046875
9873		130.859375
9874		123.046875
9875		128.906250
9876		121.093750
9877		126.953125
9878		119.140625
9879		125.000000
9880		117.187500
9881		125.000000
9882		115.234375
9883		123.046875
9884		115.234375
9885		119.140625
9886		113.281250
9887		117.187500
9888		109.375000
9889		117.187500
9890		107.421875
9891		115.234375
9892		105.468750
9893		113.281250
9894		103.515625
9895		111.328125
9896		101.562500
9897		109.375000
9898		99.609375
9899		107.421875
9900		97.656250
9901		105.468750
9902		95.703125
9903		99.609375
9904		91.796875
9905		97.656250
9906		89.843750
9907		97.656250
9908		85.937500
9909		95.703125
9910		83.984375
9911		91.796875
9912		82.031250
9913		89.843750
9914		80.078125
9915		85.937500
9916		76.171875
9917		83.984375
9918		74.218750
9919		78.125000
9920		72.265625
9921		76.171875
9922		66.406250
9923		74.218750
9924		64.453125
9925		70.312500
9926		60.546875
9927		68.359375
9928		56.640625
9929		64.453125
9930		52.734375
9931		62.500000
9932		50.781250
9933		58.593750
9934		48.828125
9935		54.687500
9936		44.921875
9937		50.781250
9938		41.015625
9939		46.875000
9940		37.109375
9941		44.921875
9942		33.203125
9943		41.015625
9944		29.296875
9945		39.062500
9946		25.390625
9947		35.156250
9948		23.437500
9949		31.250000
9950		19.531250
9951		27.343750
9952		17.578125
9953		21.484375
9954		11.718750
9955		19.531250
9956		7.812500
9957		15.625000
9958		3.906250
9959		13.671875
9960		1.953125
9961		9.765625
9962		-3.906250
9963		5.859375
9964		-7.812500
9965		1.953125
9966		-9.765625
9967		-1.953125
9968		-11.718750
9969		-7.812500
9970		-15.625000
9971		-11.718750
9972		-21.484375
9973		-13.671875
9974		-25.390625
9975		-17.578125
9976		-27.343750
9977		-21.484375
9978		-33.203125
9979		-23.437500
9980		-37.109375
9981		-27.343750
9982		-39.062500
9983		-31.250000
9984		-41.015625
9985		-35.156250
9986		-44.921875
9987		-41.015625
9988		-50.781250
9989		-42.968750
9990		-54.687500
9991		-44.921875
9992		-58.593750
9993		-48.828125
9994		-60.546875
9995		-52.734375
9996		-64.453125
9997		-56.640625
9998		-66.406250
9999		-58.593750
10000		-68.359375
