Channel              :		CH1
Frequency            :		1.061kHz
Period               :		0.942ms
PK-PK                :		318.4mV
Probe attenuation    :		1X
Voltage per ADC value:		0.122070mV
Time interval        :		2.00000us

index		CH1_Voltage(mV)
1		97.656250
2		97.656250
3		89.843750
4		93.750000
5		87.890625
6		91.796875
7		83.984375
8		89.843750
9		82.031250
10		85.937500
11		76.171875
12		82.031250
13		74.218750
14		80.078125
15		72.265625
16		78.125000
17		68.359375
18		72.265625
19		64.453125
20		70.312500
21		60.546875
22		66.406250
23		56.640625
24		62.500000
25		54.687500
26		58.593750
27		50.781250
28		56.640625
29		44.921875
30		52.734375
31		41.015625
32		48.828125
33		39.062500
34		44.921875
35		35.156250
36		42.968750
37		31.250000
38		37.109375
39		27.343750
40		33.203125
41		23.437500
42		29.296875
43		19.531250
44		25.390625
45		15.625000
46		21.484375
47		9.765625
48		17.578125
49		5.859375
50		15.625000
51		3.906250
52		9.765625
53		-1.953125
54		5.859375
55		-3.906250
56		0.000000
57		-7.812500
58		-3.906250
59		-13.671875
60		-7.812500
61		-17.578125
62		-11.718750
63		-21.484375
64		-13.671875
65		-27.343750
66		-17.578125
67		-31.250000
68		-23.437500
69		-35.156250
70		-27.343750
71		-39.062500
72		-29.296875
73		-44.921875
74		-35.156250
75		-46.875000
76		-41.015625
77		-50.781250
78		-44.921875
79		-54.687500
80		-48.828125
81		-60.546875
82		-50.781250
83		-64.453125
84		-54.687500
85		-68.359375
86		-60.546875
87		-70.312500
88		-62.500000
89		-76.171875
90		-68.359375
91		-78.125000
92		-72.265625
93		-82.031250
94		-76.171875
95		-85.937500
96		-80.078125
97		-91.796875
98		-82.031250
99		-95.703125
100		-87.890625
101		-97.656250
102		-89.843750
103		-101.562500
104		-93.750000
105		-105.468750
106		-97.656250
107		-109.375000
108		-101.562500
109		-111.328125
110		-105.468750
111		-113.281250
112		-109.375000
113		-119.140625
114		-111.328125
115		-121.093750
116		-115.234375
117		-125.000000
118		-115.234375
119		-128.906250
120		-121.093750
121		-130.859375
122		-123.046875
123		-132.812500
124		-126.953125
125		-134.765625
126		-128.906250
127		-136.718750
128		-132.812500
129		-142.578125
130		-136.718750
131		-144.531250
132		-136.718750
133		-146.484375
134		-138.671875
135		-148.437500
136		-142.578125
137		-150.390625
138		-142.578125
139		-152.343750
140		-146.484375
141		-154.296875
142		-146.484375
143		-154.296875
144		-150.390625
145		-156.250000
146		-152.343750
147		-160.156250
148		-152.343750
149		-162.109375
150		-154.296875
151		-162.109375
152		-156.250000
153		-162.109375
154		-158.203125
155		-164.062500
156		-158.203125
157		-166.015625
158		-158.203125
159		-166.015625
160		-160.156250
161		-166.015625
162		-162.109375
163		-167.968750
164		-162.109375
165		-167.968750
166		-162.109375
167		-167.968750
168		-162.109375
169		-169.921875
170		-162.109375
171		-169.921875
172		-162.109375
173		-169.921875
174		-162.109375
175		-169.921875
176		-164.062500
177		-166.015625
178		-164.062500
179		-166.015625
180		-162.109375
181		-167.968750
182		-162.109375
183		-167.968750
184		-160.156250
185		-166.015625
186		-160.156250
187		-166.015625
188		-158.203125
189		-164.062500
190		-158.203125
191		-164.062500
192		-156.250000
193		-160.156250
194		-156.250000
195		-158.203125
196		-156.250000
197		-158.203125
198		-152.343750
199		-158.203125
200		-150.390625
201		-156.250000
202		-148.437500
203		-154.296875
204		-146.484375
205		-150.390625
206		-144.531250
207		-150.390625
208		-142.578125
209		-148.437500
210		-140.625000
211		-144.531250
212		-140.625000
213		-140.625000
214		-134.765625
215		-140.625000
216		-132.812500
217		-138.671875
218		-130.859375
219		-134.765625
220		-126.953125
221		-132.812500
222		-125.000000
223		-130.859375
224		-121.093750
225		-126.953125
226		-119.140625
227		-121.093750
228		-117.187500
229		-119.140625
230		-113.281250
231		-115.234375
232		-109.375000
233		-113.281250
234		-105.468750
235		-109.375000
236		-99.609375
237		-105.468750
238		-97.656250
239		-103.515625
240		-93.750000
241		-99.609375
242		-89.843750
243		-95.703125
244		-87.890625
245		-89.843750
246		-83.984375
247		-85.937500
248		-80.078125
249		-83.984375
250		-74.218750
251		-80.078125
252		-70.312500
253		-76.171875
254		-68.359375
255		-70.312500
256		-62.500000
257		-68.359375
258		-58.593750
259		-64.453125
260		-56.640625
261		-56.640625
262		-52.734375
263		-54.687500
264		-48.828125
265		-50.781250
266		-41.015625
267		-46.875000
268		-37.109375
269		-42.968750
270		-35.156250
271		-39.062500
272		-29.296875
273		-33.203125
274		-23.437500
275		-29.296875
276		-21.484375
277		-25.390625
278		-17.578125
279		-19.531250
280		-13.671875
281		-15.625000
282		-7.812500
283		-11.718750
284		-3.906250
285		-9.765625
286		0.000000
287		-3.906250
288		3.906250
289		0.000000
290		9.765625
291		3.906250
292		11.718750
293		7.812500
294		15.625000
295		13.671875
296		19.531250
297		17.578125
298		25.390625
299		19.531250
300		29.296875
301		23.437500
302		31.250000
303		27.343750
304		37.109375
305		31.250000
306		39.062500
307		35.156250
308		42.968750
309		39.062500
310		46.875000
311		44.921875
312		50.781250
313		48.828125
314		52.734375
315		50.781250
316		58.593750
317		54.687500
318		62.500000
319		56.640625
320		66.406250
321		60.546875
322		68.359375
323		64.453125
324		72.265625
325		68.359375
326		76.171875
327		72.265625
328		78.125000
329		76.171875
330		80.078125
331		78.125000
332		85.937500
333		80.078125
334		87.890625
335		83.984375
336		89.843750
337		85.937500
338		93.750000
339		89.843750
340		95.703125
341		91.796875
342		99.609375
343		95.703125
344		99.609375
345		97.656250
346		103.515625
347		101.562500
348		105.468750
349		101.562500
350		109.375000
351		103.515625
352		111.328125
353		105.468750
354		113.281250
355		109.375000
356		115.234375
357		111.328125
358		117.187500
359		111.328125
360		119.140625
361		115.234375
362		119.140625
363		119.140625
364		121.093750
365		119.140625
366		125.000000
367		119.140625
368		126.953125
369		121.093750
370		128.906250
371		123.046875
372		130.859375
373		125.000000
374		130.859375
375		125.000000
376		132.812500
377		126.953125
378		132.812500
379		130.859375
380		132.812500
381		130.859375
382		134.765625
383		130.859375
384		136.718750
385		130.859375
386		138.671875
387		132.812500
388		138.671875
389		132.812500
390		140.625000
391		132.812500
392		140.625000
393		134.765625
394		140.625000
395		136.718750
396		140.625000
397		138.671875
398		140.625000
399		136.718750
400		142.578125
401		136.718750
402		142.578125
403		136.718750
404		142.578125
405		136.718750
406		142.578125
407		136.718750
408		142.578125
409		136.718750
410		142.578125
411		138.671875
412		142.578125
413		138.671875
414		140.625000
415		136.718750
416		142.578125
417		134.765625
418		142.578125
419		134.765625
420		140.625000
421		134.765625
422		140.625000
423		132.812500
424		140.625000
425		132.812500
426		140.625000
427		132.812500
428		138.671875
429		132.812500
430		136.718750
431		132.812500
432		134.765625
433		128.906250
434		134.765625
435		128.906250
436		134.765625
437		126.953125
438		134.765625
439		125.000000
440		132.812500
441		123.046875
442		130.859375
443		123.046875
444		128.906250
445		123.046875
446		126.953125
447		121.093750
448		125.000000
449		117.187500
450		125.000000
451		117.187500
452		123.046875
453		113.281250
454		121.093750
455		111.328125
456		119.140625
457		109.375000
458		117.187500
459		107.421875
460		115.234375
461		105.468750
462		113.281250
463		103.515625
464		107.421875
465		99.609375
466		105.468750
467		97.656250
468		105.468750
469		93.750000
470		103.515625
471		91.796875
472		99.609375
473		89.843750
474		97.656250
475		87.890625
476		93.750000
477		83.984375
478		91.796875
479		82.031250
480		85.937500
481		80.078125
482		83.984375
483		74.218750
484		82.031250
485		72.265625
486		78.125000
487		66.406250
488		76.171875
489		64.453125
490		72.265625
491		60.546875
492		70.312500
493		58.593750
494		66.406250
495		56.640625
496		62.500000
497		50.781250
498		56.640625
499		46.875000
500		52.734375
501		42.968750
502		50.781250
503		39.062500
504		46.875000
505		37.109375
506		44.921875
507		31.250000
508		41.015625
509		27.343750
510		35.156250
511		25.390625
512		33.203125
513		21.484375
514		27.343750
515		17.578125
516		23.437500
517		11.718750
518		19.531250
519		7.812500
520		17.578125
521		3.906250
522		13.671875
523		0.000000
524		7.812500
525		-3.906250
526		3.906250
527		-9.765625
528		0.000000
529		-11.718750
530		-5.859375
531		-15.625000
532		-9.765625
533		-21.484375
534		-13.671875
535		-25.390625
536		-15.625000
537		-29.296875
538		-21.484375
539		-33.203125
540		-25.390625
541		-37.109375
542		-29.296875
543		-41.015625
544		-33.203125
545		-44.921875
546		-37.109375
547		-48.828125
548		-42.968750
549		-54.687500
550		-46.875000
551		-58.593750
552		-48.828125
553		-64.453125
554		-54.687500
555		-66.406250
556		-58.593750
557		-70.312500
558		-62.500000
559		-74.218750
560		-66.406250
561		-78.125000
562		-70.312500
563		-80.078125
564		-76.171875
565		-83.984375
566		-78.125000
567		-89.843750
568		-82.031250
569		-93.750000
570		-85.937500
571		-97.656250
572		-87.890625
573		-101.562500
574		-91.796875
575		-103.515625
576		-95.703125
577		-107.421875
578		-99.609375
579		-109.375000
580		-101.562500
581		-111.328125
582		-107.421875
583		-117.187500
584		-111.328125
585		-121.093750
586		-111.328125
587		-123.046875
588		-115.234375
589		-126.953125
590		-119.140625
591		-130.859375
592		-121.093750
593		-132.812500
594		-125.000000
595		-134.765625
596		-126.953125
597		-136.718750
598		-130.859375
599		-138.671875
600		-134.765625
601		-142.578125
602		-134.765625
603		-144.531250
604		-138.671875
605		-146.484375
606		-140.625000
607		-150.390625
608		-142.578125
609		-152.343750
610		-144.531250
611		-154.296875
612		-146.484375
613		-154.296875
614		-148.437500
615		-156.250000
616		-152.343750
617		-158.203125
618		-152.343750
619		-160.156250
620		-152.343750
621		-162.109375
622		-154.296875
623		-162.109375
624		-156.250000
625		-164.062500
626		-156.250000
627		-166.015625
628		-158.203125
629		-166.015625
630		-160.156250
631		-166.015625
632		-162.109375
633		-166.015625
634		-162.109375
635		-167.968750
636		-162.109375
637		-169.921875
638		-162.109375
639		-169.921875
640		-162.109375
641		-169.921875
642		-162.109375
643		-169.921875
644		-162.109375
645		-169.921875
646		-162.109375
647		-166.015625
648		-164.062500
649		-167.968750
650		-164.062500
651		-167.968750
652		-162.109375
653		-167.968750
654		-162.109375
655		-167.968750
656		-160.156250
657		-166.015625
658		-160.156250
659		-166.015625
660		-158.203125
661		-164.062500
662		-158.203125
663		-164.062500
664		-158.203125
665		-160.156250
666		-156.250000
667		-158.203125
668		-152.343750
669		-158.203125
670		-152.343750
671		-158.203125
672		-150.390625
673		-156.250000
674		-148.437500
675		-152.343750
676		-146.484375
677		-152.343750
678		-144.531250
679		-150.390625
680		-142.578125
681		-146.484375
682		-140.625000
683		-142.578125
684		-138.671875
685		-142.578125
686		-134.765625
687		-138.671875
688		-132.812500
689		-136.718750
690		-128.906250
691		-134.765625
692		-126.953125
693		-132.812500
694		-123.046875
695		-128.906250
696		-121.093750
697		-123.046875
698		-119.140625
699		-121.093750
700		-115.234375
701		-117.187500
702		-111.328125
703		-115.234375
704		-107.421875
705		-111.328125
706		-103.515625
707		-109.375000
708		-101.562500
709		-107.421875
710		-97.656250
711		-101.562500
712		-93.750000
713		-95.703125
714		-91.796875
715		-91.796875
716		-87.890625
717		-87.890625
718		-83.984375
719		-85.937500
720		-78.125000
721		-82.031250
722		-74.218750
723		-78.125000
724		-70.312500
725		-74.218750
726		-66.406250
727		-70.312500
728		-60.546875
729		-64.453125
730		-58.593750
731		-60.546875
732		-54.687500
733		-56.640625
734		-50.781250
735		-52.734375
736		-44.921875
737		-48.828125
738		-39.062500
739		-46.875000
740		-37.109375
741		-41.015625
742		-33.203125
743		-37.109375
744		-27.343750
745		-33.203125
746		-25.390625
747		-29.296875
748		-21.484375
749		-23.437500
750		-17.578125
751		-19.531250
752		-9.765625
753		-15.625000
754		-7.812500
755		-13.671875
756		-1.953125
757		-7.812500
758		1.953125
759		-1.953125
760		5.859375
761		0.000000
762		9.765625
763		3.906250
764		11.718750
765		9.765625
766		15.625000
767		15.625000
768		21.484375
769		17.578125
770		25.390625
771		19.531250
772		29.296875
773		25.390625
774		35.156250
775		29.296875
776		37.109375
777		33.203125
778		41.015625
779		37.109375
780		44.921875
781		41.015625
782		46.875000
783		44.921875
784		50.781250
785		48.828125
786		54.687500
787		52.734375
788		60.546875
789		54.687500
790		64.453125
791		58.593750
792		66.406250
793		60.546875
794		70.312500
795		66.406250
796		74.218750
797		68.359375
798		74.218750
799		74.218750
800		78.125000
801		76.171875
802		82.031250
803		78.125000
804		85.937500
805		80.078125
806		89.843750
807		83.984375
808		91.796875
809		85.937500
810		95.703125
811		89.843750
812		97.656250
813		91.796875
814		99.609375
815		95.703125
816		101.562500
817		99.609375
818		103.515625
819		101.562500
820		107.421875
821		103.515625
822		109.375000
823		105.468750
824		111.328125
825		107.421875
826		115.234375
827		111.328125
828		117.187500
829		111.328125
830		117.187500
831		113.281250
832		119.140625
833		117.187500
834		121.093750
835		119.140625
836		125.000000
837		119.140625
838		126.953125
839		121.093750
840		128.906250
841		123.046875
842		128.906250
843		123.046875
844		130.859375
845		125.000000
846		132.812500
847		126.953125
848		132.812500
849		130.859375
850		132.812500
851		130.859375
852		134.765625
853		130.859375
854		136.718750
855		130.859375
856		138.671875
857		132.812500
858		138.671875
859		132.812500
860		140.625000
861		134.765625
862		140.625000
863		134.765625
864		140.625000
865		136.718750
866		140.625000
867		138.671875
868		140.625000
869		136.718750
870		142.578125
871		136.718750
872		142.578125
873		136.718750
874		144.531250
875		136.718750
876		144.531250
877		136.718750
878		144.531250
879		136.718750
880		144.531250
881		136.718750
882		144.531250
883		138.671875
884		142.578125
885		138.671875
886		140.625000
887		136.718750
888		142.578125
889		136.718750
890		142.578125
891		136.718750
892		142.578125
893		134.765625
894		142.578125
895		134.765625
896		140.625000
897		132.812500
898		140.625000
899		134.765625
900		138.671875
901		134.765625
902		136.718750
903		130.859375
904		136.718750
905		128.906250
906		136.718750
907		128.906250
908		134.765625
909		126.953125
910		134.765625
911		125.000000
912		132.812500
913		125.000000
914		130.859375
915		125.000000
916		128.906250
917		123.046875
918		126.953125
919		119.140625
920		125.000000
921		117.187500
922		125.000000
923		115.234375
924		123.046875
925		113.281250
926		121.093750
927		111.328125
928		119.140625
929		109.375000
930		117.187500
931		107.421875
932		115.234375
933		107.421875
934		111.328125
935		103.515625
936		109.375000
937		99.609375
938		107.421875
939		97.656250
940		105.468750
941		95.703125
942		103.515625
943		93.750000
944		99.609375
945		89.843750
946		97.656250
947		85.937500
948		93.750000
949		85.937500
950		89.843750
951		82.031250
952		87.890625
953		78.125000
954		83.984375
955		74.218750
956		82.031250
957		70.312500
958		80.078125
959		68.359375
960		76.171875
961		64.453125
962		72.265625
963		60.546875
964		68.359375
965		58.593750
966		66.406250
967		54.687500
968		60.546875
969		50.781250
970		56.640625
971		46.875000
972		54.687500
973		42.968750
974		50.781250
975		39.062500
976		48.828125
977		35.156250
978		42.968750
979		33.203125
980		39.062500
981		29.296875
982		35.156250
983		25.390625
984		31.250000
985		21.484375
986		27.343750
987		15.625000
988		23.437500
989		11.718750
990		21.484375
991		7.812500
992		17.578125
993		1.953125
994		11.718750
995		-1.953125
996		7.812500
997		-3.906250
998		3.906250
999		-7.812500
1000		0.000000
1001		-11.718750
1002		-5.859375
1003		-17.578125
1004		-9.765625
1005		-21.484375
1006		-11.718750
1007		-25.390625
1008		-15.625000
1009		-29.296875
1010		-21.484375
1011		-33.203125
1012		-23.437500
1013		-37.109375
1014		-27.343750
1015		-41.015625
1016		-33.203125
1017		-44.921875
1018		-39.062500
1019		-48.828125
1020		-42.968750
1021		-54.687500
1022		-46.875000
1023		-58.593750
1024		-48.828125
1025		-62.500000
1026		-54.687500
1027		-66.406250
1028		-58.593750
1029		-70.312500
1030		-62.500000
1031		-74.218750
1032		-66.406250
1033		-76.171875
1034		-68.359375
1035		-80.078125
1036		-74.218750
1037		-85.937500
1038		-78.125000
1039		-89.843750
1040		-82.031250
1041		-93.750000
1042		-85.937500
1043		-95.703125
1044		-87.890625
1045		-101.562500
1046		-91.796875
1047		-103.515625
1048		-95.703125
1049		-105.468750
1050		-97.656250
1051		-109.375000
1052		-103.515625
1053		-111.328125
1054		-107.421875
1055		-117.187500
1056		-109.375000
1057		-121.093750
1058		-113.281250
1059		-123.046875
1060		-115.234375
1061		-126.953125
1062		-119.140625
1063		-128.906250
1064		-121.093750
1065		-130.859375
1066		-125.000000
1067		-132.812500
1068		-128.906250
1069		-136.718750
1070		-130.859375
1071		-140.625000
1072		-134.765625
1073		-142.578125
1074		-134.765625
1075		-144.531250
1076		-136.718750
1077		-146.484375
1078		-140.625000
1079		-148.437500
1080		-142.578125
1081		-152.343750
1082		-144.531250
1083		-152.343750
1084		-146.484375
1085		-154.296875
1086		-150.390625
1087		-156.250000
1088		-150.390625
1089		-158.203125
1090		-152.343750
1091		-160.156250
1092		-152.343750
1093		-162.109375
1094		-154.296875
1095		-164.062500
1096		-156.250000
1097		-164.062500
1098		-156.250000
1099		-164.062500
1100		-158.203125
1101		-164.062500
1102		-160.156250
1103		-164.062500
1104		-162.109375
1105		-167.968750
1106		-162.109375
1107		-167.968750
1108		-162.109375
1109		-167.968750
1110		-162.109375
1111		-169.921875
1112		-162.109375
1113		-167.968750
1114		-162.109375
1115		-169.921875
1116		-162.109375
1117		-166.015625
1118		-164.062500
1119		-166.015625
1120		-164.062500
1121		-167.968750
1122		-162.109375
1123		-167.968750
1124		-160.156250
1125		-167.968750
1126		-160.156250
1127		-166.015625
1128		-160.156250
1129		-166.015625
1130		-158.203125
1131		-164.062500
1132		-158.203125
1133		-162.109375
1134		-156.250000
1135		-160.156250
1136		-158.203125
1137		-160.156250
1138		-156.250000
1139		-160.156250
1140		-152.343750
1141		-158.203125
1142		-150.390625
1143		-156.250000
1144		-148.437500
1145		-154.296875
1146		-146.484375
1147		-152.343750
1148		-146.484375
1149		-150.390625
1150		-142.578125
1151		-148.437500
1152		-142.578125
1153		-144.531250
1154		-140.625000
1155		-142.578125
1156		-136.718750
1157		-142.578125
1158		-132.812500
1159		-138.671875
1160		-130.859375
1161		-134.765625
1162		-128.906250
1163		-134.765625
1164		-125.000000
1165		-130.859375
1166		-123.046875
1167		-126.953125
1168		-121.093750
1169		-123.046875
1170		-117.187500
1171		-119.140625
1172		-113.281250
1173		-119.140625
1174		-109.375000
1175		-115.234375
1176		-105.468750
1177		-111.328125
1178		-101.562500
1179		-105.468750
1180		-99.609375
1181		-103.515625
1182		-95.703125
1183		-99.609375
1184		-91.796875
1185		-95.703125
1186		-89.843750
1187		-91.796875
1188		-85.937500
1189		-87.890625
1190		-80.078125
1191		-83.984375
1192		-76.171875
1193		-82.031250
1194		-72.265625
1195		-78.125000
1196		-68.359375
1197		-72.265625
1198		-64.453125
1199		-68.359375
1200		-60.546875
1201		-66.406250
1202		-56.640625
1203		-58.593750
1204		-52.734375
1205		-54.687500
1206		-48.828125
1207		-50.781250
1208		-42.968750
1209		-48.828125
1210		-39.062500
1211		-44.921875
1212		-35.156250
1213		-39.062500
1214		-29.296875
1215		-35.156250
1216		-25.390625
1217		-31.250000
1218		-23.437500
1219		-25.390625
1220		-19.531250
1221		-21.484375
1222		-15.625000
1223		-17.578125
1224		-9.765625
1225		-13.671875
1226		-5.859375
1227		-9.765625
1228		-1.953125
1229		-5.859375
1230		3.906250
1231		-1.953125
1232		5.859375
1233		1.953125
1234		11.718750
1235		7.812500
1236		13.671875
1237		11.718750
1238		17.578125
1239		15.625000
1240		23.437500
1241		17.578125
1242		27.343750
1243		21.484375
1244		31.250000
1245		27.343750
1246		35.156250
1247		31.250000
1248		39.062500
1249		33.203125
1250		42.968750
1251		37.109375
1252		44.921875
1253		42.968750
1254		48.828125
1255		46.875000
1256		54.687500
1257		48.828125
1258		58.593750
1259		52.734375
1260		60.546875
1261		56.640625
1262		64.453125
1263		58.593750
1264		68.359375
1265		62.500000
1266		72.265625
1267		66.406250
1268		74.218750
1269		72.265625
1270		76.171875
1271		74.218750
1272		80.078125
1273		76.171875
1274		83.984375
1275		78.125000
1276		85.937500
1277		82.031250
1278		89.843750
1279		85.937500
1280		93.750000
1281		87.890625
1282		95.703125
1283		91.796875
1284		97.656250
1285		93.750000
1286		99.609375
1287		97.656250
1288		101.562500
1289		101.562500
1290		105.468750
1291		101.562500
1292		109.375000
1293		103.515625
1294		111.328125
1295		105.468750
1296		113.281250
1297		109.375000
1298		115.234375
1299		111.328125
1300		117.187500
1301		113.281250
1302		119.140625
1303		115.234375
1304		121.093750
1305		119.140625
1306		121.093750
1307		119.140625
1308		126.953125
1309		119.140625
1310		126.953125
1311		121.093750
1312		128.906250
1313		123.046875
1314		130.859375
1315		125.000000
1316		132.812500
1317		125.000000
1318		132.812500
1319		128.906250
1320		132.812500
1321		130.859375
1322		134.765625
1323		130.859375
1324		136.718750
1325		130.859375
1326		138.671875
1327		130.859375
1328		138.671875
1329		132.812500
1330		138.671875
1331		132.812500
1332		140.625000
1333		134.765625
1334		140.625000
1335		134.765625
1336		142.578125
1337		136.718750
1338		140.625000
1339		138.671875
1340		140.625000
1341		136.718750
1342		142.578125
1343		136.718750
1344		142.578125
1345		136.718750
1346		142.578125
1347		136.718750
1348		144.531250
1349		136.718750
1350		144.531250
1351		136.718750
1352		144.531250
1353		138.671875
1354		142.578125
1355		138.671875
1356		140.625000
1357		136.718750
1358		142.578125
1359		136.718750
1360		142.578125
1361		134.765625
1362		142.578125
1363		134.765625
1364		142.578125
1365		134.765625
1366		140.625000
1367		132.812500
1368		140.625000
1369		134.765625
1370		140.625000
1371		134.765625
1372		136.718750
1373		132.812500
1374		138.671875
1375		130.859375
1376		136.718750
1377		128.906250
1378		136.718750
1379		128.906250
1380		134.765625
1381		126.953125
1382		132.812500
1383		126.953125
1384		132.812500
1385		123.046875
1386		130.859375
1387		125.000000
1388		128.906250
1389		123.046875
1390		126.953125
1391		119.140625
1392		126.953125
1393		117.187500
1394		125.000000
1395		115.234375
1396		123.046875
1397		113.281250
1398		121.093750
1399		111.328125
1400		119.140625
1401		109.375000
1402		117.187500
1403		109.375000
1404		113.281250
1405		105.468750
1406		111.328125
1407		101.562500
1408		109.375000
1409		99.609375
1410		107.421875
1411		97.656250
1412		105.468750
1413		95.703125
1414		103.515625
1415		91.796875
1416		99.609375
1417		87.890625
1418		95.703125
1419		87.890625
1420		93.750000
1421		83.984375
1422		89.843750
1423		82.031250
1424		85.937500
1425		76.171875
1426		83.984375
1427		74.218750
1428		82.031250
1429		70.312500
1430		78.125000
1431		66.406250
1432		74.218750
1433		62.500000
1434		72.265625
1435		60.546875
1436		68.359375
1437		58.593750
1438		62.500000
1439		54.687500
1440		60.546875
1441		48.828125
1442		56.640625
1443		44.921875
1444		54.687500
1445		42.968750
1446		50.781250
1447		37.109375
1448		46.875000
1449		35.156250
1450		42.968750
1451		31.250000
1452		39.062500
1453		29.296875
1454		35.156250
1455		23.437500
1456		29.296875
1457		19.531250
1458		25.390625
1459		15.625000
1460		23.437500
1461		11.718750
1462		19.531250
1463		5.859375
1464		15.625000
1465		1.953125
1466		9.765625
1467		-1.953125
1468		7.812500
1469		-5.859375
1470		3.906250
1471		-7.812500
1472		-1.953125
1473		-11.718750
1474		-5.859375
1475		-17.578125
1476		-9.765625
1477		-23.437500
1478		-13.671875
1479		-27.343750
1480		-17.578125
1481		-31.250000
1482		-21.484375
1483		-35.156250
1484		-27.343750
1485		-39.062500
1486		-31.250000
1487		-41.015625
1488		-35.156250
1489		-44.921875
1490		-39.062500
1491		-52.734375
1492		-44.921875
1493		-56.640625
1494		-46.875000
1495		-60.546875
1496		-50.781250
1497		-64.453125
1498		-54.687500
1499		-68.359375
1500		-58.593750
1501		-72.265625
1502		-62.500000
1503		-74.218750
1504		-66.406250
1505		-78.125000
1506		-72.265625
1507		-82.031250
1508		-76.171875
1509		-87.890625
1510		-78.125000
1511		-89.843750
1512		-82.031250
1513		-93.750000
1514		-85.937500
1515		-97.656250
1516		-89.843750
1517		-101.562500
1518		-93.750000
1519		-105.468750
1520		-95.703125
1521		-107.421875
1522		-99.609375
1523		-109.375000
1524		-105.468750
1525		-115.234375
1526		-107.421875
1527		-117.187500
1528		-109.375000
1529		-121.093750
1530		-113.281250
1531		-125.000000
1532		-117.187500
1533		-126.953125
1534		-119.140625
1535		-130.859375
1536		-123.046875
1537		-130.859375
1538		-125.000000
1539		-134.765625
1540		-130.859375
1541		-138.671875
1542		-132.812500
1543		-140.625000
1544		-132.812500
1545		-144.531250
1546		-136.718750
1547		-146.484375
1548		-138.671875
1549		-148.437500
1550		-140.625000
1551		-150.390625
1552		-142.578125
1553		-152.343750
1554		-144.531250
1555		-152.343750
1556		-148.437500
1557		-154.296875
1558		-150.390625
1559		-158.203125
1560		-150.390625
1561		-160.156250
1562		-152.343750
1563		-162.109375
1564		-154.296875
1565		-162.109375
1566		-156.250000
1567		-164.062500
1568		-156.250000
1569		-166.015625
1570		-158.203125
1571		-164.062500
1572		-160.156250
1573		-164.062500
1574		-162.109375
1575		-167.968750
1576		-162.109375
1577		-167.968750
1578		-160.156250
1579		-167.968750
1580		-162.109375
1581		-167.968750
1582		-162.109375
1583		-169.921875
1584		-162.109375
1585		-169.921875
1586		-162.109375
1587		-169.921875
1588		-162.109375
1589		-167.968750
1590		-164.062500
1591		-166.015625
1592		-164.062500
1593		-167.968750
1594		-162.109375
1595		-167.968750
1596		-162.109375
1597		-167.968750
1598		-160.156250
1599		-166.015625
1600		-160.156250
1601		-166.015625
1602		-158.203125
1603		-164.062500
1604		-158.203125
1605		-162.109375
1606		-158.203125
1607		-160.156250
1608		-156.250000
1609		-160.156250
1610		-154.296875
1611		-160.156250
1612		-152.343750
1613		-158.203125
1614		-150.390625
1615		-156.250000
1616		-148.437500
1617		-154.296875
1618		-146.484375
1619		-152.343750
1620		-144.531250
1621		-150.390625
1622		-144.531250
1623		-146.484375
1624		-142.578125
1625		-144.531250
1626		-136.718750
1627		-142.578125
1628		-136.718750
1629		-140.625000
1630		-132.812500
1631		-136.718750
1632		-130.859375
1633		-136.718750
1634		-126.953125
1635		-132.812500
1636		-125.000000
1637		-130.859375
1638		-121.093750
1639		-125.000000
1640		-119.140625
1641		-121.093750
1642		-117.187500
1643		-119.140625
1644		-111.328125
1645		-117.187500
1646		-107.421875
1647		-113.281250
1648		-105.468750
1649		-111.328125
1650		-101.562500
1651		-105.468750
1652		-97.656250
1653		-103.515625
1654		-93.750000
1655		-97.656250
1656		-91.796875
1657		-93.750000
1658		-87.890625
1659		-89.843750
1660		-83.984375
1661		-85.937500
1662		-80.078125
1663		-82.031250
1664		-76.171875
1665		-80.078125
1666		-72.265625
1667		-74.218750
1668		-68.359375
1669		-70.312500
1670		-62.500000
1671		-68.359375
1672		-60.546875
1673		-62.500000
1674		-56.640625
1675		-58.593750
1676		-52.734375
1677		-54.687500
1678		-46.875000
1679		-50.781250
1680		-42.968750
1681		-48.828125
1682		-39.062500
1683		-42.968750
1684		-33.203125
1685		-39.062500
1686		-29.296875
1687		-35.156250
1688		-25.390625
1689		-29.296875
1690		-23.437500
1691		-23.437500
1692		-19.531250
1693		-19.531250
1694		-11.718750
1695		-17.578125
1696		-7.812500
1697		-13.671875
1698		-3.906250
1699		-9.765625
1700		0.000000
1701		-3.906250
1702		3.906250
1703		-1.953125
1704		7.812500
1705		3.906250
1706		11.718750
1707		9.765625
1708		15.625000
1709		13.671875
1710		21.484375
1711		15.625000
1712		23.437500
1713		19.531250
1714		29.296875
1715		23.437500
1716		31.250000
1717		27.343750
1718		37.109375
1719		31.250000
1720		39.062500
1721		35.156250
1722		42.968750
1723		41.015625
1724		46.875000
1725		44.921875
1726		50.781250
1727		46.875000
1728		54.687500
1729		50.781250
1730		58.593750
1731		52.734375
1732		62.500000
1733		56.640625
1734		66.406250
1735		60.546875
1736		70.312500
1737		64.453125
1738		72.265625
1739		68.359375
1740		74.218750
1741		72.265625
1742		76.171875
1743		74.218750
1744		82.031250
1745		76.171875
1746		83.984375
1747		80.078125
1748		87.890625
1749		82.031250
1750		91.796875
1751		85.937500
1752		93.750000
1753		87.890625
1754		95.703125
1755		91.796875
1756		97.656250
1757		95.703125
1758		99.609375
1759		97.656250
1760		103.515625
1761		99.609375
1762		107.421875
1763		101.562500
1764		109.375000
1765		103.515625
1766		111.328125
1767		107.421875
1768		113.281250
1769		107.421875
1770		115.234375
1771		111.328125
1772		117.187500
1773		113.281250
1774		119.140625
1775		117.187500
1776		121.093750
1777		117.187500
1778		125.000000
1779		119.140625
1780		125.000000
1781		121.093750
1782		126.953125
1783		121.093750
1784		128.906250
1785		123.046875
1786		130.859375
1787		125.000000
1788		130.859375
1789		126.953125
1790		132.812500
1791		128.906250
1792		132.812500
1793		130.859375
1794		134.765625
1795		128.906250
1796		136.718750
1797		130.859375
1798		138.671875
1799		130.859375
1800		138.671875
1801		132.812500
1802		138.671875
1803		132.812500
1804		140.625000
1805		134.765625
1806		140.625000
1807		136.718750
1808		138.671875
1809		136.718750
1810		140.625000
1811		136.718750
1812		142.578125
1813		136.718750
1814		142.578125
1815		136.718750
1816		142.578125
1817		136.718750
1818		144.531250
1819		136.718750
1820		142.578125
1821		136.718750
1822		142.578125
1823		138.671875
1824		144.531250
1825		138.671875
1826		140.625000
1827		138.671875
1828		142.578125
1829		136.718750
1830		142.578125
1831		136.718750
1832		142.578125
1833		136.718750
1834		142.578125
1835		134.765625
1836		140.625000
1837		132.812500
1838		140.625000
1839		134.765625
1840		140.625000
1841		134.765625
1842		138.671875
1843		134.765625
1844		136.718750
1845		130.859375
1846		138.671875
1847		130.859375
1848		136.718750
1849		128.906250
1850		136.718750
1851		126.953125
1852		134.765625
1853		126.953125
1854		132.812500
1855		125.000000
1856		132.812500
1857		125.000000
1858		128.906250
1859		123.046875
1860		126.953125
1861		121.093750
1862		125.000000
1863		119.140625
1864		125.000000
1865		117.187500
1866		123.046875
1867		113.281250
1868		123.046875
1869		113.281250
1870		121.093750
1871		111.328125
1872		117.187500
1873		109.375000
1874		115.234375
1875		107.421875
1876		111.328125
1877		103.515625
1878		109.375000
1879		101.562500
1880		109.375000
1881		99.609375
1882		107.421875
1883		95.703125
1884		103.515625
1885		93.750000
1886		101.562500
1887		89.843750
1888		99.609375
1889		87.890625
1890		95.703125
1891		85.937500
1892		91.796875
1893		83.984375
1894		87.890625
1895		78.125000
1896		85.937500
1897		76.171875
1898		83.984375
1899		74.218750
1900		80.078125
1901		70.312500
1902		78.125000
1903		64.453125
1904		74.218750
1905		62.500000
1906		70.312500
1907		60.546875
1908		66.406250
1909		56.640625
1910		62.500000
1911		52.734375
1912		58.593750
1913		46.875000
1914		56.640625
1915		44.921875
1916		52.734375
1917		41.015625
1918		48.828125
1919		37.109375
1920		44.921875
1921		33.203125
1922		42.968750
1923		29.296875
1924		37.109375
1925		27.343750
1926		33.203125
1927		23.437500
1928		27.343750
1929		15.625000
1930		25.390625
1931		11.718750
1932		21.484375
1933		7.812500
1934		17.578125
1935		3.906250
1936		13.671875
1937		1.953125
1938		9.765625
1939		-3.906250
1940		5.859375
1941		-5.859375
1942		1.953125
1943		-9.765625
1944		-3.906250
1945		-15.625000
1946		-7.812500
1947		-19.531250
1948		-11.718750
1949		-25.390625
1950		-15.625000
1951		-29.296875
1952		-19.531250
1953		-33.203125
1954		-23.437500
1955		-35.156250
1956		-27.343750
1957		-39.062500
1958		-33.203125
1959		-42.968750
1960		-37.109375
1961		-48.828125
1962		-42.968750
1963		-52.734375
1964		-44.921875
1965		-58.593750
1966		-48.828125
1967		-62.500000
1968		-50.781250
1969		-66.406250
1970		-56.640625
1971		-70.312500
1972		-60.546875
1973		-72.265625
1974		-64.453125
1975		-76.171875
1976		-70.312500
1977		-80.078125
1978		-74.218750
1979		-85.937500
1980		-78.125000
1981		-87.890625
1982		-80.078125
1983		-91.796875
1984		-83.984375
1985		-97.656250
1986		-85.937500
1987		-99.609375
1988		-91.796875
1989		-103.515625
1990		-93.750000
1991		-105.468750
1992		-99.609375
1993		-107.421875
1994		-103.515625
1995		-113.281250
1996		-107.421875
1997		-117.187500
1998		-107.421875
1999		-119.140625
2000		-111.328125
2001		-123.046875
2002		-115.234375
2003		-126.953125
2004		-117.187500
2005		-126.953125
2006		-121.093750
2007		-130.859375
2008		-123.046875
2009		-132.812500
2010		-128.906250
2011		-134.765625
2012		-130.859375
2013		-138.671875
2014		-132.812500
2015		-142.578125
2016		-134.765625
2017		-144.531250
2018		-136.718750
2019		-146.484375
2020		-138.671875
2021		-148.437500
2022		-140.625000
2023		-150.390625
2024		-142.578125
2025		-152.343750
2026		-146.484375
2027		-152.343750
2028		-148.437500
2029		-156.250000
2030		-150.390625
2031		-158.203125
2032		-150.390625
2033		-160.156250
2034		-152.343750
2035		-162.109375
2036		-154.296875
2037		-162.109375
2038		-154.296875
2039		-164.062500
2040		-156.250000
2041		-164.062500
2042		-158.203125
2043		-164.062500
2044		-160.156250
2045		-166.015625
2046		-162.109375
2047		-167.968750
2048		-160.156250
2049		-167.968750
2050		-160.156250
2051		-167.968750
2052		-162.109375
2053		-167.968750
2054		-162.109375
2055		-169.921875
2056		-162.109375
2057		-169.921875
2058		-162.109375
2059		-167.968750
2060		-164.062500
2061		-166.015625
2062		-164.062500
2063		-167.968750
2064		-162.109375
2065		-167.968750
2066		-160.156250
2067		-167.968750
2068		-162.109375
2069		-166.015625
2070		-160.156250
2071		-166.015625
2072		-158.203125
2073		-166.015625
2074		-158.203125
2075		-164.062500
2076		-158.203125
2077		-160.156250
2078		-158.203125
2079		-160.156250
2080		-154.296875
2081		-160.156250
2082		-152.343750
2083		-158.203125
2084		-150.390625
2085		-156.250000
2086		-150.390625
2087		-156.250000
2088		-146.484375
2089		-154.296875
2090		-146.484375
2091		-152.343750
2092		-142.578125
2093		-146.484375
2094		-142.578125
2095		-144.531250
2096		-140.625000
2097		-144.531250
2098		-136.718750
2099		-140.625000
2100		-134.765625
2101		-138.671875
2102		-132.812500
2103		-136.718750
2104		-128.906250
2105		-134.765625
2106		-126.953125
2107		-132.812500
2108		-123.046875
2109		-126.953125
2110		-123.046875
2111		-123.046875
2112		-119.140625
2113		-121.093750
2114		-113.281250
2115		-117.187500
2116		-109.375000
2117		-115.234375
2118		-107.421875
2119		-111.328125
2120		-103.515625
2121		-109.375000
2122		-99.609375
2123		-105.468750
2124		-97.656250
2125		-101.562500
2126		-93.750000
2127		-95.703125
2128		-89.843750
2129		-91.796875
2130		-85.937500
2131		-89.843750
2132		-82.031250
2133		-87.890625
2134		-78.125000
2135		-82.031250
2136		-74.218750
2137		-78.125000
2138		-68.359375
2139		-74.218750
2140		-64.453125
2141		-70.312500
2142		-60.546875
2143		-66.406250
2144		-58.593750
2145		-60.546875
2146		-54.687500
2147		-56.640625
2148		-48.828125
2149		-54.687500
2150		-44.921875
2151		-48.828125
2152		-41.015625
2153		-44.921875
2154		-35.156250
2155		-41.015625
2156		-33.203125
2157		-37.109375
2158		-27.343750
2159		-33.203125
2160		-25.390625
2161		-27.343750
2162		-21.484375
2163		-23.437500
2164		-15.625000
2165		-19.531250
2166		-11.718750
2167		-17.578125
2168		-7.812500
2169		-11.718750
2170		-1.953125
2171		-7.812500
2172		1.953125
2173		-1.953125
2174		5.859375
2175		0.000000
2176		9.765625
2177		5.859375
2178		11.718750
2179		11.718750
2180		15.625000
2181		13.671875
2182		21.484375
2183		17.578125
2184		27.343750
2185		21.484375
2186		31.250000
2187		25.390625
2188		33.203125
2189		27.343750
2190		39.062500
2191		33.203125
2192		41.015625
2193		37.109375
2194		44.921875
2195		42.968750
2196		46.875000
2197		46.875000
2198		52.734375
2199		48.828125
2200		56.640625
2201		50.781250
2202		60.546875
2203		54.687500
2204		62.500000
2205		58.593750
2206		66.406250
2207		62.500000
2208		70.312500
2209		64.453125
2210		72.265625
2211		70.312500
2212		74.218750
2213		74.218750
2214		78.125000
2215		76.171875
2216		83.984375
2217		78.125000
2218		85.937500
2219		82.031250
2220		89.843750
2221		83.984375
2222		91.796875
2223		87.890625
2224		95.703125
2225		89.843750
2226		97.656250
2227		91.796875
2228		97.656250
2229		97.656250
2230		101.562500
2231		99.609375
2232		105.468750
2233		99.609375
2234		107.421875
2235		101.562500
2236		109.375000
2237		105.468750
2238		111.328125
2239		107.421875
2240		115.234375
2241		109.375000
2242		117.187500
2243		111.328125
2244		117.187500
2245		115.234375
2246		119.140625
2247		117.187500
2248		123.046875
2249		117.187500
2250		123.046875
2251		119.140625
2252		126.953125
2253		121.093750
2254		126.953125
2255		123.046875
2256		128.906250
2257		123.046875
2258		130.859375
2259		125.000000
2260		130.859375
2261		128.906250
2262		130.859375
2263		128.906250
2264		132.812500
2265		128.906250
2266		136.718750
2267		130.859375
2268		136.718750
2269		130.859375
2270		138.671875
2271		130.859375
2272		138.671875
2273		132.812500
2274		140.625000
2275		132.812500
2276		140.625000
2277		134.765625
2278		140.625000
2279		136.718750
2280		138.671875
2281		134.765625
2282		142.578125
2283		134.765625
2284		142.578125
2285		136.718750
2286		142.578125
2287		136.718750
2288		142.578125
2289		136.718750
2290		142.578125
2291		136.718750
2292		142.578125
2293		136.718750
2294		144.531250
2295		138.671875
2296		140.625000
2297		138.671875
2298		140.625000
2299		136.718750
2300		144.531250
2301		134.765625
2302		142.578125
2303		136.718750
2304		142.578125
2305		134.765625
2306		142.578125
2307		134.765625
2308		142.578125
2309		132.812500
2310		140.625000
2311		134.765625
2312		140.625000
2313		134.765625
2314		136.718750
2315		130.859375
2316		138.671875
2317		130.859375
2318		136.718750
2319		128.906250
2320		136.718750
2321		126.953125
2322		134.765625
2323		126.953125
2324		132.812500
2325		125.000000
2326		132.812500
2327		125.000000
2328		130.859375
2329		125.000000
2330		126.953125
2331		121.093750
2332		126.953125
2333		119.140625
2334		126.953125
2335		117.187500
2336		125.000000
2337		115.234375
2338		123.046875
2339		113.281250
2340		121.093750
2341		111.328125
2342		119.140625
2343		109.375000
2344		117.187500
2345		109.375000
2346		113.281250
2347		107.421875
2348		111.328125
2349		103.515625
2350		109.375000
2351		99.609375
2352		107.421875
2353		95.703125
2354		105.468750
2355		95.703125
2356		103.515625
2357		91.796875
2358		99.609375
2359		89.843750
2360		97.656250
2361		87.890625
2362		93.750000
2363		85.937500
2364		89.843750
2365		82.031250
2366		87.890625
2367		78.125000
2368		85.937500
2369		74.218750
2370		82.031250
2371		70.312500
2372		78.125000
2373		68.359375
2374		76.171875
2375		64.453125
2376		74.218750
2377		62.500000
2378		70.312500
2379		58.593750
2380		64.453125
2381		54.687500
2382		60.546875
2383		50.781250
2384		58.593750
2385		46.875000
2386		54.687500
2387		41.015625
2388		50.781250
2389		39.062500
2390		46.875000
2391		35.156250
2392		42.968750
2393		31.250000
2394		41.015625
2395		29.296875
2396		35.156250
2397		25.390625
2398		31.250000
2399		19.531250
2400		27.343750
2401		15.625000
2402		23.437500
2403		11.718750
2404		21.484375
2405		7.812500
2406		15.625000
2407		3.906250
2408		11.718750
2409		-1.953125
2410		7.812500
2411		-3.906250
2412		3.906250
2413		-7.812500
2414		-1.953125
2415		-13.671875
2416		-5.859375
2417		-17.578125
2418		-7.812500
2419		-21.484375
2420		-11.718750
2421		-25.390625
2422		-17.578125
2423		-29.296875
2424		-21.484375
2425		-35.156250
2426		-25.390625
2427		-39.062500
2428		-29.296875
2429		-41.015625
2430		-35.156250
2431		-44.921875
2432		-39.062500
2433		-50.781250
2434		-42.968750
2435		-54.687500
2436		-46.875000
2437		-60.546875
2438		-50.781250
2439		-62.500000
2440		-54.687500
2441		-66.406250
2442		-58.593750
2443		-72.265625
2444		-62.500000
2445		-74.218750
2446		-66.406250
2447		-76.171875
2448		-72.265625
2449		-83.984375
2450		-76.171875
2451		-87.890625
2452		-78.125000
2453		-89.843750
2454		-82.031250
2455		-93.750000
2456		-83.984375
2457		-97.656250
2458		-89.843750
2459		-101.562500
2460		-93.750000
2461		-103.515625
2462		-95.703125
2463		-105.468750
2464		-101.562500
2465		-109.375000
2466		-105.468750
2467		-115.234375
2468		-107.421875
2469		-117.187500
2470		-109.375000
2471		-121.093750
2472		-113.281250
2473		-125.000000
2474		-117.187500
2475		-126.953125
2476		-119.140625
2477		-130.859375
2478		-123.046875
2479		-130.859375
2480		-125.000000
2481		-134.765625
2482		-128.906250
2483		-138.671875
2484		-132.812500
2485		-140.625000
2486		-132.812500
2487		-142.578125
2488		-136.718750
2489		-146.484375
2490		-138.671875
2491		-148.437500
2492		-140.625000
2493		-150.390625
2494		-142.578125
2495		-150.390625
2496		-144.531250
2497		-152.343750
2498		-148.437500
2499		-154.296875
2500		-150.390625
2501		-156.250000
2502		-150.390625
2503		-158.203125
2504		-152.343750
2505		-160.156250
2506		-152.343750
2507		-162.109375
2508		-154.296875
2509		-162.109375
2510		-154.296875
2511		-164.062500
2512		-158.203125
2513		-162.109375
2514		-158.203125
2515		-164.062500
2516		-160.156250
2517		-166.015625
2518		-160.156250
2519		-167.968750
2520		-160.156250
2521		-166.015625
2522		-160.156250
2523		-167.968750
2524		-160.156250
2525		-167.968750
2526		-160.156250
2527		-167.968750
2528		-162.109375
2529		-167.968750
2530		-162.109375
2531		-166.015625
2532		-162.109375
2533		-167.968750
2534		-160.156250
2535		-167.968750
2536		-160.156250
2537		-166.015625
2538		-160.156250
2539		-167.968750
2540		-160.156250
2541		-166.015625
2542		-158.203125
2543		-164.062500
2544		-158.203125
2545		-164.062500
2546		-156.250000
2547		-160.156250
2548		-156.250000
2549		-158.203125
2550		-156.250000
2551		-160.156250
2552		-152.343750
2553		-158.203125
2554		-150.390625
2555		-158.203125
2556		-150.390625
2557		-154.296875
2558		-148.437500
2559		-152.343750
2560		-146.484375
2561		-152.343750
2562		-142.578125
2563		-150.390625
2564		-142.578125
2565		-144.531250
2566		-140.625000
2567		-144.531250
2568		-136.718750
2569		-142.578125
2570		-134.765625
2571		-140.625000
2572		-130.859375
2573		-138.671875
2574		-128.906250
2575		-132.812500
2576		-126.953125
2577		-130.859375
2578		-123.046875
2579		-128.906250
2580		-121.093750
2581		-125.000000
2582		-119.140625
2583		-121.093750
2584		-117.187500
2585		-119.140625
2586		-111.328125
2587		-117.187500
2588		-107.421875
2589		-113.281250
2590		-105.468750
2591		-109.375000
2592		-101.562500
2593		-105.468750
2594		-97.656250
2595		-101.562500
2596		-93.750000
2597		-97.656250
2598		-91.796875
2599		-93.750000
2600		-87.890625
2601		-89.843750
2602		-83.984375
2603		-87.890625
2604		-78.125000
2605		-83.984375
2606		-76.171875
2607		-80.078125
2608		-70.312500
2609		-76.171875
2610		-68.359375
2611		-72.265625
2612		-62.500000
2613		-66.406250
2614		-60.546875
2615		-62.500000
2616		-56.640625
2617		-58.593750
2618		-50.781250
2619		-56.640625
2620		-46.875000
2621		-48.828125
2622		-42.968750
2623		-46.875000
2624		-37.109375
2625		-42.968750
2626		-33.203125
2627		-39.062500
2628		-29.296875
2629		-35.156250
2630		-25.390625
2631		-29.296875
2632		-23.437500
2633		-25.390625
2634		-17.578125
2635		-21.484375
2636		-11.718750
2637		-17.578125
2638		-7.812500
2639		-13.671875
2640		-3.906250
2641		-7.812500
2642		0.000000
2643		-3.906250
2644		3.906250
2645		-1.953125
2646		9.765625
2647		3.906250
2648		11.718750
2649		9.765625
2650		15.625000
2651		13.671875
2652		21.484375
2653		15.625000
2654		25.390625
2655		19.531250
2656		29.296875
2657		23.437500
2658		33.203125
2659		27.343750
2660		37.109375
2661		31.250000
2662		41.015625
2663		35.156250
2664		42.968750
2665		41.015625
2666		46.875000
2667		44.921875
2668		50.781250
2669		46.875000
2670		54.687500
2671		48.828125
2672		58.593750
2673		54.687500
2674		62.500000
2675		56.640625
2676		66.406250
2677		62.500000
2678		68.359375
2679		64.453125
2680		74.218750
2681		68.359375
2682		74.218750
2683		72.265625
2684		78.125000
2685		74.218750
2686		82.031250
2687		78.125000
2688		85.937500
2689		80.078125
2690		87.890625
2691		82.031250
2692		91.796875
2693		87.890625
2694		93.750000
2695		89.843750
2696		97.656250
2697		91.796875
2698		97.656250
2699		95.703125
2700		101.562500
2701		99.609375
2702		105.468750
2703		99.609375
2704		107.421875
2705		101.562500
2706		109.375000
2707		103.515625
2708		111.328125
2709		107.421875
2710		115.234375
2711		109.375000
2712		117.187500
2713		111.328125
2714		117.187500
2715		115.234375
2716		119.140625
2717		117.187500
2718		121.093750
2719		117.187500
2720		125.000000
2721		119.140625
2722		126.953125
2723		121.093750
2724		126.953125
2725		123.046875
2726		130.859375
2727		125.000000
2728		130.859375
2729		125.000000
2730		132.812500
2731		126.953125
2732		132.812500
2733		130.859375
2734		132.812500
2735		130.859375
2736		136.718750
2737		130.859375
2738		138.671875
2739		132.812500
2740		138.671875
2741		132.812500
2742		138.671875
2743		134.765625
2744		140.625000
2745		134.765625
2746		140.625000
2747		134.765625
2748		140.625000
2749		138.671875
2750		140.625000
2751		138.671875
2752		142.578125
2753		136.718750
2754		144.531250
2755		136.718750
2756		144.531250
2757		138.671875
2758		144.531250
2759		136.718750
2760		144.531250
2761		138.671875
2762		144.531250
2763		138.671875
2764		144.531250
2765		138.671875
2766		144.531250
2767		140.625000
2768		142.578125
2769		138.671875
2770		144.531250
2771		136.718750
2772		144.531250
2773		136.718750
2774		144.531250
2775		136.718750
2776		142.578125
2777		136.718750
2778		144.531250
2779		136.718750
2780		142.578125
2781		134.765625
2782		142.578125
2783		136.718750
2784		138.671875
2785		132.812500
2786		138.671875
2787		132.812500
2788		138.671875
2789		130.859375
2790		138.671875
2791		130.859375
2792		136.718750
2793		128.906250
2794		136.718750
2795		126.953125
2796		134.765625
2797		126.953125
2798		134.765625
2799		126.953125
2800		128.906250
2801		125.000000
2802		128.906250
2803		121.093750
2804		128.906250
2805		119.140625
2806		126.953125
2807		119.140625
2808		125.000000
2809		115.234375
2810		123.046875
2811		113.281250
2812		121.093750
2813		111.328125
2814		119.140625
2815		111.328125
2816		117.187500
2817		109.375000
2818		113.281250
2819		105.468750
2820		111.328125
2821		101.562500
2822		111.328125
2823		99.609375
2824		107.421875
2825		97.656250
2826		105.468750
2827		95.703125
2828		103.515625
2829		91.796875
2830		99.609375
2831		89.843750
2832		97.656250
2833		87.890625
2834		91.796875
2835		85.937500
2836		89.843750
2837		80.078125
2838		87.890625
2839		76.171875
2840		85.937500
2841		74.218750
2842		82.031250
2843		72.265625
2844		78.125000
2845		66.406250
2846		76.171875
2847		64.453125
2848		72.265625
2849		62.500000
2850		68.359375
2851		58.593750
2852		64.453125
2853		52.734375
2854		60.546875
2855		48.828125
2856		58.593750
2857		46.875000
2858		54.687500
2859		42.968750
2860		50.781250
2861		39.062500
2862		46.875000
2863		35.156250
2864		44.921875
2865		33.203125
2866		41.015625
2867		29.296875
2868		35.156250
2869		23.437500
2870		29.296875
2871		19.531250
2872		27.343750
2873		13.671875
2874		23.437500
2875		11.718750
2876		19.531250
2877		5.859375
2878		15.625000
2879		3.906250
2880		11.718750
2881		0.000000
2882		7.812500
2883		-3.906250
2884		1.953125
2885		-7.812500
2886		-1.953125
2887		-13.671875
2888		-5.859375
2889		-17.578125
2890		-9.765625
2891		-21.484375
2892		-11.718750
2893		-27.343750
2894		-17.578125
2895		-29.296875
2896		-21.484375
2897		-35.156250
2898		-25.390625
2899		-37.109375
2900		-29.296875
2901		-41.015625
2902		-35.156250
2903		-46.875000
2904		-39.062500
2905		-50.781250
2906		-42.968750
2907		-54.687500
2908		-44.921875
2909		-58.593750
2910		-50.781250
2911		-62.500000
2912		-54.687500
2913		-66.406250
2914		-58.593750
2915		-70.312500
2916		-62.500000
2917		-74.218750
2918		-68.359375
2919		-76.171875
2920		-72.265625
2921		-82.031250
2922		-74.218750
2923		-85.937500
2924		-78.125000
2925		-89.843750
2926		-82.031250
2927		-91.796875
2928		-85.937500
2929		-97.656250
2930		-87.890625
2931		-101.562500
2932		-91.796875
2933		-103.515625
2934		-95.703125
2935		-105.468750
2936		-99.609375
2937		-111.328125
2938		-103.515625
2939		-113.281250
2940		-107.421875
2941		-117.187500
2942		-109.375000
2943		-121.093750
2944		-111.328125
2945		-123.046875
2946		-115.234375
2947		-126.953125
2948		-119.140625
2949		-128.906250
2950		-121.093750
2951		-130.859375
2952		-125.000000
2953		-134.765625
2954		-128.906250
2955		-138.671875
2956		-128.906250
2957		-140.625000
2958		-132.812500
2959		-142.578125
2960		-134.765625
2961		-144.531250
2962		-136.718750
2963		-148.437500
2964		-138.671875
2965		-148.437500
2966		-142.578125
2967		-150.390625
2968		-146.484375
2969		-152.343750
2970		-148.437500
2971		-156.250000
2972		-148.437500
2973		-156.250000
2974		-150.390625
2975		-158.203125
2976		-152.343750
2977		-160.156250
2978		-152.343750
2979		-162.109375
2980		-154.296875
2981		-162.109375
2982		-156.250000
2983		-162.109375
2984		-156.250000
2985		-162.109375
2986		-160.156250
2987		-166.015625
2988		-160.156250
2989		-167.968750
2990		-160.156250
2991		-166.015625
2992		-160.156250
2993		-167.968750
2994		-162.109375
2995		-167.968750
2996		-162.109375
2997		-167.968750
2998		-162.109375
2999		-167.968750
3000		-162.109375
3001		-166.015625
3002		-164.062500
3003		-166.015625
3004		-164.062500
3005		-167.968750
3006		-160.156250
3007		-167.968750
3008		-160.156250
3009		-167.968750
3010		-160.156250
3011		-166.015625
3012		-160.156250
3013		-166.015625
3014		-160.156250
3015		-164.062500
3016		-158.203125
3017		-164.062500
3018		-158.203125
3019		-160.156250
3020		-158.203125
3021		-160.156250
3022		-154.296875
3023		-160.156250
3024		-152.343750
3025		-158.203125
3026		-152.343750
3027		-156.250000
3028		-150.390625
3029		-156.250000
3030		-148.437500
3031		-154.296875
3032		-146.484375
3033		-152.343750
3034		-144.531250
3035		-146.484375
3036		-144.531250
3037		-144.531250
3038		-138.671875
3039		-144.531250
3040		-136.718750
3041		-142.578125
3042		-134.765625
3043		-138.671875
3044		-132.812500
3045		-136.718750
3046		-128.906250
3047		-134.765625
3048		-125.000000
3049		-132.812500
3050		-123.046875
3051		-126.953125
3052		-121.093750
3053		-123.046875
3054		-119.140625
3055		-121.093750
3056		-113.281250
3057		-119.140625
3058		-111.328125
3059		-115.234375
3060		-107.421875
3061		-113.281250
3062		-103.515625
3063		-107.421875
3064		-101.562500
3065		-105.468750
3066		-97.656250
3067		-101.562500
3068		-95.703125
3069		-95.703125
3070		-91.796875
3071		-91.796875
3072		-85.937500
3073		-89.843750
3074		-82.031250
3075		-87.890625
3076		-78.125000
3077		-83.984375
3078		-74.218750
3079		-80.078125
3080		-70.312500
3081		-74.218750
3082		-66.406250
3083		-70.312500
3084		-62.500000
3085		-64.453125
3086		-58.593750
3087		-60.546875
3088		-54.687500
3089		-58.593750
3090		-48.828125
3091		-54.687500
3092		-44.921875
3093		-48.828125
3094		-41.015625
3095		-44.921875
3096		-37.109375
3097		-41.015625
3098		-31.250000
3099		-37.109375
3100		-27.343750
3101		-31.250000
3102		-25.390625
3103		-27.343750
3104		-21.484375
3105		-23.437500
3106		-15.625000
3107		-19.531250
3108		-11.718750
3109		-15.625000
3110		-7.812500
3111		-11.718750
3112		-1.953125
3113		-7.812500
3114		1.953125
3115		-3.906250
3116		5.859375
3117		1.953125
3118		7.812500
3119		5.859375
3120		11.718750
3121		9.765625
3122		17.578125
3123		11.718750
3124		21.484375
3125		17.578125
3126		25.390625
3127		19.531250
3128		31.250000
3129		25.390625
3130		33.203125
3131		27.343750
3132		37.109375
3133		31.250000
3134		41.015625
3135		39.062500
3136		42.968750
3137		41.015625
3138		46.875000
3139		44.921875
3140		52.734375
3141		46.875000
3142		56.640625
3143		52.734375
3144		60.546875
3145		54.687500
3146		62.500000
3147		58.593750
3148		66.406250
3149		60.546875
3150		70.312500
3151		66.406250
3152		72.265625
3153		70.312500
3154		74.218750
3155		74.218750
3156		80.078125
3157		74.218750
3158		83.984375
3159		78.125000
3160		85.937500
3161		80.078125
3162		89.843750
3163		83.984375
3164		91.796875
3165		85.937500
3166		95.703125
3167		89.843750
3168		97.656250
3169		93.750000
3170		97.656250
3171		97.656250
3172		101.562500
3173		97.656250
3174		105.468750
3175		99.609375
3176		109.375000
3177		101.562500
3178		109.375000
3179		105.468750
3180		113.281250
3181		107.421875
3182		115.234375
3183		109.375000
3184		117.187500
3185		111.328125
3186		117.187500
3187		115.234375
3188		119.140625
3189		115.234375
3190		123.046875
3191		117.187500
3192		125.000000
3193		119.140625
3194		126.953125
3195		121.093750
3196		128.906250
3197		123.046875
3198		128.906250
3199		123.046875
3200		130.859375
3201		125.000000
3202		132.812500
3203		128.906250
3204		132.812500
3205		130.859375
3206		132.812500
3207		128.906250
3208		136.718750
3209		130.859375
3210		136.718750
3211		132.812500
3212		138.671875
3213		132.812500
3214		138.671875
3215		132.812500
3216		140.625000
3217		134.765625
3218		140.625000
3219		136.718750
3220		140.625000
3221		138.671875
3222		140.625000
3223		136.718750
3224		142.578125
3225		136.718750
3226		142.578125
3227		136.718750
3228		144.531250
3229		136.718750
3230		144.531250
3231		136.718750
3232		144.531250
3233		138.671875
3234		144.531250
3235		138.671875
3236		144.531250
3237		140.625000
3238		142.578125
3239		138.671875
3240		144.531250
3241		136.718750
3242		144.531250
3243		136.718750
3244		144.531250
3245		136.718750
3246		142.578125
3247		136.718750
3248		142.578125
3249		136.718750
3250		142.578125
3251		134.765625
3252		142.578125
3253		136.718750
3254		138.671875
3255		134.765625
3256		138.671875
3257		132.812500
3258		138.671875
3259		130.859375
3260		138.671875
3261		130.859375
3262		138.671875
3263		128.906250
3264		136.718750
3265		126.953125
3266		134.765625
3267		126.953125
3268		134.765625
3269		126.953125
3270		132.812500
3271		125.000000
3272		128.906250
3273		123.046875
3274		128.906250
3275		121.093750
3276		128.906250
3277		117.187500
3278		126.953125
3279		117.187500
3280		125.000000
3281		115.234375
3282		123.046875
3283		113.281250
3284		121.093750
3285		111.328125
3286		119.140625
3287		111.328125
3288		115.234375
3289		109.375000
3290		113.281250
3291		105.468750
3292		111.328125
3293		101.562500
3294		109.375000
3295		99.609375
3296		107.421875
3297		97.656250
3298		105.468750
3299		93.750000
3300		101.562500
3301		91.796875
3302		99.609375
3303		89.843750
3304		95.703125
3305		87.890625
3306		91.796875
3307		82.031250
3308		89.843750
3309		80.078125
3310		87.890625
3311		76.171875
3312		83.984375
3313		74.218750
3314		82.031250
3315		68.359375
3316		78.125000
3317		66.406250
3318		74.218750
3319		64.453125
3320		72.265625
3321		60.546875
3322		66.406250
3323		54.687500
3324		62.500000
3325		50.781250
3326		60.546875
3327		48.828125
3328		56.640625
3329		46.875000
3330		52.734375
3331		41.015625
3332		50.781250
3333		37.109375
3334		44.921875
3335		33.203125
3336		42.968750
3337		31.250000
3338		37.109375
3339		27.343750
3340		33.203125
3341		21.484375
3342		29.296875
3343		19.531250
3344		25.390625
3345		13.671875
3346		21.484375
3347		11.718750
3348		17.578125
3349		5.859375
3350		13.671875
3351		1.953125
3352		9.765625
3353		0.000000
3354		5.859375
3355		-5.859375
3356		0.000000
3357		-11.718750
3358		-3.906250
3359		-13.671875
3360		-5.859375
3361		-19.531250
3362		-9.765625
3363		-23.437500
3364		-13.671875
3365		-27.343750
3366		-19.531250
3367		-31.250000
3368		-23.437500
3369		-35.156250
3370		-25.390625
3371		-39.062500
3372		-33.203125
3373		-42.968750
3374		-37.109375
3375		-46.875000
3376		-41.015625
3377		-52.734375
3378		-42.968750
3379		-56.640625
3380		-46.875000
3381		-60.546875
3382		-50.781250
3383		-64.453125
3384		-54.687500
3385		-70.312500
3386		-60.546875
3387		-70.312500
3388		-64.453125
3389		-74.218750
3390		-68.359375
3391		-80.078125
3392		-72.265625
3393		-83.984375
3394		-76.171875
3395		-87.890625
3396		-80.078125
3397		-89.843750
3398		-82.031250
3399		-93.750000
3400		-85.937500
3401		-97.656250
3402		-89.843750
3403		-99.609375
3404		-93.750000
3405		-103.515625
3406		-99.609375
3407		-107.421875
3408		-101.562500
3409		-111.328125
3410		-105.468750
3411		-117.187500
3412		-107.421875
3413		-119.140625
3414		-111.328125
3415		-123.046875
3416		-113.281250
3417		-125.000000
3418		-117.187500
3419		-126.953125
3420		-119.140625
3421		-128.906250
3422		-125.000000
3423		-130.859375
3424		-126.953125
3425		-136.718750
3426		-128.906250
3427		-138.671875
3428		-130.859375
3429		-140.625000
3430		-132.812500
3431		-142.578125
3432		-134.765625
3433		-146.484375
3434		-136.718750
3435		-148.437500
3436		-140.625000
3437		-148.437500
3438		-142.578125
3439		-150.390625
3440		-146.484375
3441		-154.296875
3442		-148.437500
3443		-156.250000
3444		-148.437500
3445		-158.203125
3446		-150.390625
3447		-158.203125
3448		-152.343750
3449		-160.156250
3450		-152.343750
3451		-162.109375
3452		-154.296875
3453		-162.109375
3454		-156.250000
3455		-162.109375
3456		-158.203125
3457		-162.109375
3458		-160.156250
3459		-166.015625
3460		-158.203125
3461		-166.015625
3462		-158.203125
3463		-166.015625
3464		-160.156250
3465		-166.015625
3466		-160.156250
3467		-167.968750
3468		-160.156250
3469		-167.968750
3470		-160.156250
3471		-166.015625
3472		-162.109375
3473		-166.015625
3474		-162.109375
3475		-166.015625
3476		-162.109375
3477		-167.968750
3478		-160.156250
3479		-166.015625
3480		-160.156250
3481		-166.015625
3482		-160.156250
3483		-164.062500
3484		-158.203125
3485		-164.062500
3486		-158.203125
3487		-162.109375
3488		-156.250000
3489		-160.156250
3490		-156.250000
3491		-160.156250
3492		-154.296875
3493		-160.156250
3494		-152.343750
3495		-158.203125
3496		-150.390625
3497		-158.203125
3498		-148.437500
3499		-156.250000
3500		-146.484375
3501		-152.343750
3502		-144.531250
3503		-152.343750
3504		-144.531250
3505		-146.484375
3506		-142.578125
3507		-144.531250
3508		-140.625000
3509		-144.531250
3510		-136.718750
3511		-142.578125
3512		-134.765625
3513		-140.625000
3514		-132.812500
3515		-136.718750
3516		-128.906250
3517		-134.765625
3518		-126.953125
3519		-132.812500
3520		-125.000000
3521		-128.906250
3522		-123.046875
3523		-125.000000
3524		-119.140625
3525		-121.093750
3526		-115.234375
3527		-119.140625
3528		-111.328125
3529		-117.187500
3530		-109.375000
3531		-113.281250
3532		-105.468750
3533		-109.375000
3534		-101.562500
3535		-105.468750
3536		-97.656250
3537		-103.515625
3538		-95.703125
3539		-97.656250
3540		-91.796875
3541		-93.750000
3542		-87.890625
3543		-91.796875
3544		-82.031250
3545		-87.890625
3546		-80.078125
3547		-83.984375
3548		-76.171875
3549		-80.078125
3550		-72.265625
3551		-76.171875
3552		-66.406250
3553		-72.265625
3554		-62.500000
3555		-68.359375
3556		-60.546875
3557		-62.500000
3558		-56.640625
3559		-58.593750
3560		-50.781250
3561		-54.687500
3562		-46.875000
3563		-52.734375
3564		-42.968750
3565		-46.875000
3566		-37.109375
3567		-42.968750
3568		-33.203125
3569		-39.062500
3570		-29.296875
3571		-35.156250
3572		-27.343750
3573		-29.296875
3574		-23.437500
3575		-25.390625
3576		-17.578125
3577		-21.484375
3578		-11.718750
3579		-17.578125
3580		-7.812500
3581		-13.671875
3582		-3.906250
3583		-7.812500
3584		0.000000
3585		-5.859375
3586		3.906250
3587		0.000000
3588		7.812500
3589		3.906250
3590		9.765625
3591		9.765625
3592		13.671875
3593		11.718750
3594		21.484375
3595		15.625000
3596		23.437500
3597		19.531250
3598		27.343750
3599		23.437500
3600		33.203125
3601		27.343750
3602		35.156250
3603		31.250000
3604		39.062500
3605		35.156250
3606		42.968750
3607		41.015625
3608		46.875000
3609		44.921875
3610		50.781250
3611		46.875000
3612		54.687500
3613		48.828125
3614		58.593750
3615		52.734375
3616		62.500000
3617		56.640625
3618		64.453125
3619		60.546875
3620		68.359375
3621		64.453125
3622		72.265625
3623		70.312500
3624		74.218750
3625		72.265625
3626		78.125000
3627		74.218750
3628		82.031250
3629		78.125000
3630		83.984375
3631		80.078125
3632		89.843750
3633		83.984375
3634		91.796875
3635		85.937500
3636		93.750000
3637		89.843750
3638		97.656250
3639		89.843750
3640		97.656250
3641		95.703125
3642		101.562500
3643		99.609375
3644		105.468750
3645		99.609375
3646		107.421875
3647		101.562500
3648		109.375000
3649		103.515625
3650		113.281250
3651		107.421875
3652		115.234375
3653		109.375000
3654		117.187500
3655		111.328125
3656		117.187500
3657		115.234375
3658		119.140625
3659		117.187500
3660		121.093750
3661		117.187500
3662		125.000000
3663		119.140625
3664		126.953125
3665		121.093750
3666		128.906250
3667		123.046875
3668		128.906250
3669		123.046875
3670		130.859375
3671		125.000000
3672		132.812500
3673		128.906250
3674		132.812500
3675		130.859375
3676		132.812500
3677		130.859375
3678		136.718750
3679		130.859375
3680		138.671875
3681		130.859375
3682		138.671875
3683		132.812500
3684		138.671875
3685		134.765625
3686		140.625000
3687		134.765625
3688		142.578125
3689		134.765625
3690		140.625000
3691		138.671875
3692		140.625000
3693		138.671875
3694		142.578125
3695		136.718750
3696		144.531250
3697		138.671875
3698		144.531250
3699		138.671875
3700		144.531250
3701		138.671875
3702		144.531250
3703		138.671875
3704		144.531250
3705		138.671875
3706		144.531250
3707		140.625000
3708		142.578125
3709		140.625000
3710		142.578125
3711		138.671875
3712		144.531250
3713		136.718750
3714		144.531250
3715		136.718750
3716		144.531250
3717		136.718750
3718		144.531250
3719		136.718750
3720		142.578125
3721		136.718750
3722		142.578125
3723		136.718750
3724		142.578125
3725		136.718750
3726		140.625000
3727		132.812500
3728		138.671875
3729		132.812500
3730		138.671875
3731		130.859375
3732		138.671875
3733		130.859375
3734		136.718750
3735		128.906250
3736		136.718750
3737		128.906250
3738		134.765625
3739		126.953125
3740		132.812500
3741		126.953125
3742		130.859375
3743		125.000000
3744		128.906250
3745		123.046875
3746		128.906250
3747		121.093750
3748		126.953125
3749		117.187500
3750		125.000000
3751		117.187500
3752		125.000000
3753		115.234375
3754		121.093750
3755		111.328125
3756		119.140625
3757		111.328125
3758		117.187500
3759		109.375000
3760		113.281250
3761		105.468750
3762		113.281250
3763		103.515625
3764		111.328125
3765		101.562500
3766		109.375000
3767		97.656250
3768		107.421875
3769		95.703125
3770		103.515625
3771		93.750000
3772		101.562500
3773		89.843750
3774		97.656250
3775		89.843750
3776		93.750000
3777		85.937500
3778		89.843750
3779		82.031250
3780		89.843750
3781		78.125000
3782		85.937500
3783		76.171875
3784		83.984375
3785		72.265625
3786		80.078125
3787		68.359375
3788		76.171875
3789		66.406250
3790		74.218750
3791		62.500000
3792		68.359375
3793		60.546875
3794		64.453125
3795		54.687500
3796		62.500000
3797		50.781250
3798		58.593750
3799		48.828125
3800		56.640625
3801		42.968750
3802		50.781250
3803		41.015625
3804		48.828125
3805		35.156250
3806		44.921875
3807		33.203125
3808		41.015625
3809		29.296875
3810		35.156250
3811		23.437500
3812		31.250000
3813		19.531250
3814		29.296875
3815		15.625000
3816		25.390625
3817		11.718750
3818		21.484375
3819		9.765625
3820		17.578125
3821		3.906250
3822		13.671875
3823		1.953125
3824		7.812500
3825		-1.953125
3826		3.906250
3827		-5.859375
3828		-1.953125
3829		-13.671875
3830		-3.906250
3831		-17.578125
3832		-7.812500
3833		-21.484375
3834		-11.718750
3835		-25.390625
3836		-15.625000
3837		-29.296875
3838		-19.531250
3839		-33.203125
3840		-23.437500
3841		-35.156250
3842		-29.296875
3843		-41.015625
3844		-33.203125
3845		-44.921875
3846		-39.062500
3847		-50.781250
3848		-41.015625
3849		-54.687500
3850		-44.921875
3851		-58.593750
3852		-48.828125
3853		-60.546875
3854		-52.734375
3855		-66.406250
3856		-56.640625
3857		-68.359375
3858		-60.546875
3859		-72.265625
3860		-66.406250
3861		-76.171875
3862		-70.312500
3863		-82.031250
3864		-72.265625
3865		-83.984375
3866		-76.171875
3867		-87.890625
3868		-80.078125
3869		-91.796875
3870		-83.984375
3871		-95.703125
3872		-87.890625
3873		-99.609375
3874		-91.796875
3875		-101.562500
3876		-95.703125
3877		-105.468750
3878		-99.609375
3879		-109.375000
3880		-103.515625
3881		-113.281250
3882		-105.468750
3883		-115.234375
3884		-107.421875
3885		-119.140625
3886		-111.328125
3887		-123.046875
3888		-115.234375
3889		-125.000000
3890		-117.187500
3891		-126.953125
3892		-119.140625
3893		-128.906250
3894		-125.000000
3895		-134.765625
3896		-126.953125
3897		-136.718750
3898		-128.906250
3899		-138.671875
3900		-130.859375
3901		-142.578125
3902		-134.765625
3903		-144.531250
3904		-136.718750
3905		-146.484375
3906		-138.671875
3907		-148.437500
3908		-140.625000
3909		-148.437500
3910		-144.531250
3911		-150.390625
3912		-146.484375
3913		-154.296875
3914		-146.484375
3915		-156.250000
3916		-148.437500
3917		-156.250000
3918		-150.390625
3919		-158.203125
3920		-150.390625
3921		-160.156250
3922		-152.343750
3923		-162.109375
3924		-154.296875
3925		-160.156250
3926		-156.250000
3927		-162.109375
3928		-158.203125
3929		-164.062500
3930		-158.203125
3931		-164.062500
3932		-158.203125
3933		-166.015625
3934		-158.203125
3935		-166.015625
3936		-160.156250
3937		-166.015625
3938		-160.156250
3939		-166.015625
3940		-160.156250
3941		-166.015625
3942		-160.156250
3943		-164.062500
3944		-162.109375
3945		-164.062500
3946		-162.109375
3947		-166.015625
3948		-160.156250
3949		-166.015625
3950		-160.156250
3951		-166.015625
3952		-158.203125
3953		-166.015625
3954		-158.203125
3955		-164.062500
3956		-158.203125
3957		-164.062500
3958		-156.250000
3959		-160.156250
3960		-158.203125
3961		-160.156250
3962		-156.250000
3963		-160.156250
3964		-154.296875
3965		-158.203125
3966		-152.343750
3967		-158.203125
3968		-150.390625
3969		-156.250000
3970		-148.437500
3971		-154.296875
3972		-146.484375
3973		-152.343750
3974		-144.531250
3975		-150.390625
3976		-144.531250
3977		-146.484375
3978		-142.578125
3979		-144.531250
3980		-138.671875
3981		-144.531250
3982		-136.718750
3983		-142.578125
3984		-134.765625
3985		-138.671875
3986		-130.859375
3987		-136.718750
3988		-128.906250
3989		-132.812500
3990		-125.000000
3991		-130.859375
3992		-123.046875
3993		-126.953125
3994		-121.093750
3995		-123.046875
3996		-119.140625
3997		-121.093750
3998		-113.281250
3999		-119.140625
4000		-109.375000
4001		-115.234375
4002		-107.421875
4003		-113.281250
4004		-103.515625
4005		-109.375000
4006		-99.609375
4007		-105.468750
4008		-95.703125
4009		-101.562500
4010		-93.750000
4011		-95.703125
4012		-89.843750
4013		-91.796875
4014		-85.937500
4015		-91.796875
4016		-80.078125
4017		-85.937500
4018		-76.171875
4019		-82.031250
4020		-74.218750
4021		-78.125000
4022		-70.312500
4023		-74.218750
4024		-66.406250
4025		-72.265625
4026		-62.500000
4027		-64.453125
4028		-58.593750
4029		-60.546875
4030		-54.687500
4031		-58.593750
4032		-48.828125
4033		-54.687500
4034		-44.921875
4035		-48.828125
4036		-41.015625
4037		-44.921875
4038		-37.109375
4039		-41.015625
4040		-31.250000
4041		-37.109375
4042		-27.343750
4043		-31.250000
4044		-25.390625
4045		-27.343750
4046		-21.484375
4047		-23.437500
4048		-15.625000
4049		-21.484375
4050		-11.718750
4051		-17.578125
4052		-7.812500
4053		-11.718750
4054		-1.953125
4055		-7.812500
4056		1.953125
4057		-3.906250
4058		5.859375
4059		0.000000
4060		7.812500
4061		5.859375
4062		11.718750
4063		9.765625
4064		17.578125
4065		13.671875
4066		21.484375
4067		17.578125
4068		25.390625
4069		21.484375
4070		29.296875
4071		23.437500
4072		33.203125
4073		27.343750
4074		37.109375
4075		33.203125
4076		41.015625
4077		39.062500
4078		42.968750
4079		42.968750
4080		46.875000
4081		46.875000
4082		52.734375
4083		48.828125
4084		56.640625
4085		50.781250
4086		60.546875
4087		54.687500
4088		62.500000
4089		58.593750
4090		68.359375
4091		62.500000
4092		70.312500
4093		66.406250
4094		72.265625
4095		70.312500
4096		76.171875
4097		74.218750
4098		80.078125
4099		76.171875
4100		83.984375
4101		78.125000
4102		87.890625
4103		80.078125
4104		89.843750
4105		83.984375
4106		93.750000
4107		87.890625
4108		95.703125
4109		89.843750
4110		97.656250
4111		93.750000
4112		99.609375
4113		97.656250
4114		103.515625
4115		99.609375
4116		105.468750
4117		101.562500
4118		109.375000
4119		103.515625
4120		111.328125
4121		105.468750
4122		113.281250
4123		107.421875
4124		115.234375
4125		109.375000
4126		117.187500
4127		113.281250
4128		117.187500
4129		115.234375
4130		119.140625
4131		117.187500
4132		123.046875
4133		117.187500
4134		125.000000
4135		119.140625
4136		126.953125
4137		121.093750
4138		128.906250
4139		123.046875
4140		128.906250
4141		125.000000
4142		132.812500
4143		126.953125
4144		132.812500
4145		128.906250
4146		132.812500
4147		130.859375
4148		134.765625
4149		128.906250
4150		138.671875
4151		130.859375
4152		138.671875
4153		132.812500
4154		138.671875
4155		132.812500
4156		140.625000
4157		134.765625
4158		142.578125
4159		134.765625
4160		142.578125
4161		138.671875
4162		140.625000
4163		138.671875
4164		142.578125
4165		136.718750
4166		144.531250
4167		138.671875
4168		144.531250
4169		138.671875
4170		144.531250
4171		138.671875
4172		144.531250
4173		138.671875
4174		146.484375
4175		138.671875
4176		146.484375
4177		140.625000
4178		144.531250
4179		140.625000
4180		144.531250
4181		140.625000
4182		144.531250
4183		138.671875
4184		144.531250
4185		138.671875
4186		144.531250
4187		138.671875
4188		144.531250
4189		138.671875
4190		142.578125
4191		138.671875
4192		142.578125
4193		138.671875
4194		142.578125
4195		138.671875
4196		140.625000
4197		136.718750
4198		140.625000
4199		134.765625
4200		140.625000
4201		132.812500
4202		138.671875
4203		132.812500
4204		138.671875
4205		130.859375
4206		138.671875
4207		128.906250
4208		136.718750
4209		128.906250
4210		134.765625
4211		128.906250
4212		132.812500
4213		126.953125
4214		130.859375
4215		123.046875
4216		130.859375
4217		123.046875
4218		128.906250
4219		121.093750
4220		126.953125
4221		119.140625
4222		125.000000
4223		117.187500
4224		125.000000
4225		113.281250
4226		123.046875
4227		113.281250
4228		121.093750
4229		113.281250
4230		115.234375
4231		109.375000
4232		113.281250
4233		105.468750
4234		113.281250
4235		103.515625
4236		111.328125
4237		101.562500
4238		107.421875
4239		99.609375
4240		105.468750
4241		95.703125
4242		103.515625
4243		93.750000
4244		101.562500
4245		91.796875
4246		95.703125
4247		89.843750
4248		93.750000
4249		83.984375
4250		91.796875
4251		80.078125
4252		89.843750
4253		78.125000
4254		85.937500
4255		74.218750
4256		82.031250
4257		72.265625
4258		80.078125
4259		68.359375
4260		76.171875
4261		66.406250
4262		74.218750
4263		62.500000
4264		68.359375
4265		58.593750
4266		64.453125
4267		54.687500
4268		62.500000
4269		52.734375
4270		58.593750
4271		46.875000
4272		56.640625
4273		42.968750
4274		50.781250
4275		39.062500
4276		46.875000
4277		37.109375
4278		44.921875
4279		33.203125
4280		39.062500
4281		29.296875
4282		35.156250
4283		25.390625
4284		31.250000
4285		21.484375
4286		29.296875
4287		15.625000
4288		25.390625
4289		11.718750
4290		21.484375
4291		7.812500
4292		17.578125
4293		3.906250
4294		13.671875
4295		1.953125
4296		7.812500
4297		-1.953125
4298		3.906250
4299		-7.812500
4300		-1.953125
4301		-11.718750
4302		-3.906250
4303		-17.578125
4304		-7.812500
4305		-21.484375
4306		-11.718750
4307		-25.390625
4308		-15.625000
4309		-29.296875
4310		-19.531250
4311		-31.250000
4312		-25.390625
4313		-35.156250
4314		-29.296875
4315		-41.015625
4316		-35.156250
4317		-46.875000
4318		-37.109375
4319		-50.781250
4320		-41.015625
4321		-52.734375
4322		-46.875000
4323		-56.640625
4324		-48.828125
4325		-62.500000
4326		-52.734375
4327		-64.453125
4328		-56.640625
4329		-68.359375
4330		-62.500000
4331		-72.265625
4332		-66.406250
4333		-78.125000
4334		-70.312500
4335		-82.031250
4336		-72.265625
4337		-85.937500
4338		-76.171875
4339		-87.890625
4340		-80.078125
4341		-91.796875
4342		-83.984375
4343		-97.656250
4344		-87.890625
4345		-97.656250
4346		-91.796875
4347		-101.562500
4348		-95.703125
4349		-105.468750
4350		-99.609375
4351		-109.375000
4352		-101.562500
4353		-113.281250
4354		-105.468750
4355		-115.234375
4356		-107.421875
4357		-119.140625
4358		-111.328125
4359		-121.093750
4360		-115.234375
4361		-125.000000
4362		-117.187500
4363		-126.953125
4364		-121.093750
4365		-128.906250
4366		-125.000000
4367		-132.812500
4368		-126.953125
4369		-136.718750
4370		-128.906250
4371		-138.671875
4372		-130.859375
4373		-140.625000
4374		-134.765625
4375		-144.531250
4376		-136.718750
4377		-144.531250
4378		-138.671875
4379		-146.484375
4380		-142.578125
4381		-148.437500
4382		-144.531250
4383		-152.343750
4384		-144.531250
4385		-152.343750
4386		-146.484375
4387		-156.250000
4388		-148.437500
4389		-156.250000
4390		-150.390625
4391		-158.203125
4392		-152.343750
4393		-160.156250
4394		-152.343750
4395		-160.156250
4396		-154.296875
4397		-160.156250
4398		-156.250000
4399		-162.109375
4400		-158.203125
4401		-164.062500
4402		-156.250000
4403		-164.062500
4404		-158.203125
4405		-166.015625
4406		-158.203125
4407		-166.015625
4408		-158.203125
4409		-166.015625
4410		-158.203125
4411		-166.015625
4412		-160.156250
4413		-164.062500
4414		-160.156250
4415		-164.062500
4416		-162.109375
4417		-166.015625
4418		-160.156250
4419		-166.015625
4420		-158.203125
4421		-164.062500
4422		-158.203125
4423		-164.062500
4424		-158.203125
4425		-164.062500
4426		-156.250000
4427		-164.062500
4428		-156.250000
4429		-164.062500
4430		-154.296875
4431		-160.156250
4432		-156.250000
4433		-160.156250
4434		-152.343750
4435		-158.203125
4436		-152.343750
4437		-158.203125
4438		-150.390625
4439		-156.250000
4440		-148.437500
4441		-154.296875
4442		-146.484375
4443		-152.343750
4444		-144.531250
4445		-150.390625
4446		-144.531250
4447		-146.484375
4448		-142.578125
4449		-144.531250
4450		-140.625000
4451		-144.531250
4452		-136.718750
4453		-142.578125
4454		-134.765625
4455		-138.671875
4456		-130.859375
4457		-134.765625
4458		-128.906250
4459		-134.765625
4460		-126.953125
4461		-132.812500
4462		-123.046875
4463		-126.953125
4464		-121.093750
4465		-123.046875
4466		-119.140625
4467		-121.093750
4468		-115.234375
4469		-119.140625
4470		-111.328125
4471		-115.234375
4472		-107.421875
4473		-113.281250
4474		-105.468750
4475		-109.375000
4476		-101.562500
4477		-105.468750
4478		-97.656250
4479		-101.562500
4480		-95.703125
4481		-97.656250
4482		-91.796875
4483		-93.750000
4484		-87.890625
4485		-89.843750
4486		-82.031250
4487		-87.890625
4488		-78.125000
4489		-83.984375
4490		-76.171875
4491		-80.078125
4492		-70.312500
4493		-74.218750
4494		-66.406250
4495		-72.265625
4496		-64.453125
4497		-66.406250
4498		-60.546875
4499		-62.500000
4500		-56.640625
4501		-58.593750
4502		-50.781250
4503		-54.687500
4504		-46.875000
4505		-50.781250
4506		-42.968750
4507		-46.875000
4508		-37.109375
4509		-42.968750
4510		-33.203125
4511		-39.062500
4512		-29.296875
4513		-33.203125
4514		-27.343750
4515		-29.296875
4516		-23.437500
4517		-23.437500
4518		-15.625000
4519		-21.484375
4520		-11.718750
4521		-17.578125
4522		-7.812500
4523		-11.718750
4524		-3.906250
4525		-9.765625
4526		1.953125
4527		-5.859375
4528		3.906250
4529		0.000000
4530		5.859375
4531		5.859375
4532		9.765625
4533		9.765625
4534		15.625000
4535		11.718750
4536		19.531250
4537		15.625000
4538		23.437500
4539		21.484375
4540		29.296875
4541		23.437500
4542		31.250000
4543		27.343750
4544		35.156250
4545		31.250000
4546		41.015625
4547		35.156250
4548		42.968750
4549		41.015625
4550		46.875000
4551		44.921875
4552		50.781250
4553		46.875000
4554		56.640625
4555		50.781250
4556		58.593750
4557		52.734375
4558		62.500000
4559		58.593750
4560		66.406250
4561		60.546875
4562		70.312500
4563		64.453125
4564		72.265625
4565		70.312500
4566		74.218750
4567		72.265625
4568		78.125000
4569		74.218750
4570		83.984375
4571		78.125000
4572		85.937500
4573		80.078125
4574		87.890625
4575		83.984375
4576		91.796875
4577		87.890625
4578		93.750000
4579		89.843750
4580		97.656250
4581		93.750000
4582		97.656250
4583		97.656250
4584		101.562500
4585		97.656250
4586		105.468750
4587		99.609375
4588		107.421875
4589		103.515625
4590		111.328125
4591		105.468750
4592		113.281250
4593		107.421875
4594		115.234375
4595		109.375000
4596		117.187500
4597		111.328125
4598		117.187500
4599		115.234375
4600		119.140625
4601		117.187500
4602		123.046875
4603		117.187500
4604		125.000000
4605		119.140625
4606		126.953125
4607		121.093750
4608		128.906250
4609		123.046875
4610		130.859375
4611		125.000000
4612		130.859375
4613		126.953125
4614		132.812500
4615		128.906250
4616		132.812500
4617		130.859375
4618		134.765625
4619		130.859375
4620		136.718750
4621		130.859375
4622		138.671875
4623		132.812500
4624		138.671875
4625		134.765625
4626		140.625000
4627		134.765625
4628		140.625000
4629		134.765625
4630		142.578125
4631		138.671875
4632		142.578125
4633		138.671875
4634		142.578125
4635		138.671875
4636		144.531250
4637		138.671875
4638		144.531250
4639		138.671875
4640		144.531250
4641		138.671875
4642		146.484375
4643		140.625000
4644		146.484375
4645		138.671875
4646		146.484375
4647		140.625000
4648		146.484375
4649		142.578125
4650		144.531250
4651		140.625000
4652		144.531250
4653		138.671875
4654		146.484375
4655		140.625000
4656		146.484375
4657		138.671875
4658		146.484375
4659		138.671875
4660		144.531250
4661		138.671875
4662		144.531250
4663		138.671875
4664		144.531250
4665		138.671875
4666		142.578125
4667		138.671875
4668		140.625000
4669		134.765625
4670		142.578125
4671		134.765625
4672		140.625000
4673		132.812500
4674		140.625000
4675		132.812500
4676		138.671875
4677		130.859375
4678		138.671875
4679		130.859375
4680		136.718750
4681		128.906250
4682		134.765625
4683		128.906250
4684		132.812500
4685		126.953125
4686		130.859375
4687		125.000000
4688		132.812500
4689		123.046875
4690		130.859375
4691		121.093750
4692		128.906250
4693		119.140625
4694		126.953125
4695		117.187500
4696		125.000000
4697		115.234375
4698		123.046875
4699		115.234375
4700		119.140625
4701		113.281250
4702		117.187500
4703		107.421875
4704		115.234375
4705		107.421875
4706		113.281250
4707		103.515625
4708		111.328125
4709		101.562500
4710		109.375000
4711		97.656250
4712		107.421875
4713		95.703125
4714		103.515625
4715		93.750000
4716		99.609375
4717		91.796875
4718		95.703125
4719		85.937500
4720		93.750000
4721		83.984375
4722		91.796875
4723		82.031250
4724		89.843750
4725		80.078125
4726		85.937500
4727		74.218750
4728		83.984375
4729		72.265625
4730		80.078125
4731		70.312500
4732		76.171875
4733		66.406250
4734		72.265625
4735		62.500000
4736		68.359375
4737		58.593750
4738		66.406250
4739		54.687500
4740		64.453125
4741		50.781250
4742		60.546875
4743		46.875000
4744		54.687500
4745		42.968750
4746		52.734375
4747		39.062500
4748		48.828125
4749		37.109375
4750		42.968750
4751		33.203125
4752		39.062500
4753		27.343750
4754		35.156250
4755		23.437500
4756		33.203125
4757		19.531250
4758		29.296875
4759		15.625000
4760		25.390625
4761		11.718750
4762		19.531250
4763		7.812500
4764		17.578125
4765		5.859375
4766		11.718750
4767		1.953125
4768		7.812500
4769		-3.906250
4770		1.953125
4771		-7.812500
4772		0.000000
4773		-13.671875
4774		-3.906250
4775		-17.578125
4776		-7.812500
4777		-21.484375
4778		-11.718750
4779		-25.390625
4780		-15.625000
4781		-29.296875
4782		-21.484375
4783		-31.250000
4784		-25.390625
4785		-37.109375
4786		-31.250000
4787		-41.015625
4788		-33.203125
4789		-46.875000
4790		-37.109375
4791		-50.781250
4792		-41.015625
4793		-54.687500
4794		-44.921875
4795		-58.593750
4796		-48.828125
4797		-62.500000
4798		-54.687500
4799		-64.453125
4800		-56.640625
4801		-68.359375
4802		-62.500000
4803		-74.218750
4804		-66.406250
4805		-78.125000
4806		-68.359375
4807		-82.031250
4808		-72.265625
4809		-83.984375
4810		-76.171875
4811		-89.843750
4812		-80.078125
4813		-91.796875
4814		-83.984375
4815		-93.750000
4816		-87.890625
4817		-97.656250
4818		-93.750000
4819		-101.562500
4820		-95.703125
4821		-105.468750
4822		-97.656250
4823		-109.375000
4824		-101.562500
4825		-113.281250
4826		-105.468750
4827		-117.187500
4828		-107.421875
4829		-119.140625
4830		-111.328125
4831		-123.046875
4832		-113.281250
4833		-123.046875
4834		-119.140625
4835		-125.000000
4836		-121.093750
4837		-130.859375
4838		-125.000000
4839		-132.812500
4840		-125.000000
4841		-136.718750
4842		-128.906250
4843		-138.671875
4844		-130.859375
4845		-140.625000
4846		-132.812500
4847		-142.578125
4848		-134.765625
4849		-144.531250
4850		-136.718750
4851		-144.531250
4852		-140.625000
4853		-148.437500
4854		-142.578125
4855		-150.390625
4856		-142.578125
4857		-152.343750
4858		-144.531250
4859		-154.296875
4860		-146.484375
4861		-156.250000
4862		-148.437500
4863		-156.250000
4864		-148.437500
4865		-158.203125
4866		-152.343750
4867		-156.250000
4868		-154.296875
4869		-158.203125
4870		-154.296875
4871		-160.156250
4872		-154.296875
4873		-162.109375
4874		-154.296875
4875		-162.109375
4876		-156.250000
4877		-164.062500
4878		-156.250000
4879		-164.062500
4880		-156.250000
4881		-164.062500
4882		-158.203125
4883		-162.109375
4884		-158.203125
4885		-162.109375
4886		-158.203125
4887		-164.062500
4888		-158.203125
4889		-164.062500
4890		-156.250000
4891		-162.109375
4892		-156.250000
4893		-162.109375
4894		-156.250000
4895		-162.109375
4896		-154.296875
4897		-160.156250
4898		-154.296875
4899		-160.156250
4900		-154.296875
4901		-158.203125
4902		-154.296875
4903		-156.250000
4904		-152.343750
4905		-158.203125
4906		-150.390625
4907		-156.250000
4908		-148.437500
4909		-154.296875
4910		-148.437500
4911		-152.343750
4912		-144.531250
4913		-152.343750
4914		-144.531250
4915		-150.390625
4916		-142.578125
4917		-146.484375
4918		-142.578125
4919		-144.531250
4920		-140.625000
4921		-142.578125
4922		-136.718750
4923		-142.578125
4924		-132.812500
4925		-138.671875
4926		-130.859375
4927		-136.718750
4928		-128.906250
4929		-134.765625
4930		-125.000000
4931		-130.859375
4932		-123.046875
4933		-126.953125
4934		-121.093750
4935		-123.046875
4936		-119.140625
4937		-121.093750
4938		-115.234375
4939		-119.140625
4940		-111.328125
4941		-117.187500
4942		-107.421875
4943		-113.281250
4944		-103.515625
4945		-109.375000
4946		-101.562500
4947		-105.468750
4948		-97.656250
4949		-101.562500
4950		-95.703125
4951		-97.656250
4952		-91.796875
4953		-93.750000
4954		-87.890625
4955		-91.796875
4956		-83.984375
4957		-87.890625
4958		-78.125000
4959		-83.984375
4960		-74.218750
4961		-80.078125
4962		-72.265625
4963		-76.171875
4964		-66.406250
4965		-72.265625
4966		-62.500000
4967		-68.359375
4968		-60.546875
4969		-62.500000
4970		-56.640625
4971		-58.593750
4972		-50.781250
4973		-54.687500
4974		-46.875000
4975		-52.734375
4976		-42.968750
4977		-46.875000
4978		-39.062500
4979		-42.968750
4980		-33.203125
4981		-39.062500
4982		-31.250000
4983		-35.156250
4984		-27.343750
4985		-29.296875
4986		-23.437500
4987		-25.390625
4988		-19.531250
4989		-21.484375
4990		-13.671875
4991		-19.531250
4992		-9.765625
4993		-15.625000
4994		-5.859375
4995		-7.812500
4996		0.000000
4997		-5.859375
4998		1.953125
4999		-1.953125
5000		7.812500
5001		3.906250
5002		9.765625
5003		7.812500
5004		13.671875
5005		11.718750
5006		19.531250
5007		15.625000
5008		23.437500
5009		19.531250
5010		27.343750
5011		23.437500
5012		31.250000
5013		27.343750
5014		35.156250
5015		29.296875
5016		39.062500
5017		35.156250
5018		41.015625
5019		41.015625
5020		44.921875
5021		42.968750
5022		50.781250
5023		46.875000
5024		52.734375
5025		50.781250
5026		58.593750
5027		52.734375
5028		60.546875
5029		56.640625
5030		64.453125
5031		60.546875
5032		68.359375
5033		64.453125
5034		70.312500
5035		68.359375
5036		74.218750
5037		72.265625
5038		76.171875
5039		74.218750
5040		82.031250
5041		76.171875
5042		83.984375
5043		80.078125
5044		87.890625
5045		82.031250
5046		91.796875
5047		85.937500
5048		93.750000
5049		87.890625
5050		95.703125
5051		91.796875
5052		97.656250
5053		95.703125
5054		101.562500
5055		99.609375
5056		105.468750
5057		99.609375
5058		107.421875
5059		101.562500
5060		109.375000
5061		105.468750
5062		111.328125
5063		107.421875
5064		115.234375
5065		109.375000
5066		117.187500
5067		111.328125
5068		117.187500
5069		115.234375
5070		119.140625
5071		117.187500
5072		121.093750
5073		117.187500
5074		125.000000
5075		119.140625
5076		126.953125
5077		121.093750
5078		128.906250
5079		123.046875
5080		130.859375
5081		125.000000
5082		130.859375
5083		125.000000
5084		132.812500
5085		128.906250
5086		132.812500
5087		130.859375
5088		134.765625
5089		132.812500
5090		138.671875
5091		130.859375
5092		138.671875
5093		132.812500
5094		140.625000
5095		134.765625
5096		140.625000
5097		134.765625
5098		142.578125
5099		136.718750
5100		142.578125
5101		136.718750
5102		142.578125
5103		138.671875
5104		142.578125
5105		140.625000
5106		144.531250
5107		138.671875
5108		146.484375
5109		138.671875
5110		146.484375
5111		140.625000
5112		146.484375
5113		140.625000
5114		146.484375
5115		140.625000
5116		146.484375
5117		140.625000
5118		146.484375
5119		142.578125
5120		146.484375
5121		142.578125
5122		144.531250
5123		140.625000
5124		146.484375
5125		140.625000
5126		146.484375
5127		140.625000
5128		146.484375
5129		138.671875
5130		146.484375
5131		138.671875
5132		146.484375
5133		138.671875
5134		146.484375
5135		138.671875
5136		144.531250
5137		138.671875
5138		142.578125
5139		136.718750
5140		142.578125
5141		136.718750
5142		142.578125
5143		134.765625
5144		140.625000
5145		134.765625
5146		140.625000
5147		132.812500
5148		140.625000
5149		132.812500
5150		138.671875
5151		130.859375
5152		138.671875
5153		130.859375
5154		134.765625
5155		128.906250
5156		132.812500
5157		126.953125
5158		132.812500
5159		125.000000
5160		130.859375
5161		123.046875
5162		128.906250
5163		121.093750
5164		126.953125
5165		119.140625
5166		126.953125
5167		117.187500
5168		125.000000
5169		117.187500
5170		121.093750
5171		115.234375
5172		119.140625
5173		111.328125
5174		117.187500
5175		107.421875
5176		115.234375
5177		105.468750
5178		113.281250
5179		103.515625
5180		111.328125
5181		101.562500
5182		109.375000
5183		97.656250
5184		105.468750
5185		95.703125
5186		103.515625
5187		93.750000
5188		99.609375
5189		89.843750
5190		95.703125
5191		85.937500
5192		95.703125
5193		83.984375
5194		91.796875
5195		80.078125
5196		89.843750
5197		78.125000
5198		85.937500
5199		74.218750
5200		82.031250
5201		72.265625
5202		78.125000
5203		68.359375
5204		74.218750
5205		66.406250
5206		70.312500
5207		60.546875
5208		68.359375
5209		56.640625
5210		64.453125
5211		52.734375
5212		62.500000
5213		48.828125
5214		58.593750
5215		46.875000
5216		54.687500
5217		42.968750
5218		50.781250
5219		41.015625
5220		46.875000
5221		37.109375
5222		41.015625
5223		31.250000
5224		37.109375
5225		27.343750
5226		35.156250
5227		21.484375
5228		31.250000
5229		19.531250
5230		27.343750
5231		15.625000
5232		23.437500
5233		11.718750
5234		19.531250
5235		7.812500
5236		15.625000
5237		3.906250
5238		9.765625
5239		0.000000
5240		5.859375
5241		-3.906250
5242		1.953125
5243		-9.765625
5244		-1.953125
5245		-13.671875
5246		-5.859375
5247		-17.578125
5248		-9.765625
5249		-21.484375
5250		-13.671875
5251		-25.390625
5252		-17.578125
5253		-29.296875
5254		-21.484375
5255		-33.203125
5256		-27.343750
5257		-39.062500
5258		-31.250000
5259		-42.968750
5260		-33.203125
5261		-44.921875
5262		-39.062500
5263		-50.781250
5264		-41.015625
5265		-56.640625
5266		-46.875000
5267		-58.593750
5268		-50.781250
5269		-60.546875
5270		-54.687500
5271		-64.453125
5272		-60.546875
5273		-70.312500
5274		-64.453125
5275		-74.218750
5276		-66.406250
5277		-76.171875
5278		-72.265625
5279		-80.078125
5280		-74.218750
5281		-85.937500
5282		-78.125000
5283		-89.843750
5284		-82.031250
5285		-93.750000
5286		-85.937500
5287		-95.703125
5288		-89.843750
5289		-97.656250
5290		-93.750000
5291		-101.562500
5292		-97.656250
5293		-105.468750
5294		-99.609375
5295		-109.375000
5296		-103.515625
5297		-113.281250
5298		-107.421875
5299		-115.234375
5300		-109.375000
5301		-119.140625
5302		-113.281250
5303		-121.093750
5304		-115.234375
5305		-123.046875
5306		-119.140625
5307		-126.953125
5308		-123.046875
5309		-128.906250
5310		-125.000000
5311		-132.812500
5312		-126.953125
5313		-134.765625
5314		-130.859375
5315		-136.718750
5316		-132.812500
5317		-138.671875
5318		-134.765625
5319		-142.578125
5320		-136.718750
5321		-142.578125
5322		-138.671875
5323		-144.531250
5324		-140.625000
5325		-148.437500
5326		-142.578125
5327		-150.390625
5328		-146.484375
5329		-150.390625
5330		-146.484375
5331		-152.343750
5332		-148.437500
5333		-154.296875
5334		-150.390625
5335		-154.296875
5336		-152.343750
5337		-156.250000
5338		-152.343750
5339		-158.203125
5340		-154.296875
5341		-160.156250
5342		-154.296875
5343		-160.156250
5344		-156.250000
5345		-160.156250
5346		-158.203125
5347		-160.156250
5348		-158.203125
5349		-162.109375
5350		-158.203125
5351		-162.109375
5352		-158.203125
5353		-162.109375
5354		-158.203125
5355		-162.109375
5356		-160.156250
5357		-162.109375
5358		-160.156250
5359		-162.109375
5360		-158.203125
5361		-162.109375
5362		-158.203125
5363		-162.109375
5364		-158.203125
5365		-162.109375
5366		-158.203125
5367		-160.156250
5368		-156.250000
5369		-160.156250
5370		-156.250000
5371		-158.203125
5372		-156.250000
5373		-158.203125
5374		-154.296875
5375		-158.203125
5376		-152.343750
5377		-156.250000
5378		-152.343750
5379		-154.296875
5380		-150.390625
5381		-152.343750
5382		-150.390625
5383		-150.390625
5384		-148.437500
5385		-150.390625
5386		-146.484375
5387		-148.437500
5388		-144.531250
5389		-146.484375
5390		-142.578125
5391		-144.531250
5392		-138.671875
5393		-142.578125
5394		-136.718750
5395		-138.671875
5396		-134.765625
5397		-136.718750
5398		-132.812500
5399		-134.765625
5400		-128.906250
5401		-132.812500
5402		-126.953125
5403		-128.906250
5404		-125.000000
5405		-126.953125
5406		-121.093750
5407		-123.046875
5408		-119.140625
5409		-121.093750
5410		-115.234375
5411		-117.187500
5412		-113.281250
5413		-115.234375
5414		-109.375000
5415		-111.328125
5416		-105.468750
5417		-107.421875
5418		-103.515625
5419		-103.515625
5420		-99.609375
5421		-101.562500
5422		-95.703125
5423		-97.656250
5424		-91.796875
5425		-93.750000
5426		-87.890625
5427		-89.843750
5428		-83.984375
5429		-85.937500
5430		-80.078125
5431		-82.031250
5432		-76.171875
5433		-78.125000
5434		-72.265625
5435		-74.218750
5436		-68.359375
5437		-70.312500
5438		-64.453125
5439		-66.406250
5440		-60.546875
5441		-62.500000
5442		-54.687500
5443		-58.593750
5444		-52.734375
5445		-54.687500
5446		-48.828125
5447		-50.781250
5448		-44.921875
5449		-46.875000
5450		-39.062500
5451		-41.015625
5452		-35.156250
5453		-37.109375
5454		-31.250000
5455		-33.203125
5456		-27.343750
5457		-29.296875
5458		-23.437500
5459		-25.390625
5460		-19.531250
5461		-21.484375
5462		-15.625000
5463		-15.625000
5464		-9.765625
5465		-11.718750
5466		-5.859375
5467		-7.812500
5468		-1.953125
5469		-3.906250
5470		1.953125
5471		0.000000
5472		5.859375
5473		3.906250
5474		9.765625
5475		7.812500
5476		13.671875
5477		11.718750
5478		19.531250
5479		17.578125
5480		23.437500
5481		21.484375
5482		27.343750
5483		25.390625
5484		31.250000
5485		29.296875
5486		35.156250
5487		33.203125
5488		39.062500
5489		37.109375
5490		42.968750
5491		41.015625
5492		46.875000
5493		42.968750
5494		48.828125
5495		48.828125
5496		54.687500
5497		50.781250
5498		56.640625
5499		54.687500
5500		60.546875
5501		58.593750
5502		64.453125
5503		62.500000
5504		68.359375
5505		66.406250
5506		70.312500
5507		70.312500
5508		74.218750
5509		72.265625
5510		78.125000
5511		76.171875
5512		82.031250
5513		78.125000
5514		83.984375
5515		82.031250
5516		87.890625
5517		85.937500
5518		89.843750
5519		87.890625
5520		93.750000
5521		91.796875
5522		95.703125
5523		93.750000
5524		99.609375
5525		95.703125
5526		101.562500
5527		99.609375
5528		103.515625
5529		101.562500
5530		107.421875
5531		103.515625
5532		109.375000
5533		107.421875
5534		111.328125
5535		109.375000
5536		113.281250
5537		111.328125
5538		115.234375
5539		113.281250
5540		117.187500
5541		115.234375
5542		119.140625
5543		117.187500
5544		121.093750
5545		119.140625
5546		123.046875
5547		121.093750
5548		126.953125
5549		123.046875
5550		126.953125
5551		125.000000
5552		128.906250
5553		126.953125
5554		130.859375
5555		126.953125
5556		132.812500
5557		128.906250
5558		132.812500
5559		130.859375
5560		134.765625
5561		132.812500
5562		136.718750
5563		132.812500
5564		136.718750
5565		134.765625
5566		138.671875
5567		136.718750
5568		140.625000
5569		136.718750
5570		140.625000
5571		136.718750
5572		140.625000
5573		138.671875
5574		140.625000
5575		138.671875
5576		142.578125
5577		138.671875
5578		144.531250
5579		140.625000
5580		144.531250
5581		140.625000
5582		144.531250
5583		140.625000
5584		144.531250
5585		140.625000
5586		144.531250
5587		140.625000
5588		144.531250
5589		140.625000
5590		144.531250
5591		142.578125
5592		144.531250
5593		140.625000
5594		144.531250
5595		142.578125
5596		144.531250
5597		140.625000
5598		144.531250
5599		140.625000
5600		144.531250
5601		140.625000
5602		144.531250
5603		140.625000
5604		142.578125
5605		140.625000
5606		142.578125
5607		138.671875
5608		142.578125
5609		138.671875
5610		140.625000
5611		138.671875
5612		140.625000
5613		136.718750
5614		140.625000
5615		136.718750
5616		140.625000
5617		134.765625
5618		138.671875
5619		132.812500
5620		136.718750
5621		132.812500
5622		136.718750
5623		130.859375
5624		134.765625
5625		130.859375
5626		134.765625
5627		128.906250
5628		132.812500
5629		126.953125
5630		130.859375
5631		125.000000
5632		128.906250
5633		123.046875
5634		128.906250
5635		121.093750
5636		126.953125
5637		119.140625
5638		125.000000
5639		117.187500
5640		121.093750
5641		115.234375
5642		119.140625
5643		113.281250
5644		117.187500
5645		111.328125
5646		115.234375
5647		109.375000
5648		113.281250
5649		107.421875
5650		111.328125
5651		103.515625
5652		109.375000
5653		101.562500
5654		105.468750
5655		97.656250
5656		103.515625
5657		95.703125
5658		101.562500
5659		93.750000
5660		97.656250
5661		89.843750
5662		95.703125
5663		87.890625
5664		91.796875
5665		83.984375
5666		89.843750
5667		80.078125
5668		85.937500
5669		78.125000
5670		83.984375
5671		74.218750
5672		80.078125
5673		72.265625
5674		76.171875
5675		68.359375
5676		74.218750
5677		64.453125
5678		70.312500
5679		60.546875
5680		66.406250
5681		56.640625
5682		62.500000
5683		54.687500
5684		58.593750
5685		50.781250
5686		56.640625
5687		46.875000
5688		52.734375
5689		42.968750
5690		48.828125
5691		39.062500
5692		44.921875
5693		35.156250
5694		41.015625
5695		31.250000
5696		37.109375
5697		27.343750
5698		33.203125
5699		23.437500
5700		29.296875
5701		19.531250
5702		25.390625
5703		13.671875
5704		21.484375
5705		9.765625
5706		17.578125
5707		7.812500
5708		13.671875
5709		1.953125
5710		7.812500
5711		-1.953125
5712		3.906250
5713		-5.859375
5714		1.953125
5715		-9.765625
5716		-3.906250
5717		-13.671875
5718		-7.812500
5719		-19.531250
5720		-11.718750
5721		-21.484375
5722		-15.625000
5723		-25.390625
5724		-19.531250
5725		-31.250000
5726		-25.390625
5727		-35.156250
5728		-29.296875
5729		-39.062500
5730		-33.203125
5731		-42.968750
5732		-37.109375
5733		-46.875000
5734		-41.015625
5735		-50.781250
5736		-44.921875
5737		-54.687500
5738		-48.828125
5739		-60.546875
5740		-52.734375
5741		-62.500000
5742		-56.640625
5743		-66.406250
5744		-60.546875
5745		-70.312500
5746		-64.453125
5747		-74.218750
5748		-68.359375
5749		-78.125000
5750		-72.265625
5751		-82.031250
5752		-76.171875
5753		-85.937500
5754		-80.078125
5755		-89.843750
5756		-83.984375
5757		-93.750000
5758		-87.890625
5759		-95.703125
5760		-91.796875
5761		-101.562500
5762		-95.703125
5763		-103.515625
5764		-97.656250
5765		-107.421875
5766		-101.562500
5767		-109.375000
5768		-103.515625
5769		-113.281250
5770		-107.421875
5771		-117.187500
5772		-111.328125
5773		-119.140625
5774		-115.234375
5775		-121.093750
5776		-117.187500
5777		-125.000000
5778		-121.093750
5779		-126.953125
5780		-123.046875
5781		-130.859375
5782		-125.000000
5783		-132.812500
5784		-128.906250
5785		-134.765625
5786		-130.859375
5787		-138.671875
5788		-132.812500
5789		-140.625000
5790		-134.765625
5791		-142.578125
5792		-136.718750
5793		-144.531250
5794		-140.625000
5795		-148.437500
5796		-142.578125
5797		-150.390625
5798		-142.578125
5799		-150.390625
5800		-144.531250
5801		-152.343750
5802		-146.484375
5803		-154.296875
5804		-148.437500
5805		-156.250000
5806		-150.390625
5807		-156.250000
5808		-150.390625
5809		-158.203125
5810		-154.296875
5811		-160.156250
5812		-154.296875
5813		-160.156250
5814		-156.250000
5815		-162.109375
5816		-156.250000
5817		-162.109375
5818		-156.250000
5819		-162.109375
5820		-158.203125
5821		-164.062500
5822		-158.203125
5823		-164.062500
5824		-158.203125
5825		-164.062500
5826		-160.156250
5827		-162.109375
5828		-160.156250
5829		-164.062500
5830		-158.203125
5831		-164.062500
5832		-158.203125
5833		-164.062500
5834		-158.203125
5835		-162.109375
5836		-158.203125
5837		-162.109375
5838		-158.203125
5839		-162.109375
5840		-156.250000
5841		-160.156250
5842		-156.250000
5843		-160.156250
5844		-156.250000
5845		-158.203125
5846		-154.296875
5847		-158.203125
5848		-152.343750
5849		-156.250000
5850		-152.343750
5851		-156.250000
5852		-150.390625
5853		-154.296875
5854		-148.437500
5855		-152.343750
5856		-146.484375
5857		-150.390625
5858		-146.484375
5859		-148.437500
5860		-144.531250
5861		-146.484375
5862		-142.578125
5863		-144.531250
5864		-140.625000
5865		-142.578125
5866		-136.718750
5867		-138.671875
5868		-134.765625
5869		-136.718750
5870		-132.812500
5871		-134.765625
5872		-130.859375
5873		-132.812500
5874		-126.953125
5875		-130.859375
5876		-125.000000
5877		-126.953125
5878		-121.093750
5879		-123.046875
5880		-119.140625
5881		-121.093750
5882		-115.234375
5883		-117.187500
5884		-111.328125
5885		-115.234375
5886		-109.375000
5887		-111.328125
5888		-105.468750
5889		-107.421875
5890		-103.515625
5891		-103.515625
5892		-99.609375
5893		-99.609375
5894		-95.703125
5895		-95.703125
5896		-91.796875
5897		-93.750000
5898		-87.890625
5899		-89.843750
5900		-83.984375
5901		-85.937500
5902		-80.078125
5903		-82.031250
5904		-76.171875
5905		-78.125000
5906		-72.265625
5907		-74.218750
5908		-68.359375
5909		-70.312500
5910		-64.453125
5911		-66.406250
5912		-60.546875
5913		-62.500000
5914		-56.640625
5915		-56.640625
5916		-52.734375
5917		-54.687500
5918		-46.875000
5919		-48.828125
5920		-44.921875
5921		-44.921875
5922		-39.062500
5923		-41.015625
5924		-35.156250
5925		-37.109375
5926		-31.250000
5927		-33.203125
5928		-27.343750
5929		-29.296875
5930		-23.437500
5931		-23.437500
5932		-19.531250
5933		-19.531250
5934		-13.671875
5935		-15.625000
5936		-9.765625
5937		-11.718750
5938		-5.859375
5939		-7.812500
5940		-1.953125
5941		-3.906250
5942		1.953125
5943		0.000000
5944		5.859375
5945		5.859375
5946		9.765625
5947		9.765625
5948		15.625000
5949		13.671875
5950		19.531250
5951		17.578125
5952		23.437500
5953		21.484375
5954		27.343750
5955		25.390625
5956		31.250000
5957		29.296875
5958		35.156250
5959		33.203125
5960		39.062500
5961		37.109375
5962		42.968750
5963		39.062500
5964		48.828125
5965		42.968750
5966		52.734375
5967		46.875000
5968		56.640625
5969		50.781250
5970		56.640625
5971		56.640625
5972		60.546875
5973		58.593750
5974		64.453125
5975		62.500000
5976		66.406250
5977		66.406250
5978		70.312500
5979		68.359375
5980		76.171875
5981		68.359375
5982		80.078125
5983		72.265625
5984		83.984375
5985		76.171875
5986		85.937500
5987		82.031250
5988		85.937500
5989		85.937500
5990		89.843750
5991		87.890625
5992		91.796875
5993		91.796875
5994		95.703125
5995		93.750000
5996		97.656250
5997		93.750000
5998		103.515625
5999		97.656250
6000		105.468750
6001		99.609375
6002		107.421875
6003		103.515625
6004		107.421875
6005		105.468750
6006		111.328125
6007		109.375000
6008		113.281250
6009		111.328125
6010		115.234375
6011		113.281250
6012		117.187500
6013		113.281250
6014		121.093750
6015		115.234375
6016		125.000000
6017		115.234375
6018		126.953125
6019		117.187500
6020		126.953125
6021		123.046875
6022		126.953125
6023		125.000000
6024		128.906250
6025		126.953125
6026		128.906250
6027		126.953125
6028		130.859375
6029		128.906250
6030		132.812500
6031		126.953125
6032		136.718750
6033		128.906250
6034		138.671875
6035		130.859375
6036		140.625000
6037		134.765625
6038		136.718750
6039		134.765625
6040		138.671875
6041		136.718750
6042		138.671875
6043		136.718750
6044		140.625000
6045		138.671875
6046		140.625000
6047		136.718750
6048		144.531250
6049		136.718750
6050		146.484375
6051		136.718750
6052		146.484375
6053		140.625000
6054		142.578125
6055		140.625000
6056		142.578125
6057		140.625000
6058		144.531250
6059		140.625000
6060		144.531250
6061		140.625000
6062		144.531250
6063		138.671875
6064		148.437500
6065		138.671875
6066		148.437500
6067		138.671875
6068		146.484375
6069		138.671875
6070		146.484375
6071		140.625000
6072		142.578125
6073		138.671875
6074		142.578125
6075		140.625000
6076		142.578125
6077		138.671875
6078		142.578125
6079		138.671875
6080		140.625000
6081		134.765625
6082		144.531250
6083		132.812500
6084		142.578125
6085		132.812500
6086		142.578125
6087		134.765625
6088		138.671875
6089		134.765625
6090		136.718750
6091		132.812500
6092		136.718750
6093		130.859375
6094		134.765625
6095		130.859375
6096		134.765625
6097		126.953125
6098		134.765625
6099		125.000000
6100		134.765625
6101		123.046875
6102		132.812500
6103		123.046875
6104		130.859375
6105		123.046875
6106		125.000000
6107		121.093750
6108		125.000000
6109		119.140625
6110		123.046875
6111		115.234375
6112		121.093750
6113		115.234375
6114		119.140625
6115		109.375000
6116		119.140625
6117		107.421875
6118		117.187500
6119		105.468750
6120		115.234375
6121		105.468750
6122		109.375000
6123		101.562500
6124		107.421875
6125		99.609375
6126		103.515625
6127		97.656250
6128		101.562500
6129		93.750000
6130		99.609375
6131		89.843750
6132		97.656250
6133		85.937500
6134		95.703125
6135		83.984375
6136		93.750000
6137		82.031250
6138		89.843750
6139		80.078125
6140		83.984375
6141		76.171875
6142		80.078125
6143		72.265625
6144		78.125000
6145		68.359375
6146		74.218750
6147		66.406250
6148		70.312500
6149		60.546875
6150		68.359375
6151		58.593750
6152		66.406250
6153		54.687500
6154		62.500000
6155		52.734375
6156		56.640625
6157		46.875000
6158		52.734375
6159		44.921875
6160		48.828125
6161		41.015625
6162		46.875000
6163		37.109375
6164		42.968750
6165		33.203125
6166		39.062500
6167		27.343750
6168		35.156250
6169		25.390625
6170		33.203125
6171		21.484375
6172		25.390625
6173		15.625000
6174		21.484375
6175		11.718750
6176		19.531250
6177		9.765625
6178		13.671875
6179		3.906250
6180		9.765625
6181		0.000000
6182		5.859375
6183		-3.906250
6184		1.953125
6185		-7.812500
6186		0.000000
6187		-11.718750
6188		-5.859375
6189		-15.625000
6190		-9.765625
6191		-19.531250
6192		-15.625000
6193		-23.437500
6194		-19.531250
6195		-29.296875
6196		-23.437500
6197		-33.203125
6198		-27.343750
6199		-37.109375
6200		-31.250000
6201		-41.015625
6202		-35.156250
6203		-44.921875
6204		-39.062500
6205		-48.828125
6206		-42.968750
6207		-52.734375
6208		-46.875000
6209		-56.640625
6210		-50.781250
6211		-60.546875
6212		-54.687500
6213		-64.453125
6214		-58.593750
6215		-68.359375
6216		-64.453125
6217		-72.265625
6218		-68.359375
6219		-76.171875
6220		-70.312500
6221		-80.078125
6222		-74.218750
6223		-83.984375
6224		-78.125000
6225		-87.890625
6226		-82.031250
6227		-91.796875
6228		-85.937500
6229		-93.750000
6230		-89.843750
6231		-99.609375
6232		-93.750000
6233		-101.562500
6234		-95.703125
6235		-105.468750
6236		-99.609375
6237		-109.375000
6238		-103.515625
6239		-111.328125
6240		-107.421875
6241		-115.234375
6242		-109.375000
6243		-117.187500
6244		-113.281250
6245		-121.093750
6246		-115.234375
6247		-123.046875
6248		-119.140625
6249		-126.953125
6250		-121.093750
6251		-128.906250
6252		-125.000000
6253		-132.812500
6254		-126.953125
6255		-134.765625
6256		-130.859375
6257		-136.718750
6258		-132.812500
6259		-138.671875
6260		-134.765625
6261		-140.625000
6262		-136.718750
6263		-144.531250
6264		-140.625000
6265		-146.484375
6266		-142.578125
6267		-148.437500
6268		-142.578125
6269		-148.437500
6270		-146.484375
6271		-152.343750
6272		-148.437500
6273		-154.296875
6274		-148.437500
6275		-154.296875
6276		-150.390625
6277		-156.250000
6278		-152.343750
6279		-156.250000
6280		-154.296875
6281		-158.203125
6282		-154.296875
6283		-160.156250
6284		-154.296875
6285		-160.156250
6286		-156.250000
6287		-160.156250
6288		-158.203125
6289		-162.109375
6290		-158.203125
6291		-162.109375
6292		-158.203125
6293		-162.109375
6294		-160.156250
6295		-162.109375
6296		-160.156250
6297		-164.062500
6298		-160.156250
6299		-164.062500
6300		-160.156250
6301		-164.062500
6302		-160.156250
6303		-162.109375
6304		-160.156250
6305		-162.109375
6306		-158.203125
6307		-164.062500
6308		-158.203125
6309		-162.109375
6310		-158.203125
6311		-160.156250
6312		-158.203125
6313		-160.156250
6314		-156.250000
6315		-158.203125
6316		-154.296875
6317		-158.203125
6318		-154.296875
6319		-158.203125
6320		-154.296875
6321		-156.250000
6322		-152.343750
6323		-154.296875
6324		-150.390625
6325		-154.296875
6326		-148.437500
6327		-152.343750
6328		-148.437500
6329		-150.390625
6330		-144.531250
6331		-148.437500
6332		-144.531250
6333		-146.484375
6334		-140.625000
6335		-144.531250
6336		-138.671875
6337		-140.625000
6338		-136.718750
6339		-138.671875
6340		-134.765625
6341		-136.718750
6342		-132.812500
6343		-134.765625
6344		-128.906250
6345		-130.859375
6346		-126.953125
6347		-128.906250
6348		-125.000000
6349		-126.953125
6350		-121.093750
6351		-123.046875
6352		-117.187500
6353		-121.093750
6354		-115.234375
6355		-117.187500
6356		-111.328125
6357		-113.281250
6358		-107.421875
6359		-111.328125
6360		-105.468750
6361		-107.421875
6362		-101.562500
6363		-103.515625
6364		-97.656250
6365		-99.609375
6366		-93.750000
6367		-97.656250
6368		-91.796875
6369		-93.750000
6370		-85.937500
6371		-87.890625
6372		-83.984375
6373		-85.937500
6374		-80.078125
6375		-82.031250
6376		-76.171875
6377		-76.171875
6378		-72.265625
6379		-72.265625
6380		-68.359375
6381		-68.359375
6382		-62.500000
6383		-64.453125
6384		-58.593750
6385		-60.546875
6386		-54.687500
6387		-56.640625
6388		-50.781250
6389		-52.734375
6390		-46.875000
6391		-48.828125
6392		-42.968750
6393		-44.921875
6394		-39.062500
6395		-41.015625
6396		-35.156250
6397		-35.156250
6398		-31.250000
6399		-31.250000
6400		-23.437500
6401		-27.343750
6402		-21.484375
6403		-23.437500
6404		-17.578125
6405		-19.531250
6406		-13.671875
6407		-15.625000
6408		-7.812500
6409		-11.718750
6410		-5.859375
6411		-5.859375
6412		0.000000
6413		-1.953125
6414		3.906250
6415		1.953125
6416		7.812500
6417		5.859375
6418		11.718750
6419		9.765625
6420		15.625000
6421		13.671875
6422		19.531250
6423		17.578125
6424		23.437500
6425		21.484375
6426		27.343750
6427		25.390625
6428		31.250000
6429		29.296875
6430		35.156250
6431		33.203125
6432		39.062500
6433		37.109375
6434		42.968750
6435		41.015625
6436		46.875000
6437		44.921875
6438		50.781250
6439		48.828125
6440		54.687500
6441		52.734375
6442		58.593750
6443		56.640625
6444		62.500000
6445		60.546875
6446		64.453125
6447		62.500000
6448		68.359375
6449		66.406250
6450		72.265625
6451		70.312500
6452		74.218750
6453		74.218750
6454		78.125000
6455		76.171875
6456		82.031250
6457		80.078125
6458		83.984375
6459		82.031250
6460		87.890625
6461		85.937500
6462		89.843750
6463		87.890625
6464		93.750000
6465		91.796875
6466		95.703125
6467		93.750000
6468		99.609375
6469		97.656250
6470		101.562500
6471		99.609375
6472		103.515625
6473		101.562500
6474		107.421875
6475		105.468750
6476		109.375000
6477		107.421875
6478		111.328125
6479		109.375000
6480		113.281250
6481		111.328125
6482		115.234375
6483		113.281250
6484		117.187500
6485		115.234375
6486		119.140625
6487		117.187500
6488		121.093750
6489		119.140625
6490		123.046875
6491		123.046875
6492		125.000000
6493		123.046875
6494		126.953125
6495		125.000000
6496		128.906250
6497		126.953125
6498		130.859375
6499		128.906250
6500		132.812500
6501		130.859375
6502		132.812500
6503		130.859375
6504		134.765625
6505		132.812500
6506		136.718750
6507		134.765625
6508		136.718750
6509		134.765625
6510		138.671875
6511		134.765625
6512		138.671875
6513		136.718750
6514		138.671875
6515		136.718750
6516		140.625000
6517		138.671875
6518		140.625000
6519		138.671875
6520		142.578125
6521		138.671875
6522		142.578125
6523		140.625000
6524		142.578125
6525		140.625000
6526		142.578125
6527		140.625000
6528		142.578125
6529		140.625000
6530		144.531250
6531		140.625000
6532		144.531250
6533		140.625000
6534		144.531250
6535		140.625000
6536		144.531250
6537		140.625000
6538		144.531250
6539		140.625000
6540		142.578125
6541		140.625000
6542		142.578125
6543		140.625000
6544		142.578125
6545		140.625000
6546		142.578125
6547		138.671875
6548		142.578125
6549		138.671875
6550		140.625000
6551		136.718750
6552		140.625000
6553		136.718750
6554		140.625000
6555		136.718750
6556		138.671875
6557		134.765625
6558		138.671875
6559		134.765625
6560		136.718750
6561		132.812500
6562		136.718750
6563		132.812500
6564		134.765625
6565		130.859375
6566		134.765625
6567		128.906250
6568		132.812500
6569		128.906250
6570		130.859375
6571		126.953125
6572		130.859375
6573		125.000000
6574		128.906250
6575		123.046875
6576		126.953125
6577		121.093750
6578		125.000000
6579		119.140625
6580		123.046875
6581		117.187500
6582		121.093750
6583		115.234375
6584		119.140625
6585		111.328125
6586		119.140625
6587		109.375000
6588		115.234375
6589		109.375000
6590		113.281250
6591		105.468750
6592		109.375000
6593		103.515625
6594		107.421875
6595		101.562500
6596		105.468750
6597		97.656250
6598		103.515625
6599		95.703125
6600		99.609375
6601		91.796875
6602		97.656250
6603		87.890625
6604		95.703125
6605		87.890625
6606		91.796875
6607		83.984375
6608		89.843750
6609		82.031250
6610		85.937500
6611		78.125000
6612		82.031250
6613		74.218750
6614		80.078125
6615		70.312500
6616		76.171875
6617		68.359375
6618		72.265625
6619		64.453125
6620		70.312500
6621		60.546875
6622		68.359375
6623		56.640625
6624		62.500000
6625		54.687500
6626		58.593750
6627		50.781250
6628		54.687500
6629		46.875000
6630		50.781250
6631		42.968750
6632		46.875000
6633		39.062500
6634		44.921875
6635		33.203125
6636		41.015625
6637		29.296875
6638		37.109375
6639		27.343750
6640		33.203125
6641		23.437500
6642		29.296875
6643		19.531250
6644		25.390625
6645		15.625000
6646		21.484375
6647		11.718750
6648		17.578125
6649		7.812500
6650		11.718750
6651		1.953125
6652		7.812500
6653		-1.953125
6654		5.859375
6655		-5.859375
6656		1.953125
6657		-9.765625
6658		-3.906250
6659		-13.671875
6660		-7.812500
6661		-17.578125
6662		-11.718750
6663		-21.484375
6664		-15.625000
6665		-25.390625
6666		-21.484375
6667		-31.250000
6668		-25.390625
6669		-37.109375
6670		-29.296875
6671		-39.062500
6672		-33.203125
6673		-42.968750
6674		-37.109375
6675		-46.875000
6676		-41.015625
6677		-50.781250
6678		-44.921875
6679		-54.687500
6680		-48.828125
6681		-58.593750
6682		-52.734375
6683		-62.500000
6684		-56.640625
6685		-68.359375
6686		-60.546875
6687		-72.265625
6688		-64.453125
6689		-74.218750
6690		-68.359375
6691		-78.125000
6692		-72.265625
6693		-82.031250
6694		-76.171875
6695		-85.937500
6696		-80.078125
6697		-89.843750
6698		-83.984375
6699		-93.750000
6700		-87.890625
6701		-97.656250
6702		-91.796875
6703		-101.562500
6704		-93.750000
6705		-103.515625
6706		-97.656250
6707		-107.421875
6708		-101.562500
6709		-109.375000
6710		-105.468750
6711		-113.281250
6712		-109.375000
6713		-117.187500
6714		-111.328125
6715		-121.093750
6716		-115.234375
6717		-123.046875
6718		-117.187500
6719		-126.953125
6720		-121.093750
6721		-130.859375
6722		-123.046875
6723		-130.859375
6724		-126.953125
6725		-134.765625
6726		-128.906250
6727		-136.718750
6728		-130.859375
6729		-138.671875
6730		-134.765625
6731		-140.625000
6732		-136.718750
6733		-142.578125
6734		-138.671875
6735		-146.484375
6736		-142.578125
6737		-148.437500
6738		-142.578125
6739		-148.437500
6740		-144.531250
6741		-150.390625
6742		-148.437500
6743		-152.343750
6744		-148.437500
6745		-154.296875
6746		-150.390625
6747		-156.250000
6748		-152.343750
6749		-156.250000
6750		-152.343750
6751		-158.203125
6752		-154.296875
6753		-160.156250
6754		-154.296875
6755		-162.109375
6756		-156.250000
6757		-162.109375
6758		-158.203125
6759		-162.109375
6760		-158.203125
6761		-162.109375
6762		-160.156250
6763		-162.109375
6764		-160.156250
6765		-164.062500
6766		-160.156250
6767		-164.062500
6768		-160.156250
6769		-166.015625
6770		-160.156250
6771		-164.062500
6772		-160.156250
6773		-164.062500
6774		-160.156250
6775		-164.062500
6776		-160.156250
6777		-162.109375
6778		-160.156250
6779		-162.109375
6780		-160.156250
6781		-162.109375
6782		-158.203125
6783		-160.156250
6784		-158.203125
6785		-160.156250
6786		-156.250000
6787		-160.156250
6788		-156.250000
6789		-158.203125
6790		-154.296875
6791		-156.250000
6792		-154.296875
6793		-156.250000
6794		-152.343750
6795		-154.296875
6796		-150.390625
6797		-152.343750
6798		-148.437500
6799		-150.390625
6800		-146.484375
6801		-148.437500
6802		-146.484375
6803		-146.484375
6804		-142.578125
6805		-144.531250
6806		-140.625000
6807		-142.578125
6808		-138.671875
6809		-140.625000
6810		-136.718750
6811		-138.671875
6812		-134.765625
6813		-136.718750
6814		-130.859375
6815		-132.812500
6816		-128.906250
6817		-130.859375
6818		-126.953125
6819		-126.953125
6820		-123.046875
6821		-125.000000
6822		-121.093750
6823		-121.093750
6824		-117.187500
6825		-119.140625
6826		-113.281250
6827		-115.234375
6828		-111.328125
6829		-113.281250
6830		-107.421875
6831		-109.375000
6832		-103.515625
6833		-105.468750
6834		-99.609375
6835		-103.515625
6836		-97.656250
6837		-97.656250
6838		-93.750000
6839		-95.703125
6840		-89.843750
6841		-91.796875
6842		-85.937500
6843		-87.890625
6844		-82.031250
6845		-83.984375
6846		-78.125000
6847		-80.078125
6848		-74.218750
6849		-76.171875
6850		-70.312500
6851		-72.265625
6852		-66.406250
6853		-68.359375
6854		-62.500000
6855		-64.453125
6856		-58.593750
6857		-60.546875
6858		-54.687500
6859		-54.687500
6860		-50.781250
6861		-50.781250
6862		-44.921875
6863		-46.875000
6864		-41.015625
6865		-42.968750
6866		-37.109375
6867		-39.062500
6868		-33.203125
6869		-35.156250
6870		-29.296875
6871		-29.296875
6872		-25.390625
6873		-25.390625
6874		-19.531250
6875		-21.484375
6876		-15.625000
6877		-17.578125
6878		-11.718750
6879		-13.671875
6880		-7.812500
6881		-9.765625
6882		-3.906250
6883		-5.859375
6884		0.000000
6885		0.000000
6886		3.906250
6887		3.906250
6888		9.765625
6889		7.812500
6890		13.671875
6891		11.718750
6892		17.578125
6893		15.625000
6894		21.484375
6895		19.531250
6896		25.390625
6897		23.437500
6898		29.296875
6899		27.343750
6900		33.203125
6901		31.250000
6902		37.109375
6903		35.156250
6904		41.015625
6905		39.062500
6906		44.921875
6907		42.968750
6908		48.828125
6909		46.875000
6910		52.734375
6911		50.781250
6912		54.687500
6913		54.687500
6914		58.593750
6915		56.640625
6916		62.500000
6917		60.546875
6918		66.406250
6919		64.453125
6920		68.359375
6921		68.359375
6922		72.265625
6923		70.312500
6924		76.171875
6925		74.218750
6926		78.125000
6927		78.125000
6928		82.031250
6929		80.078125
6930		85.937500
6931		83.984375
6932		87.890625
6933		85.937500
6934		91.796875
6935		89.843750
6936		93.750000
6937		91.796875
6938		95.703125
6939		95.703125
6940		99.609375
6941		97.656250
6942		101.562500
6943		99.609375
6944		103.515625
6945		103.515625
6946		107.421875
6947		105.468750
6948		109.375000
6949		107.421875
6950		111.328125
6951		109.375000
6952		113.281250
6953		111.328125
6954		115.234375
6955		113.281250
6956		117.187500
6957		115.234375
6958		119.140625
6959		117.187500
6960		121.093750
6961		119.140625
6962		123.046875
6963		121.093750
6964		125.000000
6965		123.046875
6966		126.953125
6967		125.000000
6968		128.906250
6969		126.953125
6970		130.859375
6971		128.906250
6972		130.859375
6973		128.906250
6974		132.812500
6975		130.859375
6976		134.765625
6977		132.812500
6978		134.765625
6979		132.812500
6980		136.718750
6981		134.765625
6982		136.718750
6983		134.765625
6984		138.671875
6985		136.718750
6986		138.671875
6987		136.718750
6988		140.625000
6989		136.718750
6990		140.625000
6991		138.671875
6992		140.625000
6993		138.671875
6994		142.578125
6995		138.671875
6996		142.578125
6997		140.625000
6998		142.578125
6999		140.625000
7000		142.578125
7001		140.625000
7002		142.578125
7003		140.625000
7004		142.578125
7005		140.625000
7006		142.578125
7007		140.625000
7008		142.578125
7009		140.625000
7010		142.578125
7011		140.625000
7012		142.578125
7013		140.625000
7014		142.578125
7015		138.671875
7016		142.578125
7017		138.671875
7018		142.578125
7019		138.671875
7020		140.625000
7021		138.671875
7022		140.625000
7023		136.718750
7024		140.625000
7025		136.718750
7026		138.671875
7027		134.765625
7028		138.671875
7029		134.765625
7030		136.718750
7031		132.812500
7032		136.718750
7033		132.812500
7034		134.765625
7035		130.859375
7036		134.765625
7037		128.906250
7038		132.812500
7039		128.906250
7040		132.812500
7041		126.953125
7042		130.859375
7043		125.000000
7044		128.906250
7045		123.046875
7046		126.953125
7047		123.046875
7048		125.000000
7049		121.093750
7050		123.046875
7051		119.140625
7052		121.093750
7053		115.234375
7054		121.093750
7055		113.281250
7056		119.140625
7057		111.328125
7058		115.234375
7059		109.375000
7060		113.281250
7061		107.421875
7062		111.328125
7063		105.468750
7064		109.375000
7065		101.562500
7066		107.421875
7067		99.609375
7068		103.515625
7069		97.656250
7070		101.562500
7071		93.750000
7072		99.609375
7073		91.796875
7074		95.703125
7075		89.843750
7076		93.750000
7077		85.937500
7078		89.843750
7079		82.031250
7080		87.890625
7081		80.078125
7082		83.984375
7083		76.171875
7084		82.031250
7085		72.265625
7086		78.125000
7087		70.312500
7088		74.218750
7089		66.406250
7090		72.265625
7091		62.500000
7092		68.359375
7093		58.593750
7094		64.453125
7095		56.640625
7096		60.546875
7097		52.734375
7098		56.640625
7099		48.828125
7100		54.687500
7101		44.921875
7102		50.781250
7103		41.015625
7104		46.875000
7105		37.109375
7106		42.968750
7107		33.203125
7108		39.062500
7109		29.296875
7110		35.156250
7111		25.390625
7112		31.250000
7113		21.484375
7114		27.343750
7115		17.578125
7116		23.437500
7117		13.671875
7118		19.531250
7119		9.765625
7120		15.625000
7121		5.859375
7122		11.718750
7123		1.953125
7124		5.859375
7125		-1.953125
7126		1.953125
7127		-7.812500
7128		-1.953125
7129		-11.718750
7130		-5.859375
7131		-15.625000
7132		-9.765625
7133		-19.531250
7134		-13.671875
7135		-23.437500
7136		-17.578125
7137		-27.343750
7138		-21.484375
7139		-31.250000
7140		-25.390625
7141		-37.109375
7142		-31.250000
7143		-41.015625
7144		-35.156250
7145		-44.921875
7146		-39.062500
7147		-48.828125
7148		-42.968750
7149		-52.734375
7150		-46.875000
7151		-56.640625
7152		-50.781250
7153		-60.546875
7154		-54.687500
7155		-64.453125
7156		-58.593750
7157		-68.359375
7158		-62.500000
7159		-72.265625
7160		-66.406250
7161		-76.171875
7162		-70.312500
7163		-80.078125
7164		-74.218750
7165		-83.984375
7166		-78.125000
7167		-87.890625
7168		-82.031250
7169		-91.796875
7170		-85.937500
7171		-93.750000
7172		-89.843750
7173		-97.656250
7174		-91.796875
7175		-101.562500
7176		-95.703125
7177		-105.468750
7178		-99.609375
7179		-109.375000
7180		-103.515625
7181		-111.328125
7182		-107.421875
7183		-115.234375
7184		-109.375000
7185		-117.187500
7186		-113.281250
7187		-121.093750
7188		-117.187500
7189		-123.046875
7190		-119.140625
7191		-126.953125
7192		-121.093750
7193		-128.906250
7194		-125.000000
7195		-132.812500
7196		-128.906250
7197		-134.765625
7198		-130.859375
7199		-136.718750
7200		-132.812500
7201		-140.625000
7202		-134.765625
7203		-142.578125
7204		-138.671875
7205		-144.531250
7206		-140.625000
7207		-146.484375
7208		-142.578125
7209		-148.437500
7210		-144.531250
7211		-150.390625
7212		-146.484375
7213		-152.343750
7214		-148.437500
7215		-154.296875
7216		-150.390625
7217		-156.250000
7218		-152.343750
7219		-156.250000
7220		-152.343750
7221		-158.203125
7222		-154.296875
7223		-160.156250
7224		-156.250000
7225		-160.156250
7226		-156.250000
7227		-162.109375
7228		-158.203125
7229		-162.109375
7230		-158.203125
7231		-162.109375
7232		-160.156250
7233		-164.062500
7234		-160.156250
7235		-164.062500
7236		-160.156250
7237		-164.062500
7238		-162.109375
7239		-164.062500
7240		-162.109375
7241		-164.062500
7242		-162.109375
7243		-164.062500
7244		-162.109375
7245		-164.062500
7246		-162.109375
7247		-164.062500
7248		-162.109375
7249		-164.062500
7250		-160.156250
7251		-164.062500
7252		-160.156250
7253		-162.109375
7254		-160.156250
7255		-162.109375
7256		-158.203125
7257		-160.156250
7258		-158.203125
7259		-160.156250
7260		-156.250000
7261		-158.203125
7262		-156.250000
7263		-158.203125
7264		-154.296875
7265		-156.250000
7266		-152.343750
7267		-154.296875
7268		-152.343750
7269		-154.296875
7270		-150.390625
7271		-152.343750
7272		-148.437500
7273		-150.390625
7274		-146.484375
7275		-148.437500
7276		-144.531250
7277		-146.484375
7278		-142.578125
7279		-144.531250
7280		-140.625000
7281		-140.625000
7282		-136.718750
7283		-138.671875
7284		-134.765625
7285		-136.718750
7286		-132.812500
7287		-134.765625
7288		-128.906250
7289		-130.859375
7290		-126.953125
7291		-128.906250
7292		-123.046875
7293		-125.000000
7294		-121.093750
7295		-123.046875
7296		-117.187500
7297		-119.140625
7298		-115.234375
7299		-115.234375
7300		-111.328125
7301		-113.281250
7302		-107.421875
7303		-109.375000
7304		-105.468750
7305		-105.468750
7306		-101.562500
7307		-103.515625
7308		-97.656250
7309		-99.609375
7310		-93.750000
7311		-95.703125
7312		-89.843750
7313		-91.796875
7314		-85.937500
7315		-87.890625
7316		-82.031250
7317		-83.984375
7318		-78.125000
7319		-80.078125
7320		-74.218750
7321		-76.171875
7322		-70.312500
7323		-72.265625
7324		-66.406250
7325		-68.359375
7326		-62.500000
7327		-64.453125
7328		-58.593750
7329		-60.546875
7330		-54.687500
7331		-54.687500
7332		-48.828125
7333		-50.781250
7334		-44.921875
7335		-46.875000
7336		-41.015625
7337		-42.968750
7338		-37.109375
7339		-39.062500
7340		-33.203125
7341		-35.156250
7342		-29.296875
7343		-31.250000
7344		-25.390625
7345		-25.390625
7346		-19.531250
7347		-21.484375
7348		-15.625000
7349		-17.578125
7350		-11.718750
7351		-13.671875
7352		-7.812500
7353		-9.765625
7354		-3.906250
7355		-3.906250
7356		0.000000
7357		0.000000
7358		5.859375
7359		3.906250
7360		9.765625
7361		7.812500
7362		13.671875
7363		11.718750
7364		17.578125
7365		15.625000
7366		21.484375
7367		19.531250
7368		25.390625
7369		23.437500
7370		29.296875
7371		27.343750
7372		33.203125
7373		31.250000
7374		37.109375
7375		35.156250
7376		41.015625
7377		39.062500
7378		44.921875
7379		42.968750
7380		48.828125
7381		46.875000
7382		52.734375
7383		50.781250
7384		54.687500
7385		54.687500
7386		58.593750
7387		58.593750
7388		62.500000
7389		60.546875
7390		66.406250
7391		64.453125
7392		70.312500
7393		68.359375
7394		72.265625
7395		70.312500
7396		76.171875
7397		74.218750
7398		80.078125
7399		78.125000
7400		82.031250
7401		80.078125
7402		85.937500
7403		83.984375
7404		87.890625
7405		87.890625
7406		91.796875
7407		89.843750
7408		93.750000
7409		91.796875
7410		97.656250
7411		95.703125
7412		99.609375
7413		97.656250
7414		103.515625
7415		99.609375
7416		105.468750
7417		103.515625
7418		107.421875
7419		105.468750
7420		109.375000
7421		107.421875
7422		111.328125
7423		109.375000
7424		115.234375
7425		111.328125
7426		115.234375
7427		115.234375
7428		117.187500
7429		115.234375
7430		119.140625
7431		119.140625
7432		121.093750
7433		121.093750
7434		123.046875
7435		121.093750
7436		125.000000
7437		123.046875
7438		126.953125
7439		125.000000
7440		128.906250
7441		126.953125
7442		130.859375
7443		128.906250
7444		132.812500
7445		130.859375
7446		132.812500
7447		130.859375
7448		134.765625
7449		132.812500
7450		134.765625
7451		132.812500
7452		136.718750
7453		134.765625
7454		136.718750
7455		134.765625
7456		138.671875
7457		136.718750
7458		138.671875
7459		136.718750
7460		140.625000
7461		138.671875
7462		140.625000
7463		138.671875
7464		140.625000
7465		138.671875
7466		142.578125
7467		138.671875
7468		142.578125
7469		140.625000
7470		142.578125
7471		140.625000
7472		142.578125
7473		140.625000
7474		142.578125
7475		140.625000
7476		142.578125
7477		140.625000
7478		142.578125
7479		140.625000
7480		142.578125
7481		140.625000
7482		142.578125
7483		140.625000
7484		142.578125
7485		140.625000
7486		142.578125
7487		138.671875
7488		142.578125
7489		138.671875
7490		142.578125
7491		138.671875
7492		140.625000
7493		136.718750
7494		140.625000
7495		136.718750
7496		140.625000
7497		136.718750
7498		138.671875
7499		134.765625
7500		138.671875
7501		134.765625
7502		136.718750
7503		132.812500
7504		136.718750
7505		132.812500
7506		134.765625
7507		130.859375
7508		134.765625
7509		128.906250
7510		132.812500
7511		126.953125
7512		130.859375
7513		126.953125
7514		130.859375
7515		125.000000
7516		128.906250
7517		123.046875
7518		126.953125
7519		121.093750
7520		125.000000
7521		119.140625
7522		123.046875
7523		117.187500
7524		121.093750
7525		115.234375
7526		119.140625
7527		113.281250
7528		117.187500
7529		111.328125
7530		115.234375
7531		109.375000
7532		113.281250
7533		107.421875
7534		111.328125
7535		103.515625
7536		107.421875
7537		101.562500
7538		105.468750
7539		99.609375
7540		103.515625
7541		95.703125
7542		101.562500
7543		93.750000
7544		97.656250
7545		89.843750
7546		95.703125
7547		87.890625
7548		91.796875
7549		85.937500
7550		89.843750
7551		82.031250
7552		85.937500
7553		78.125000
7554		83.984375
7555		76.171875
7556		80.078125
7557		72.265625
7558		76.171875
7559		68.359375
7560		74.218750
7561		64.453125
7562		70.312500
7563		62.500000
7564		66.406250
7565		58.593750
7566		62.500000
7567		54.687500
7568		60.546875
7569		50.781250
7570		56.640625
7571		46.875000
7572		52.734375
7573		42.968750
7574		48.828125
7575		39.062500
7576		44.921875
7577		35.156250
7578		41.015625
7579		31.250000
7580		37.109375
7581		27.343750
7582		33.203125
7583		23.437500
7584		29.296875
7585		19.531250
7586		25.390625
7587		15.625000
7588		21.484375
7589		11.718750
7590		17.578125
7591		7.812500
7592		13.671875
7593		3.906250
7594		9.765625
7595		0.000000
7596		5.859375
7597		-3.906250
7598		1.953125
7599		-7.812500
7600		-3.906250
7601		-13.671875
7602		-7.812500
7603		-17.578125
7604		-11.718750
7605		-21.484375
7606		-15.625000
7607		-25.390625
7608		-19.531250
7609		-29.296875
7610		-23.437500
7611		-33.203125
7612		-27.343750
7613		-37.109375
7614		-31.250000
7615		-41.015625
7616		-35.156250
7617		-46.875000
7618		-41.015625
7619		-50.781250
7620		-42.968750
7621		-54.687500
7622		-48.828125
7623		-58.593750
7624		-52.734375
7625		-62.500000
7626		-56.640625
7627		-66.406250
7628		-60.546875
7629		-70.312500
7630		-64.453125
7631		-74.218750
7632		-68.359375
7633		-78.125000
7634		-72.265625
7635		-82.031250
7636		-76.171875
7637		-85.937500
7638		-80.078125
7639		-89.843750
7640		-83.984375
7641		-91.796875
7642		-87.890625
7643		-95.703125
7644		-91.796875
7645		-99.609375
7646		-93.750000
7647		-105.468750
7648		-97.656250
7649		-105.468750
7650		-101.562500
7651		-111.328125
7652		-103.515625
7653		-113.281250
7654		-107.421875
7655		-119.140625
7656		-111.328125
7657		-119.140625
7658		-115.234375
7659		-123.046875
7660		-117.187500
7661		-125.000000
7662		-121.093750
7663		-128.906250
7664		-123.046875
7665		-130.859375
7666		-125.000000
7667		-132.812500
7668		-128.906250
7669		-136.718750
7670		-130.859375
7671		-138.671875
7672		-134.765625
7673		-142.578125
7674		-134.765625
7675		-142.578125
7676		-138.671875
7677		-144.531250
7678		-140.625000
7679		-150.390625
7680		-142.578125
7681		-150.390625
7682		-142.578125
7683		-152.343750
7684		-146.484375
7685		-152.343750
7686		-148.437500
7687		-154.296875
7688		-148.437500
7689		-158.203125
7690		-150.390625
7691		-158.203125
7692		-154.296875
7693		-158.203125
7694		-156.250000
7695		-162.109375
7696		-156.250000
7697		-162.109375
7698		-154.296875
7699		-162.109375
7700		-158.203125
7701		-162.109375
7702		-158.203125
7703		-166.015625
7704		-156.250000
7705		-164.062500
7706		-160.156250
7707		-166.015625
7708		-158.203125
7709		-164.062500
7710		-162.109375
7711		-166.015625
7712		-160.156250
7713		-166.015625
7714		-158.203125
7715		-166.015625
7716		-160.156250
7717		-164.062500
7718		-160.156250
7719		-166.015625
7720		-158.203125
7721		-166.015625
7722		-158.203125
7723		-166.015625
7724		-158.203125
7725		-162.109375
7726		-160.156250
7727		-162.109375
7728		-158.203125
7729		-162.109375
7730		-156.250000
7731		-164.062500
7732		-154.296875
7733		-158.203125
7734		-154.296875
7735		-156.250000
7736		-152.343750
7737		-158.203125
7738		-148.437500
7739		-156.250000
7740		-146.484375
7741		-152.343750
7742		-148.437500
7743		-150.390625
7744		-146.484375
7745		-148.437500
7746		-144.531250
7747		-148.437500
7748		-140.625000
7749		-146.484375
7750		-140.625000
7751		-142.578125
7752		-138.671875
7753		-140.625000
7754		-132.812500
7755		-140.625000
7756		-130.859375
7757		-136.718750
7758		-128.906250
7759		-132.812500
7760		-126.953125
7761		-128.906250
7762		-123.046875
7763		-126.953125
7764		-119.140625
7765		-126.953125
7766		-117.187500
7767		-121.093750
7768		-115.234375
7769		-117.187500
7770		-113.281250
7771		-117.187500
7772		-107.421875
7773		-111.328125
7774		-103.515625
7775		-107.421875
7776		-101.562500
7777		-105.468750
7778		-99.609375
7779		-101.562500
7780		-95.703125
7781		-97.656250
7782		-89.843750
7783		-95.703125
7784		-87.890625
7785		-89.843750
7786		-83.984375
7787		-85.937500
7788		-78.125000
7789		-83.984375
7790		-76.171875
7791		-80.078125
7792		-72.265625
7793		-74.218750
7794		-68.359375
7795		-70.312500
7796		-62.500000
7797		-66.406250
7798		-58.593750
7799		-62.500000
7800		-56.640625
7801		-56.640625
7802		-52.734375
7803		-52.734375
7804		-44.921875
7805		-52.734375
7806		-42.968750
7807		-44.921875
7808		-39.062500
7809		-41.015625
7810		-35.156250
7811		-37.109375
7812		-31.250000
7813		-33.203125
7814		-25.390625
7815		-29.296875
7816		-19.531250
7817		-23.437500
7818		-17.578125
7819		-19.531250
7820		-13.671875
7821		-17.578125
7822		-7.812500
7823		-11.718750
7824		-3.906250
7825		-7.812500
7826		-1.953125
7827		-3.906250
7828		1.953125
7829		1.953125
7830		7.812500
7831		3.906250
7832		11.718750
7833		9.765625
7834		15.625000
7835		13.671875
7836		19.531250
7837		17.578125
7838		25.390625
7839		19.531250
7840		27.343750
7841		25.390625
7842		31.250000
7843		29.296875
7844		35.156250
7845		33.203125
7846		39.062500
7847		37.109375
7848		44.921875
7849		39.062500
7850		46.875000
7851		44.921875
7852		50.781250
7853		48.828125
7854		54.687500
7855		48.828125
7856		58.593750
7857		54.687500
7858		62.500000
7859		58.593750
7860		64.453125
7861		62.500000
7862		68.359375
7863		66.406250
7864		72.265625
7865		68.359375
7866		76.171875
7867		70.312500
7868		78.125000
7869		76.171875
7870		80.078125
7871		78.125000
7872		85.937500
7873		80.078125
7874		85.937500
7875		82.031250
7876		89.843750
7877		87.890625
7878		91.796875
7879		89.843750
7880		95.703125
7881		91.796875
7882		99.609375
7883		95.703125
7884		101.562500
7885		99.609375
7886		103.515625
7887		101.562500
7888		107.421875
7889		103.515625
7890		107.421875
7891		105.468750
7892		111.328125
7893		109.375000
7894		111.328125
7895		111.328125
7896		115.234375
7897		113.281250
7898		117.187500
7899		113.281250
7900		121.093750
7901		113.281250
7902		121.093750
7903		119.140625
7904		123.046875
7905		119.140625
7906		125.000000
7907		123.046875
7908		126.953125
7909		123.046875
7910		126.953125
7911		125.000000
7912		128.906250
7913		126.953125
7914		130.859375
7915		128.906250
7916		132.812500
7917		128.906250
7918		134.765625
7919		130.859375
7920		134.765625
7921		130.859375
7922		136.718750
7923		132.812500
7924		136.718750
7925		134.765625
7926		136.718750
7927		134.765625
7928		138.671875
7929		136.718750
7930		138.671875
7931		136.718750
7932		140.625000
7933		136.718750
7934		140.625000
7935		138.671875
7936		140.625000
7937		138.671875
7938		140.625000
7939		138.671875
7940		142.578125
7941		138.671875
7942		142.578125
7943		138.671875
7944		142.578125
7945		140.625000
7946		142.578125
7947		138.671875
7948		144.531250
7949		140.625000
7950		142.578125
7951		140.625000
7952		142.578125
7953		138.671875
7954		144.531250
7955		138.671875
7956		142.578125
7957		138.671875
7958		142.578125
7959		138.671875
7960		142.578125
7961		138.671875
7962		140.625000
7963		136.718750
7964		140.625000
7965		134.765625
7966		140.625000
7967		134.765625
7968		140.625000
7969		132.812500
7970		138.671875
7971		132.812500
7972		138.671875
7973		132.812500
7974		136.718750
7975		130.859375
7976		136.718750
7977		130.859375
7978		134.765625
7979		128.906250
7980		132.812500
7981		126.953125
7982		132.812500
7983		126.953125
7984		130.859375
7985		123.046875
7986		128.906250
7987		123.046875
7988		128.906250
7989		121.093750
7990		126.953125
7991		119.140625
7992		125.000000
7993		119.140625
7994		123.046875
7995		115.234375
7996		119.140625
7997		113.281250
7998		117.187500
7999		111.328125
8000		117.187500
8001		109.375000
8002		115.234375
8003		105.468750
8004		113.281250
8005		103.515625
8006		109.375000
8007		101.562500
8008		107.421875
8009		99.609375
8010		105.468750
8011		97.656250
8012		101.562500
8013		93.750000
8014		99.609375
8015		91.796875
8016		97.656250
8017		87.890625
8018		93.750000
8019		83.984375
8020		91.796875
8021		82.031250
8022		89.843750
8023		78.125000
8024		85.937500
8025		76.171875
8026		82.031250
8027		72.265625
8028		78.125000
8029		70.312500
8030		74.218750
8031		66.406250
8032		72.265625
8033		62.500000
8034		70.312500
8035		58.593750
8036		64.453125
8037		54.687500
8038		62.500000
8039		50.781250
8040		58.593750
8041		48.828125
8042		54.687500
8043		44.921875
8044		50.781250
8045		41.015625
8046		46.875000
8047		37.109375
8048		42.968750
8049		33.203125
8050		39.062500
8051		29.296875
8052		35.156250
8053		25.390625
8054		33.203125
8055		21.484375
8056		27.343750
8057		17.578125
8058		23.437500
8059		13.671875
8060		19.531250
8061		9.765625
8062		15.625000
8063		5.859375
8064		11.718750
8065		0.000000
8066		7.812500
8067		-1.953125
8068		3.906250
8069		-7.812500
8070		0.000000
8071		-11.718750
8072		-3.906250
8073		-15.625000
8074		-9.765625
8075		-19.531250
8076		-11.718750
8077		-23.437500
8078		-17.578125
8079		-27.343750
8080		-21.484375
8081		-31.250000
8082		-25.390625
8083		-35.156250
8084		-29.296875
8085		-41.015625
8086		-35.156250
8087		-44.921875
8088		-39.062500
8089		-48.828125
8090		-41.015625
8091		-52.734375
8092		-46.875000
8093		-56.640625
8094		-50.781250
8095		-60.546875
8096		-54.687500
8097		-64.453125
8098		-58.593750
8099		-68.359375
8100		-62.500000
8101		-72.265625
8102		-66.406250
8103		-78.125000
8104		-70.312500
8105		-80.078125
8106		-72.265625
8107		-83.984375
8108		-78.125000
8109		-87.890625
8110		-82.031250
8111		-91.796875
8112		-85.937500
8113		-95.703125
8114		-89.843750
8115		-97.656250
8116		-93.750000
8117		-101.562500
8118		-95.703125
8119		-105.468750
8120		-99.609375
8121		-109.375000
8122		-101.562500
8123		-111.328125
8124		-107.421875
8125		-115.234375
8126		-109.375000
8127		-117.187500
8128		-113.281250
8129		-121.093750
8130		-117.187500
8131		-125.000000
8132		-119.140625
8133		-126.953125
8134		-121.093750
8135		-128.906250
8136		-125.000000
8137		-132.812500
8138		-126.953125
8139		-134.765625
8140		-130.859375
8141		-136.718750
8142		-132.812500
8143		-140.625000
8144		-134.765625
8145		-142.578125
8146		-138.671875
8147		-144.531250
8148		-140.625000
8149		-146.484375
8150		-140.625000
8151		-148.437500
8152		-144.531250
8153		-150.390625
8154		-146.484375
8155		-152.343750
8156		-148.437500
8157		-154.296875
8158		-150.390625
8159		-156.250000
8160		-152.343750
8161		-156.250000
8162		-152.343750
8163		-158.203125
8164		-154.296875
8165		-160.156250
8166		-156.250000
8167		-160.156250
8168		-156.250000
8169		-162.109375
8170		-158.203125
8171		-164.062500
8172		-158.203125
8173		-164.062500
8174		-160.156250
8175		-164.062500
8176		-160.156250
8177		-164.062500
8178		-160.156250
8179		-164.062500
8180		-162.109375
8181		-164.062500
8182		-162.109375
8183		-164.062500
8184		-162.109375
8185		-164.062500
8186		-162.109375
8187		-166.015625
8188		-162.109375
8189		-164.062500
8190		-160.156250
8191		-164.062500
8192		-160.156250
8193		-164.062500
8194		-160.156250
8195		-164.062500
8196		-160.156250
8197		-162.109375
8198		-158.203125
8199		-162.109375
8200		-156.250000
8201		-160.156250
8202		-156.250000
8203		-160.156250
8204		-156.250000
8205		-158.203125
8206		-154.296875
8207		-156.250000
8208		-152.343750
8209		-156.250000
8210		-150.390625
8211		-154.296875
8212		-150.390625
8213		-152.343750
8214		-148.437500
8215		-150.390625
8216		-144.531250
8217		-148.437500
8218		-144.531250
8219		-146.484375
8220		-142.578125
8221		-144.531250
8222		-140.625000
8223		-142.578125
8224		-136.718750
8225		-140.625000
8226		-134.765625
8227		-136.718750
8228		-130.859375
8229		-134.765625
8230		-128.906250
8231		-130.859375
8232		-126.953125
8233		-128.906250
8234		-123.046875
8235		-126.953125
8236		-121.093750
8237		-123.046875
8238		-117.187500
8239		-119.140625
8240		-115.234375
8241		-117.187500
8242		-111.328125
8243		-113.281250
8244		-107.421875
8245		-111.328125
8246		-105.468750
8247		-107.421875
8248		-101.562500
8249		-103.515625
8250		-97.656250
8251		-99.609375
8252		-93.750000
8253		-97.656250
8254		-89.843750
8255		-91.796875
8256		-85.937500
8257		-87.890625
8258		-82.031250
8259		-83.984375
8260		-80.078125
8261		-82.031250
8262		-76.171875
8263		-76.171875
8264		-70.312500
8265		-72.265625
8266		-66.406250
8267		-70.312500
8268		-62.500000
8269		-64.453125
8270		-58.593750
8271		-60.546875
8272		-54.687500
8273		-56.640625
8274		-50.781250
8275		-52.734375
8276		-46.875000
8277		-48.828125
8278		-41.015625
8279		-44.921875
8280		-37.109375
8281		-41.015625
8282		-33.203125
8283		-35.156250
8284		-29.296875
8285		-31.250000
8286		-25.390625
8287		-27.343750
8288		-21.484375
8289		-23.437500
8290		-17.578125
8291		-19.531250
8292		-13.671875
8293		-15.625000
8294		-7.812500
8295		-9.765625
8296		-3.906250
8297		-5.859375
8298		0.000000
8299		-1.953125
8300		3.906250
8301		1.953125
8302		7.812500
8303		5.859375
8304		11.718750
8305		9.765625
8306		17.578125
8307		13.671875
8308		19.531250
8309		17.578125
8310		23.437500
8311		23.437500
8312		29.296875
8313		27.343750
8314		33.203125
8315		31.250000
8316		35.156250
8317		35.156250
8318		41.015625
8319		39.062500
8320		42.968750
8321		41.015625
8322		48.828125
8323		44.921875
8324		50.781250
8325		48.828125
8326		54.687500
8327		52.734375
8328		58.593750
8329		56.640625
8330		62.500000
8331		60.546875
8332		64.453125
8333		64.453125
8334		68.359375
8335		66.406250
8336		72.265625
8337		70.312500
8338		76.171875
8339		74.218750
8340		78.125000
8341		76.171875
8342		82.031250
8343		78.125000
8344		85.937500
8345		82.031250
8346		87.890625
8347		85.937500
8348		89.843750
8349		87.890625
8350		93.750000
8351		91.796875
8352		95.703125
8353		93.750000
8354		99.609375
8355		97.656250
8356		101.562500
8357		99.609375
8358		103.515625
8359		101.562500
8360		105.468750
8361		105.468750
8362		109.375000
8363		105.468750
8364		111.328125
8365		109.375000
8366		113.281250
8367		111.328125
8368		115.234375
8369		113.281250
8370		119.140625
8371		115.234375
8372		119.140625
8373		117.187500
8374		121.093750
8375		119.140625
8376		123.046875
8377		121.093750
8378		125.000000
8379		123.046875
8380		126.953125
8381		125.000000
8382		128.906250
8383		126.953125
8384		130.859375
8385		128.906250
8386		132.812500
8387		128.906250
8388		132.812500
8389		130.859375
8390		134.765625
8391		130.859375
8392		134.765625
8393		132.812500
8394		136.718750
8395		134.765625
8396		138.671875
8397		134.765625
8398		138.671875
8399		136.718750
8400		138.671875
8401		136.718750
8402		140.625000
8403		136.718750
8404		140.625000
8405		138.671875
8406		140.625000
8407		138.671875
8408		142.578125
8409		138.671875
8410		142.578125
8411		138.671875
8412		142.578125
8413		138.671875
8414		142.578125
8415		140.625000
8416		142.578125
8417		138.671875
8418		144.531250
8419		140.625000
8420		144.531250
8421		140.625000
8422		144.531250
8423		140.625000
8424		142.578125
8425		140.625000
8426		142.578125
8427		138.671875
8428		142.578125
8429		138.671875
8430		142.578125
8431		138.671875
8432		142.578125
8433		138.671875
8434		140.625000
8435		136.718750
8436		140.625000
8437		136.718750
8438		140.625000
8439		134.765625
8440		138.671875
8441		134.765625
8442		138.671875
8443		134.765625
8444		136.718750
8445		132.812500
8446		136.718750
8447		132.812500
8448		136.718750
8449		130.859375
8450		134.765625
8451		128.906250
8452		132.812500
8453		128.906250
8454		132.812500
8455		126.953125
8456		130.859375
8457		125.000000
8458		128.906250
8459		123.046875
8460		126.953125
8461		121.093750
8462		125.000000
8463		119.140625
8464		125.000000
8465		117.187500
8466		123.046875
8467		115.234375
8468		119.140625
8469		113.281250
8470		117.187500
8471		111.328125
8472		115.234375
8473		107.421875
8474		113.281250
8475		107.421875
8476		111.328125
8477		105.468750
8478		109.375000
8479		101.562500
8480		107.421875
8481		99.609375
8482		103.515625
8483		97.656250
8484		101.562500
8485		93.750000
8486		99.609375
8487		91.796875
8488		95.703125
8489		87.890625
8490		93.750000
8491		85.937500
8492		89.843750
8493		82.031250
8494		87.890625
8495		80.078125
8496		83.984375
8497		76.171875
8498		82.031250
8499		72.265625
8500		78.125000
8501		70.312500
8502		74.218750
8503		66.406250
8504		72.265625
8505		62.500000
8506		68.359375
8507		58.593750
8508		64.453125
8509		56.640625
8510		60.546875
8511		52.734375
8512		56.640625
8513		48.828125
8514		54.687500
8515		44.921875
8516		50.781250
8517		41.015625
8518		46.875000
8519		37.109375
8520		42.968750
8521		33.203125
8522		39.062500
8523		29.296875
8524		35.156250
8525		23.437500
8526		31.250000
8527		21.484375
8528		27.343750
8529		17.578125
8530		23.437500
8531		13.671875
8532		19.531250
8533		9.765625
8534		15.625000
8535		3.906250
8536		11.718750
8537		0.000000
8538		7.812500
8539		-3.906250
8540		3.906250
8541		-7.812500
8542		-1.953125
8543		-11.718750
8544		-5.859375
8545		-15.625000
8546		-9.765625
8547		-19.531250
8548		-13.671875
8549		-23.437500
8550		-17.578125
8551		-29.296875
8552		-21.484375
8553		-31.250000
8554		-25.390625
8555		-37.109375
8556		-29.296875
8557		-41.015625
8558		-35.156250
8559		-44.921875
8560		-39.062500
8561		-48.828125
8562		-42.968750
8563		-52.734375
8564		-46.875000
8565		-56.640625
8566		-50.781250
8567		-60.546875
8568		-54.687500
8569		-64.453125
8570		-58.593750
8571		-68.359375
8572		-62.500000
8573		-72.265625
8574		-66.406250
8575		-76.171875
8576		-70.312500
8577		-80.078125
8578		-74.218750
8579		-83.984375
8580		-78.125000
8581		-87.890625
8582		-82.031250
8583		-91.796875
8584		-85.937500
8585		-93.750000
8586		-89.843750
8587		-97.656250
8588		-91.796875
8589		-101.562500
8590		-97.656250
8591		-105.468750
8592		-99.609375
8593		-109.375000
8594		-103.515625
8595		-111.328125
8596		-107.421875
8597		-115.234375
8598		-109.375000
8599		-119.140625
8600		-113.281250
8601		-121.093750
8602		-117.187500
8603		-125.000000
8604		-119.140625
8605		-126.953125
8606		-123.046875
8607		-130.859375
8608		-125.000000
8609		-132.812500
8610		-126.953125
8611		-134.765625
8612		-130.859375
8613		-136.718750
8614		-132.812500
8615		-140.625000
8616		-134.765625
8617		-142.578125
8618		-138.671875
8619		-144.531250
8620		-140.625000
8621		-146.484375
8622		-142.578125
8623		-148.437500
8624		-144.531250
8625		-150.390625
8626		-146.484375
8627		-152.343750
8628		-148.437500
8629		-154.296875
8630		-148.437500
8631		-156.250000
8632		-152.343750
8633		-156.250000
8634		-152.343750
8635		-158.203125
8636		-154.296875
8637		-160.156250
8638		-154.296875
8639		-160.156250
8640		-156.250000
8641		-162.109375
8642		-158.203125
8643		-162.109375
8644		-158.203125
8645		-162.109375
8646		-160.156250
8647		-164.062500
8648		-160.156250
8649		-164.062500
8650		-160.156250
8651		-164.062500
8652		-162.109375
8653		-164.062500
8654		-162.109375
8655		-164.062500
8656		-162.109375
8657		-164.062500
8658		-162.109375
8659		-166.015625
8660		-162.109375
8661		-164.062500
8662		-160.156250
8663		-164.062500
8664		-160.156250
8665		-164.062500
8666		-160.156250
8667		-162.109375
8668		-160.156250
8669		-162.109375
8670		-158.203125
8671		-160.156250
8672		-158.203125
8673		-160.156250
8674		-156.250000
8675		-158.203125
8676		-154.296875
8677		-158.203125
8678		-154.296875
8679		-156.250000
8680		-152.343750
8681		-154.296875
8682		-150.390625
8683		-152.343750
8684		-148.437500
8685		-150.390625
8686		-146.484375
8687		-150.390625
8688		-144.531250
8689		-146.484375
8690		-142.578125
8691		-146.484375
8692		-140.625000
8693		-142.578125
8694		-138.671875
8695		-140.625000
8696		-136.718750
8697		-138.671875
8698		-132.812500
8699		-136.718750
8700		-130.859375
8701		-132.812500
8702		-128.906250
8703		-130.859375
8704		-125.000000
8705		-126.953125
8706		-123.046875
8707		-125.000000
8708		-119.140625
8709		-121.093750
8710		-117.187500
8711		-119.140625
8712		-113.281250
8713		-115.234375
8714		-109.375000
8715		-111.328125
8716		-107.421875
8717		-109.375000
8718		-103.515625
8719		-105.468750
8720		-99.609375
8721		-101.562500
8722		-95.703125
8723		-97.656250
8724		-91.796875
8725		-93.750000
8726		-89.843750
8727		-89.843750
8728		-85.937500
8729		-85.937500
8730		-80.078125
8731		-82.031250
8732		-76.171875
8733		-80.078125
8734		-74.218750
8735		-74.218750
8736		-70.312500
8737		-72.265625
8738		-66.406250
8739		-66.406250
8740		-60.546875
8741		-62.500000
8742		-56.640625
8743		-58.593750
8744		-52.734375
8745		-54.687500
8746		-48.828125
8747		-50.781250
8748		-44.921875
8749		-46.875000
8750		-41.015625
8751		-42.968750
8752		-37.109375
8753		-39.062500
8754		-31.250000
8755		-35.156250
8756		-27.343750
8757		-29.296875
8758		-23.437500
8759		-25.390625
8760		-19.531250
8761		-21.484375
8762		-15.625000
8763		-17.578125
8764		-11.718750
8765		-13.671875
8766		-5.859375
8767		-7.812500
8768		-3.906250
8769		-5.859375
8770		0.000000
8771		0.000000
8772		5.859375
8773		3.906250
8774		9.765625
8775		7.812500
8776		13.671875
8777		11.718750
8778		17.578125
8779		15.625000
8780		21.484375
8781		19.531250
8782		27.343750
8783		23.437500
8784		29.296875
8785		27.343750
8786		33.203125
8787		31.250000
8788		37.109375
8789		35.156250
8790		41.015625
8791		39.062500
8792		44.921875
8793		42.968750
8794		48.828125
8795		46.875000
8796		52.734375
8797		50.781250
8798		56.640625
8799		54.687500
8800		58.593750
8801		58.593750
8802		62.500000
8803		60.546875
8804		66.406250
8805		64.453125
8806		70.312500
8807		68.359375
8808		72.265625
8809		72.265625
8810		76.171875
8811		74.218750
8812		80.078125
8813		78.125000
8814		82.031250
8815		82.031250
8816		85.937500
8817		83.984375
8818		87.890625
8819		87.890625
8820		91.796875
8821		89.843750
8822		93.750000
8823		91.796875
8824		97.656250
8825		95.703125
8826		99.609375
8827		97.656250
8828		103.515625
8829		101.562500
8830		105.468750
8831		103.515625
8832		107.421875
8833		105.468750
8834		109.375000
8835		107.421875
8836		111.328125
8837		109.375000
8838		115.234375
8839		111.328125
8840		117.187500
8841		115.234375
8842		119.140625
8843		117.187500
8844		121.093750
8845		119.140625
8846		123.046875
8847		119.140625
8848		123.046875
8849		121.093750
8850		126.953125
8851		123.046875
8852		126.953125
8853		125.000000
8854		128.906250
8855		126.953125
8856		132.812500
8857		126.953125
8858		132.812500
8859		128.906250
8860		134.765625
8861		130.859375
8862		136.718750
8863		132.812500
8864		136.718750
8865		132.812500
8866		138.671875
8867		132.812500
8868		136.718750
8869		134.765625
8870		138.671875
8871		136.718750
8872		140.625000
8873		134.765625
8874		142.578125
8875		136.718750
8876		142.578125
8877		136.718750
8878		142.578125
8879		136.718750
8880		142.578125
8881		138.671875
8882		142.578125
8883		138.671875
8884		142.578125
8885		140.625000
8886		142.578125
8887		140.625000
8888		142.578125
8889		138.671875
8890		144.531250
8891		138.671875
8892		144.531250
8893		138.671875
8894		144.531250
8895		138.671875
8896		144.531250
8897		138.671875
8898		144.531250
8899		136.718750
8900		144.531250
8901		138.671875
8902		142.578125
8903		138.671875
8904		140.625000
8905		136.718750
8906		142.578125
8907		134.765625
8908		142.578125
8909		134.765625
8910		142.578125
8911		134.765625
8912		140.625000
8913		132.812500
8914		140.625000
8915		132.812500
8916		138.671875
8917		130.859375
8918		138.671875
8919		132.812500
8920		134.765625
8921		130.859375
8922		134.765625
8923		128.906250
8924		134.765625
8925		125.000000
8926		132.812500
8927		123.046875
8928		130.859375
8929		123.046875
8930		128.906250
8931		121.093750
8932		128.906250
8933		121.093750
8934		126.953125
8935		119.140625
8936		123.046875
8937		117.187500
8938		121.093750
8939		113.281250
8940		119.140625
8941		111.328125
8942		119.140625
8943		109.375000
8944		115.234375
8945		107.421875
8946		113.281250
8947		105.468750
8948		111.328125
8949		101.562500
8950		111.328125
8951		101.562500
8952		105.468750
8953		97.656250
8954		103.515625
8955		93.750000
8956		99.609375
8957		91.796875
8958		99.609375
8959		89.843750
8960		95.703125
8961		85.937500
8962		93.750000
8963		83.984375
8964		89.843750
8965		80.078125
8966		87.890625
8967		78.125000
8968		85.937500
8969		74.218750
8970		80.078125
8971		72.265625
8972		76.171875
8973		66.406250
8974		76.171875
8975		64.453125
8976		72.265625
8977		60.546875
8978		68.359375
8979		56.640625
8980		64.453125
8981		52.734375
8982		60.546875
8983		48.828125
8984		58.593750
8985		46.875000
8986		52.734375
8987		42.968750
8988		48.828125
8989		37.109375
8990		44.921875
8991		35.156250
8992		41.015625
8993		31.250000
8994		39.062500
8995		25.390625
8996		35.156250
8997		23.437500
8998		29.296875
8999		19.531250
9000		27.343750
9001		15.625000
9002		23.437500
9003		11.718750
9004		17.578125
9005		7.812500
9006		13.671875
9007		1.953125
9008		9.765625
9009		-1.953125
9010		5.859375
9011		-5.859375
9012		1.953125
9013		-9.765625
9014		0.000000
9015		-13.671875
9016		-5.859375
9017		-17.578125
9018		-9.765625
9019		-21.484375
9020		-15.625000
9021		-25.390625
9022		-19.531250
9023		-31.250000
9024		-23.437500
9025		-35.156250
9026		-25.390625
9027		-39.062500
9028		-31.250000
9029		-42.968750
9030		-33.203125
9031		-48.828125
9032		-39.062500
9033		-52.734375
9034		-42.968750
9035		-54.687500
9036		-46.875000
9037		-58.593750
9038		-52.734375
9039		-62.500000
9040		-56.640625
9041		-68.359375
9042		-58.593750
9043		-72.265625
9044		-62.500000
9045		-76.171875
9046		-66.406250
9047		-80.078125
9048		-70.312500
9049		-83.984375
9050		-74.218750
9051		-85.937500
9052		-78.125000
9053		-89.843750
9054		-83.984375
9055		-91.796875
9056		-85.937500
9057		-97.656250
9058		-89.843750
9059		-101.562500
9060		-93.750000
9061		-105.468750
9062		-95.703125
9063		-109.375000
9064		-99.609375
9065		-111.328125
9066		-103.515625
9067		-113.281250
9068		-105.468750
9069		-115.234375
9070		-109.375000
9071		-119.140625
9072		-115.234375
9073		-123.046875
9074		-117.187500
9075		-126.953125
9076		-119.140625
9077		-130.859375
9078		-121.093750
9079		-132.812500
9080		-125.000000
9081		-134.765625
9082		-126.953125
9083		-138.671875
9084		-128.906250
9085		-138.671875
9086		-130.859375
9087		-140.625000
9088		-136.718750
9089		-144.531250
9090		-138.671875
9091		-146.484375
9092		-138.671875
9093		-148.437500
9094		-142.578125
9095		-150.390625
9096		-144.531250
9097		-152.343750
9098		-144.531250
9099		-154.296875
9100		-146.484375
9101		-156.250000
9102		-148.437500
9103		-156.250000
9104		-152.343750
9105		-156.250000
9106		-154.296875
9107		-160.156250
9108		-154.296875
9109		-162.109375
9110		-154.296875
9111		-162.109375
9112		-156.250000
9113		-164.062500
9114		-156.250000
9115		-164.062500
9116		-156.250000
9117		-166.015625
9118		-158.203125
9119		-164.062500
9120		-158.203125
9121		-164.062500
9122		-160.156250
9123		-166.015625
9124		-160.156250
9125		-166.015625
9126		-158.203125
9127		-166.015625
9128		-160.156250
9129		-166.015625
9130		-160.156250
9131		-166.015625
9132		-160.156250
9133		-166.015625
9134		-158.203125
9135		-166.015625
9136		-158.203125
9137		-162.109375
9138		-160.156250
9139		-162.109375
9140		-160.156250
9141		-164.062500
9142		-156.250000
9143		-162.109375
9144		-156.250000
9145		-162.109375
9146		-154.296875
9147		-160.156250
9148		-154.296875
9149		-158.203125
9150		-152.343750
9151		-158.203125
9152		-150.390625
9153		-154.296875
9154		-150.390625
9155		-152.343750
9156		-148.437500
9157		-152.343750
9158		-146.484375
9159		-150.390625
9160		-142.578125
9161		-148.437500
9162		-140.625000
9163		-146.484375
9164		-138.671875
9165		-144.531250
9166		-136.718750
9167		-142.578125
9168		-134.765625
9169		-140.625000
9170		-132.812500
9171		-134.765625
9172		-130.859375
9173		-132.812500
9174		-126.953125
9175		-130.859375
9176		-125.000000
9177		-128.906250
9178		-119.140625
9179		-125.000000
9180		-117.187500
9181		-123.046875
9182		-115.234375
9183		-119.140625
9184		-111.328125
9185		-115.234375
9186		-107.421875
9187		-111.328125
9188		-105.468750
9189		-107.421875
9190		-103.515625
9191		-105.468750
9192		-97.656250
9193		-101.562500
9194		-93.750000
9195		-99.609375
9196		-89.843750
9197		-95.703125
9198		-87.890625
9199		-89.843750
9200		-82.031250
9201		-87.890625
9202		-80.078125
9203		-83.984375
9204		-76.171875
9205		-78.125000
9206		-72.265625
9207		-74.218750
9208		-66.406250
9209		-72.265625
9210		-62.500000
9211		-68.359375
9212		-58.593750
9213		-64.453125
9214		-54.687500
9215		-58.593750
9216		-48.828125
9217		-54.687500
9218		-46.875000
9219		-50.781250
9220		-42.968750
9221		-44.921875
9222		-39.062500
9223		-41.015625
9224		-35.156250
9225		-37.109375
9226		-29.296875
9227		-33.203125
9228		-25.390625
9229		-31.250000
9230		-21.484375
9231		-25.390625
9232		-17.578125
9233		-21.484375
9234		-13.671875
9235		-15.625000
9236		-7.812500
9237		-11.718750
9238		-5.859375
9239		-7.812500
9240		-1.953125
9241		-3.906250
9242		3.906250
9243		0.000000
9244		7.812500
9245		1.953125
9246		13.671875
9247		7.812500
9248		15.625000
9249		11.718750
9250		19.531250
9251		15.625000
9252		25.390625
9253		21.484375
9254		27.343750
9255		25.390625
9256		31.250000
9257		29.296875
9258		35.156250
9259		31.250000
9260		41.015625
9261		37.109375
9262		44.921875
9263		39.062500
9264		46.875000
9265		42.968750
9266		50.781250
9267		46.875000
9268		54.687500
9269		50.781250
9270		58.593750
9271		56.640625
9272		60.546875
9273		58.593750
9274		64.453125
9275		62.500000
9276		70.312500
9277		64.453125
9278		72.265625
9279		66.406250
9280		76.171875
9281		70.312500
9282		80.078125
9283		74.218750
9284		82.031250
9285		78.125000
9286		85.937500
9287		80.078125
9288		85.937500
9289		83.984375
9290		89.843750
9291		87.890625
9292		93.750000
9293		89.843750
9294		95.703125
9295		91.796875
9296		99.609375
9297		93.750000
9298		101.562500
9299		97.656250
9300		105.468750
9301		99.609375
9302		107.421875
9303		101.562500
9304		109.375000
9305		105.468750
9306		109.375000
9307		107.421875
9308		111.328125
9309		109.375000
9310		115.234375
9311		111.328125
9312		119.140625
9313		113.281250
9314		121.093750
9315		115.234375
9316		123.046875
9317		117.187500
9318		125.000000
9319		119.140625
9320		125.000000
9321		121.093750
9322		125.000000
9323		123.046875
9324		126.953125
9325		125.000000
9326		130.859375
9327		125.000000
9328		132.812500
9329		126.953125
9330		134.765625
9331		126.953125
9332		134.765625
9333		128.906250
9334		136.718750
9335		130.859375
9336		138.671875
9337		132.812500
9338		136.718750
9339		134.765625
9340		136.718750
9341		134.765625
9342		138.671875
9343		132.812500
9344		140.625000
9345		134.765625
9346		140.625000
9347		134.765625
9348		142.578125
9349		134.765625
9350		142.578125
9351		134.765625
9352		144.531250
9353		136.718750
9354		144.531250
9355		138.671875
9356		142.578125
9357		138.671875
9358		142.578125
9359		138.671875
9360		144.531250
9361		136.718750
9362		144.531250
9363		136.718750
9364		144.531250
9365		136.718750
9366		144.531250
9367		136.718750
9368		144.531250
9369		136.718750
9370		142.578125
9371		136.718750
9372		142.578125
9373		138.671875
9374		140.625000
9375		134.765625
9376		142.578125
9377		134.765625
9378		142.578125
9379		134.765625
9380		140.625000
9381		132.812500
9382		140.625000
9383		132.812500
9384		138.671875
9385		132.812500
9386		138.671875
9387		130.859375
9388		138.671875
9389		130.859375
9390		134.765625
9391		130.859375
9392		132.812500
9393		126.953125
9394		132.812500
9395		125.000000
9396		132.812500
9397		123.046875
9398		130.859375
9399		123.046875
9400		130.859375
9401		121.093750
9402		128.906250
9403		119.140625
9404		126.953125
9405		119.140625
9406		123.046875
9407		117.187500
9408		121.093750
9409		113.281250
9410		119.140625
9411		111.328125
9412		119.140625
9413		109.375000
9414		117.187500
9415		107.421875
9416		115.234375
9417		105.468750
9418		113.281250
9419		103.515625
9420		109.375000
9421		101.562500
9422		107.421875
9423		99.609375
9424		103.515625
9425		95.703125
9426		101.562500
9427		91.796875
9428		99.609375
9429		89.843750
9430		97.656250
9431		85.937500
9432		95.703125
9433		82.031250
9434		91.796875
9435		80.078125
9436		87.890625
9437		78.125000
9438		85.937500
9439		76.171875
9440		82.031250
9441		72.265625
9442		76.171875
9443		68.359375
9444		74.218750
9445		64.453125
9446		72.265625
9447		60.546875
9448		68.359375
9449		56.640625
9450		64.453125
9451		52.734375
9452		60.546875
9453		50.781250
9454		58.593750
9455		48.828125
9456		54.687500
9457		44.921875
9458		48.828125
9459		39.062500
9460		44.921875
9461		35.156250
9462		42.968750
9463		29.296875
9464		39.062500
9465		27.343750
9466		35.156250
9467		23.437500
9468		31.250000
9469		19.531250
9470		27.343750
9471		15.625000
9472		23.437500
9473		11.718750
9474		19.531250
9475		7.812500
9476		13.671875
9477		3.906250
9478		11.718750
9479		-1.953125
9480		7.812500
9481		-5.859375
9482		1.953125
9483		-9.765625
9484		-1.953125
9485		-13.671875
9486		-5.859375
9487		-19.531250
9488		-9.765625
9489		-21.484375
9490		-13.671875
9491		-25.390625
9492		-19.531250
9493		-29.296875
9494		-23.437500
9495		-35.156250
9496		-25.390625
9497		-39.062500
9498		-31.250000
9499		-42.968750
9500		-33.203125
9501		-46.875000
9502		-39.062500
9503		-50.781250
9504		-42.968750
9505		-54.687500
9506		-44.921875
9507		-58.593750
9508		-52.734375
9509		-62.500000
9510		-56.640625
9511		-66.406250
9512		-58.593750
9513		-70.312500
9514		-62.500000
9515		-74.218750
9516		-66.406250
9517		-80.078125
9518		-70.312500
9519		-83.984375
9520		-74.218750
9521		-87.890625
9522		-78.125000
9523		-87.890625
9524		-82.031250
9525		-91.796875
9526		-87.890625
9527		-97.656250
9528		-89.843750
9529		-99.609375
9530		-93.750000
9531		-105.468750
9532		-97.656250
9533		-109.375000
9534		-99.609375
9535		-111.328125
9536		-103.515625
9537		-115.234375
9538		-105.468750
9539		-117.187500
9540		-109.375000
9541		-119.140625
9542		-115.234375
9543		-125.000000
9544		-119.140625
9545		-126.953125
9546		-119.140625
9547		-128.906250
9548		-121.093750
9549		-132.812500
9550		-125.000000
9551		-134.765625
9552		-126.953125
9553		-138.671875
9554		-130.859375
9555		-140.625000
9556		-132.812500
9557		-142.578125
9558		-136.718750
9559		-144.531250
9560		-140.625000
9561		-148.437500
9562		-142.578125
9563		-150.390625
9564		-142.578125
9565		-152.343750
9566		-144.531250
9567		-154.296875
9568		-146.484375
9569		-156.250000
9570		-148.437500
9571		-158.203125
9572		-150.390625
9573		-158.203125
9574		-152.343750
9575		-158.203125
9576		-156.250000
9577		-162.109375
9578		-156.250000
9579		-164.062500
9580		-156.250000
9581		-164.062500
9582		-158.203125
9583		-166.015625
9584		-158.203125
9585		-166.015625
9586		-160.156250
9587		-167.968750
9588		-160.156250
9589		-167.968750
9590		-162.109375
9591		-166.015625
9592		-164.062500
9593		-166.015625
9594		-164.062500
9595		-169.921875
9596		-162.109375
9597		-167.968750
9598		-162.109375
9599		-167.968750
9600		-162.109375
9601		-167.968750
9602		-162.109375
9603		-167.968750
9604		-162.109375
9605		-167.968750
9606		-162.109375
9607		-166.015625
9608		-162.109375
9609		-164.062500
9610		-162.109375
9611		-166.015625
9612		-160.156250
9613		-166.015625
9614		-158.203125
9615		-166.015625
9616		-158.203125
9617		-164.062500
9618		-156.250000
9619		-162.109375
9620		-154.296875
9621		-160.156250
9622		-154.296875
9623		-158.203125
9624		-152.343750
9625		-156.250000
9626		-152.343750
9627		-154.296875
9628		-148.437500
9629		-154.296875
9630		-146.484375
9631		-152.343750
9632		-144.531250
9633		-150.390625
9634		-142.578125
9635		-148.437500
9636		-140.625000
9637		-146.484375
9638		-136.718750
9639		-142.578125
9640		-134.765625
9641		-138.671875
9642		-134.765625
9643		-136.718750
9644		-130.859375
9645		-132.812500
9646		-126.953125
9647		-130.859375
9648		-125.000000
9649		-128.906250
9650		-121.093750
9651		-125.000000
9652		-119.140625
9653		-123.046875
9654		-115.234375
9655		-117.187500
9656		-113.281250
9657		-115.234375
9658		-109.375000
9659		-111.328125
9660		-107.421875
9661		-107.421875
9662		-101.562500
9663		-107.421875
9664		-97.656250
9665		-103.515625
9666		-93.750000
9667		-99.609375
9668		-89.843750
9669		-95.703125
9670		-85.937500
9671		-89.843750
9672		-82.031250
9673		-87.890625
9674		-80.078125
9675		-82.031250
9676		-76.171875
9677		-78.125000
9678		-72.265625
9679		-76.171875
9680		-66.406250
9681		-72.265625
9682		-62.500000
9683		-68.359375
9684		-58.593750
9685		-62.500000
9686		-54.687500
9687		-58.593750
9688		-50.781250
9689		-54.687500
9690		-46.875000
9691		-50.781250
9692		-44.921875
9693		-44.921875
9694		-39.062500
9695		-41.015625
9696		-35.156250
9697		-39.062500
9698		-29.296875
9699		-35.156250
9700		-25.390625
9701		-29.296875
9702		-21.484375
9703		-25.390625
9704		-17.578125
9705		-21.484375
9706		-13.671875
9707		-17.578125
9708		-9.765625
9709		-11.718750
9710		-5.859375
9711		-7.812500
9712		-1.953125
9713		-5.859375
9714		3.906250
9715		0.000000
9716		7.812500
9717		3.906250
9718		13.671875
9719		7.812500
9720		15.625000
9721		11.718750
9722		21.484375
9723		15.625000
9724		23.437500
9725		21.484375
9726		27.343750
9727		25.390625
9728		31.250000
9729		27.343750
9730		35.156250
9731		31.250000
9732		41.015625
9733		35.156250
9734		42.968750
9735		37.109375
9736		48.828125
9737		42.968750
9738		50.781250
9739		46.875000
9740		56.640625
9741		50.781250
9742		56.640625
9743		54.687500
9744		60.546875
9745		58.593750
9746		66.406250
9747		60.546875
9748		68.359375
9749		64.453125
9750		72.265625
9751		68.359375
9752		76.171875
9753		70.312500
9754		80.078125
9755		74.218750
9756		82.031250
9757		76.171875
9758		83.984375
9759		82.031250
9760		85.937500
9761		83.984375
9762		89.843750
9763		85.937500
9764		93.750000
9765		89.843750
9766		95.703125
9767		91.796875
9768		99.609375
9769		93.750000
9770		101.562500
9771		95.703125
9772		103.515625
9773		97.656250
9774		107.421875
9775		101.562500
9776		107.421875
9777		105.468750
9778		109.375000
9779		107.421875
9780		113.281250
9781		107.421875
9782		115.234375
9783		111.328125
9784		117.187500
9785		111.328125
9786		119.140625
9787		115.234375
9788		121.093750
9789		115.234375
9790		123.046875
9791		117.187500
9792		125.000000
9793		121.093750
9794		125.000000
9795		123.046875
9796		126.953125
9797		121.093750
9798		130.859375
9799		125.000000
9800		130.859375
9801		126.953125
9802		132.812500
9803		126.953125
9804		134.765625
9805		126.953125
9806		136.718750
9807		128.906250
9808		136.718750
9809		132.812500
9810		134.765625
9811		132.812500
9812		136.718750
9813		132.812500
9814		140.625000
9815		132.812500
9816		140.625000
9817		134.765625
9818		140.625000
9819		134.765625
9820		140.625000
9821		134.765625
9822		142.578125
9823		134.765625
9824		142.578125
9825		136.718750
9826		142.578125
9827		138.671875
9828		140.625000
9829		136.718750
9830		142.578125
9831		136.718750
9832		142.578125
9833		136.718750
9834		142.578125
9835		136.718750
9836		142.578125
9837		136.718750
9838		142.578125
9839		136.718750
9840		142.578125
9841		134.765625
9842		142.578125
9843		136.718750
9844		140.625000
9845		136.718750
9846		140.625000
9847		134.765625
9848		140.625000
9849		132.812500
9850		140.625000
9851		132.812500
9852		140.625000
9853		132.812500
9854		138.671875
9855		130.859375
9856		138.671875
9857		130.859375
9858		136.718750
9859		130.859375
9860		134.765625
9861		130.859375
9862		132.812500
9863		126.953125
9864		132.812500
9865		125.000000
9866		132.812500
9867		125.000000
9868		132.812500
9869		123.046875
9870		128.906250
9871		121.093750
9872		128.906250
9873		119.140625
9874		126.953125
9875		119.140625
9876		125.000000
9877		117.187500
9878		121.093750
9879		115.234375
9880		119.140625
9881		111.328125
9882		119.140625
9883		109.375000
9884		117.187500
9885		107.421875
9886		115.234375
9887		105.468750
9888		113.281250
9889		103.515625
9890		111.328125
9891		99.609375
9892		107.421875
9893		99.609375
9894		103.515625
9895		97.656250
9896		101.562500
9897		91.796875
9898		99.609375
9899		89.843750
9900		97.656250
9901		85.937500
9902		95.703125
9903		83.984375
9904		91.796875
9905		82.031250
9906		89.843750
9907		78.125000
9908		85.937500
9909		76.171875
9910		83.984375
9911		74.218750
9912		78.125000
9913		68.359375
9914		74.218750
9915		64.453125
9916		72.265625
9917		62.500000
9918		70.312500
9919		58.593750
9920		66.406250
9921		54.687500
9922		62.500000
9923		50.781250
9924		58.593750
9925		48.828125
9926		56.640625
9927		44.921875
9928		50.781250
9929		41.015625
9930		46.875000
9931		37.109375
9932		42.968750
9933		31.250000
9934		41.015625
9935		27.343750
9936		37.109375
9937		23.437500
9938		33.203125
9939		19.531250
9940		29.296875
9941		15.625000
9942		25.390625
9943		13.671875
9944		19.531250
9945		9.765625
9946		15.625000
9947		3.906250
9948		11.718750
9949		0.000000
9950		7.812500
9951		-3.906250
9952		3.906250
9953		-7.812500
9954		0.000000
9955		-11.718750
9956		-3.906250
9957		-17.578125
9958		-7.812500
9959		-19.531250
9960		-11.718750
9961		-23.437500
9962		-17.578125
9963		-27.343750
9964		-21.484375
9965		-33.203125
9966		-23.437500
9967		-37.109375
9968		-29.296875
9969		-41.015625
9970		-33.203125
9971		-46.875000
9972		-37.109375
9973		-50.781250
9974		-41.015625
9975		-52.734375
9976		-44.921875
9977		-56.640625
9978		-48.828125
9979		-60.546875
9980		-54.687500
9981		-66.406250
9982		-58.593750
9983		-70.312500
9984		-60.546875
9985		-74.218750
9986		-64.453125
9987		-78.125000
9988		-68.359375
9989		-80.078125
9990		-74.218750
9991		-83.984375
9992		-76.171875
9993		-87.890625
9994		-80.078125
9995		-91.796875
9996		-85.937500
9997		-95.703125
9998		-89.843750
9999		-99.609375
10000		-91.796875
