Channel              :		CH1
Frequency            :		1.061kHz
Period               :		0.942ms
PK-PK                :		314.5mV
Probe attenuation    :		1X
Voltage per ADC value:		0.122070mV
Time interval        :		2.00000us

index		CH1_Voltage(mV)
1		109.375000
2		109.375000
3		99.609375
4		107.421875
5		97.656250
6		105.468750
7		95.703125
8		101.562500
9		93.750000
10		97.656250
11		89.843750
12		95.703125
13		85.937500
14		91.796875
15		83.984375
16		89.843750
17		80.078125
18		85.937500
19		74.218750
20		83.984375
21		72.265625
22		80.078125
23		70.312500
24		76.171875
25		66.406250
26		74.218750
27		64.453125
28		68.359375
29		58.593750
30		64.453125
31		54.687500
32		64.453125
33		50.781250
34		58.593750
35		46.875000
36		54.687500
37		42.968750
38		50.781250
39		39.062500
40		48.828125
41		37.109375
42		44.921875
43		33.203125
44		39.062500
45		29.296875
46		35.156250
47		23.437500
48		31.250000
49		19.531250
50		29.296875
51		13.671875
52		23.437500
53		11.718750
54		19.531250
55		5.859375
56		15.625000
57		1.953125
58		11.718750
59		0.000000
60		5.859375
61		-3.906250
62		1.953125
63		-9.765625
64		-1.953125
65		-13.671875
66		-5.859375
67		-17.578125
68		-9.765625
69		-21.484375
70		-13.671875
71		-27.343750
72		-17.578125
73		-31.250000
74		-21.484375
75		-33.203125
76		-25.390625
77		-37.109375
78		-31.250000
79		-41.015625
80		-35.156250
81		-48.828125
82		-39.062500
83		-50.781250
84		-42.968750
85		-54.687500
86		-46.875000
87		-60.546875
88		-50.781250
89		-64.453125
90		-54.687500
91		-68.359375
92		-58.593750
93		-68.359375
94		-62.500000
95		-74.218750
96		-68.359375
97		-80.078125
98		-72.265625
99		-82.031250
100		-74.218750
101		-85.937500
102		-78.125000
103		-89.843750
104		-82.031250
105		-91.796875
106		-85.937500
107		-95.703125
108		-87.890625
109		-99.609375
110		-91.796875
111		-101.562500
112		-97.656250
113		-107.421875
114		-99.609375
115		-109.375000
116		-101.562500
117		-113.281250
118		-105.468750
119		-117.187500
120		-109.375000
121		-119.140625
122		-111.328125
123		-123.046875
124		-115.234375
125		-125.000000
126		-117.187500
127		-126.953125
128		-121.093750
129		-128.906250
130		-125.000000
131		-132.812500
132		-125.000000
133		-136.718750
134		-128.906250
135		-138.671875
136		-130.859375
137		-140.625000
138		-132.812500
139		-142.578125
140		-134.765625
141		-144.531250
142		-136.718750
143		-144.531250
144		-140.625000
145		-146.484375
146		-142.578125
147		-148.437500
148		-144.531250
149		-152.343750
150		-144.531250
151		-152.343750
152		-144.531250
153		-154.296875
154		-146.484375
155		-156.250000
156		-148.437500
157		-156.250000
158		-148.437500
159		-156.250000
160		-150.390625
161		-156.250000
162		-152.343750
163		-156.250000
164		-154.296875
165		-160.156250
166		-152.343750
167		-160.156250
168		-154.296875
169		-160.156250
170		-152.343750
171		-160.156250
172		-154.296875
173		-160.156250
174		-154.296875
175		-160.156250
176		-154.296875
177		-160.156250
178		-154.296875
179		-158.203125
180		-156.250000
181		-160.156250
182		-152.343750
183		-160.156250
184		-152.343750
185		-158.203125
186		-152.343750
187		-158.203125
188		-150.390625
189		-156.250000
190		-150.390625
191		-156.250000
192		-148.437500
193		-154.296875
194		-148.437500
195		-150.390625
196		-148.437500
197		-150.390625
198		-146.484375
199		-150.390625
200		-142.578125
201		-148.437500
202		-142.578125
203		-146.484375
204		-140.625000
205		-144.531250
206		-138.671875
207		-144.531250
208		-134.765625
209		-140.625000
210		-134.765625
211		-136.718750
212		-132.812500
213		-134.765625
214		-130.859375
215		-134.765625
216		-126.953125
217		-130.859375
218		-123.046875
219		-128.906250
220		-121.093750
221		-125.000000
222		-119.140625
223		-123.046875
224		-115.234375
225		-119.140625
226		-111.328125
227		-115.234375
228		-111.328125
229		-111.328125
230		-107.421875
231		-109.375000
232		-101.562500
233		-105.468750
234		-97.656250
235		-103.515625
236		-95.703125
237		-101.562500
238		-91.796875
239		-97.656250
240		-87.890625
241		-91.796875
242		-83.984375
243		-89.843750
244		-82.031250
245		-83.984375
246		-78.125000
247		-80.078125
248		-74.218750
249		-78.125000
250		-68.359375
251		-74.218750
252		-66.406250
253		-70.312500
254		-60.546875
255		-66.406250
256		-56.640625
257		-62.500000
258		-52.734375
259		-58.593750
260		-48.828125
261		-52.734375
262		-46.875000
263		-48.828125
264		-42.968750
265		-42.968750
266		-35.156250
267		-41.015625
268		-33.203125
269		-37.109375
270		-27.343750
271		-31.250000
272		-23.437500
273		-27.343750
274		-19.531250
275		-25.390625
276		-15.625000
277		-19.531250
278		-13.671875
279		-13.671875
280		-7.812500
281		-9.765625
282		-3.906250
283		-7.812500
284		0.000000
285		-3.906250
286		5.859375
287		1.953125
288		11.718750
289		3.906250
290		13.671875
291		9.765625
292		17.578125
293		13.671875
294		21.484375
295		19.531250
296		25.390625
297		23.437500
298		29.296875
299		27.343750
300		33.203125
301		29.296875
302		39.062500
303		33.203125
304		42.968750
305		37.109375
306		44.921875
307		42.968750
308		50.781250
309		44.921875
310		52.734375
311		50.781250
312		56.640625
313		54.687500
314		58.593750
315		58.593750
316		64.453125
317		60.546875
318		68.359375
319		64.453125
320		70.312500
321		66.406250
322		74.218750
323		70.312500
324		78.125000
325		74.218750
326		82.031250
327		76.171875
328		83.984375
329		82.031250
330		85.937500
331		83.984375
332		89.843750
333		87.890625
334		93.750000
335		89.843750
336		97.656250
337		91.796875
338		99.609375
339		95.703125
340		103.515625
341		97.656250
342		105.468750
343		101.562500
344		109.375000
345		103.515625
346		109.375000
347		107.421875
348		111.328125
349		109.375000
350		115.234375
351		111.328125
352		119.140625
353		113.281250
354		121.093750
355		115.234375
356		123.046875
357		117.187500
358		125.000000
359		119.140625
360		126.953125
361		121.093750
362		128.906250
363		125.000000
364		128.906250
365		126.953125
366		130.859375
367		126.953125
368		134.765625
369		128.906250
370		136.718750
371		130.859375
372		136.718750
373		132.812500
374		138.671875
375		132.812500
376		140.625000
377		134.765625
378		142.578125
379		138.671875
380		140.625000
381		138.671875
382		142.578125
383		138.671875
384		144.531250
385		138.671875
386		146.484375
387		140.625000
388		146.484375
389		140.625000
390		148.437500
391		142.578125
392		148.437500
393		142.578125
394		150.390625
395		142.578125
396		148.437500
397		146.484375
398		148.437500
399		144.531250
400		150.390625
401		144.531250
402		150.390625
403		144.531250
404		150.390625
405		144.531250
406		152.343750
407		144.531250
408		152.343750
409		144.531250
410		152.343750
411		144.531250
412		152.343750
413		146.484375
414		150.390625
415		146.484375
416		150.390625
417		144.531250
418		150.390625
419		144.531250
420		150.390625
421		144.531250
422		150.390625
423		142.578125
424		150.390625
425		142.578125
426		148.437500
427		140.625000
428		148.437500
429		142.578125
430		146.484375
431		142.578125
432		144.531250
433		138.671875
434		144.531250
435		138.671875
436		144.531250
437		136.718750
438		144.531250
439		134.765625
440		142.578125
441		134.765625
442		140.625000
443		132.812500
444		140.625000
445		132.812500
446		138.671875
447		130.859375
448		134.765625
449		128.906250
450		132.812500
451		126.953125
452		134.765625
453		125.000000
454		132.812500
455		123.046875
456		128.906250
457		121.093750
458		128.906250
459		119.140625
460		125.000000
461		117.187500
462		123.046875
463		115.234375
464		119.140625
465		113.281250
466		117.187500
467		109.375000
468		117.187500
469		107.421875
470		113.281250
471		103.515625
472		113.281250
473		101.562500
474		109.375000
475		97.656250
476		107.421875
477		95.703125
478		103.515625
479		95.703125
480		101.562500
481		91.796875
482		95.703125
483		85.937500
484		93.750000
485		83.984375
486		91.796875
487		80.078125
488		87.890625
489		76.171875
490		85.937500
491		74.218750
492		82.031250
493		70.312500
494		80.078125
495		68.359375
496		76.171875
497		64.453125
498		70.312500
499		62.500000
500		66.406250
501		56.640625
502		64.453125
503		52.734375
504		60.546875
505		48.828125
506		56.640625
507		44.921875
508		52.734375
509		41.015625
510		50.781250
511		39.062500
512		44.921875
513		35.156250
514		41.015625
515		31.250000
516		37.109375
517		25.390625
518		33.203125
519		21.484375
520		29.296875
521		15.625000
522		25.390625
523		13.671875
524		21.484375
525		9.765625
526		17.578125
527		5.859375
528		13.671875
529		1.953125
530		9.765625
531		-1.953125
532		3.906250
533		-5.859375
534		0.000000
535		-11.718750
536		-3.906250
537		-15.625000
538		-7.812500
539		-19.531250
540		-11.718750
541		-23.437500
542		-15.625000
543		-29.296875
544		-19.531250
545		-31.250000
546		-23.437500
547		-35.156250
548		-29.296875
549		-39.062500
550		-33.203125
551		-44.921875
552		-37.109375
553		-48.828125
554		-41.015625
555		-52.734375
556		-44.921875
557		-56.640625
558		-46.875000
559		-62.500000
560		-52.734375
561		-64.453125
562		-56.640625
563		-66.406250
564		-60.546875
565		-70.312500
566		-66.406250
567		-78.125000
568		-70.312500
569		-80.078125
570		-72.265625
571		-83.984375
572		-74.218750
573		-87.890625
574		-78.125000
575		-91.796875
576		-83.984375
577		-93.750000
578		-85.937500
579		-97.656250
580		-89.843750
581		-99.609375
582		-95.703125
583		-103.515625
584		-97.656250
585		-107.421875
586		-101.562500
587		-111.328125
588		-103.515625
589		-115.234375
590		-107.421875
591		-117.187500
592		-109.375000
593		-121.093750
594		-113.281250
595		-123.046875
596		-115.234375
597		-125.000000
598		-119.140625
599		-126.953125
600		-123.046875
601		-132.812500
602		-125.000000
603		-134.765625
604		-126.953125
605		-136.718750
606		-128.906250
607		-138.671875
608		-130.859375
609		-140.625000
610		-132.812500
611		-142.578125
612		-136.718750
613		-144.531250
614		-138.671875
615		-144.531250
616		-140.625000
617		-146.484375
618		-142.578125
619		-150.390625
620		-142.578125
621		-152.343750
622		-144.531250
623		-152.343750
624		-146.484375
625		-154.296875
626		-148.437500
627		-156.250000
628		-148.437500
629		-156.250000
630		-150.390625
631		-156.250000
632		-152.343750
633		-156.250000
634		-154.296875
635		-158.203125
636		-152.343750
637		-160.156250
638		-152.343750
639		-160.156250
640		-152.343750
641		-160.156250
642		-154.296875
643		-160.156250
644		-152.343750
645		-160.156250
646		-154.296875
647		-160.156250
648		-154.296875
649		-158.203125
650		-156.250000
651		-160.156250
652		-154.296875
653		-160.156250
654		-152.343750
655		-158.203125
656		-152.343750
657		-158.203125
658		-152.343750
659		-158.203125
660		-150.390625
661		-156.250000
662		-150.390625
663		-156.250000
664		-148.437500
665		-152.343750
666		-148.437500
667		-150.390625
668		-148.437500
669		-150.390625
670		-144.531250
671		-150.390625
672		-142.578125
673		-148.437500
674		-140.625000
675		-146.484375
676		-138.671875
677		-144.531250
678		-136.718750
679		-142.578125
680		-134.765625
681		-138.671875
682		-134.765625
683		-136.718750
684		-132.812500
685		-132.812500
686		-128.906250
687		-132.812500
688		-125.000000
689		-130.859375
690		-121.093750
691		-128.906250
692		-119.140625
693		-125.000000
694		-117.187500
695		-123.046875
696		-113.281250
697		-119.140625
698		-113.281250
699		-115.234375
700		-109.375000
701		-111.328125
702		-105.468750
703		-109.375000
704		-101.562500
705		-105.468750
706		-97.656250
707		-103.515625
708		-93.750000
709		-99.609375
710		-89.843750
711		-93.750000
712		-87.890625
713		-91.796875
714		-83.984375
715		-87.890625
716		-82.031250
717		-83.984375
718		-78.125000
719		-80.078125
720		-72.265625
721		-76.171875
722		-68.359375
723		-74.218750
724		-64.453125
725		-68.359375
726		-60.546875
727		-64.453125
728		-56.640625
729		-60.546875
730		-52.734375
731		-56.640625
732		-48.828125
733		-50.781250
734		-44.921875
735		-46.875000
736		-39.062500
737		-44.921875
738		-35.156250
739		-39.062500
740		-31.250000
741		-35.156250
742		-27.343750
743		-33.203125
744		-21.484375
745		-27.343750
746		-17.578125
747		-23.437500
748		-15.625000
749		-17.578125
750		-11.718750
751		-13.671875
752		-7.812500
753		-7.812500
754		-1.953125
755		-5.859375
756		1.953125
757		-1.953125
758		7.812500
759		1.953125
760		9.765625
761		5.859375
762		15.625000
763		9.765625
764		19.531250
765		15.625000
766		21.484375
767		19.531250
768		25.390625
769		23.437500
770		31.250000
771		27.343750
772		35.156250
773		31.250000
774		39.062500
775		35.156250
776		42.968750
777		39.062500
778		46.875000
779		42.968750
780		50.781250
781		46.875000
782		52.734375
783		50.781250
784		56.640625
785		54.687500
786		60.546875
787		58.593750
788		64.453125
789		60.546875
790		68.359375
791		64.453125
792		72.265625
793		68.359375
794		76.171875
795		72.265625
796		78.125000
797		76.171875
798		82.031250
799		78.125000
800		83.984375
801		82.031250
802		87.890625
803		85.937500
804		91.796875
805		85.937500
806		95.703125
807		89.843750
808		97.656250
809		91.796875
810		101.562500
811		95.703125
812		103.515625
813		99.609375
814		105.468750
815		101.562500
816		107.421875
817		105.468750
818		109.375000
819		109.375000
820		115.234375
821		109.375000
822		117.187500
823		111.328125
824		119.140625
825		113.281250
826		121.093750
827		115.234375
828		123.046875
829		117.187500
830		125.000000
831		121.093750
832		126.953125
833		125.000000
834		126.953125
835		125.000000
836		128.906250
837		126.953125
838		132.812500
839		126.953125
840		134.765625
841		128.906250
842		136.718750
843		130.859375
844		136.718750
845		132.812500
846		140.625000
847		132.812500
848		140.625000
849		136.718750
850		140.625000
851		138.671875
852		140.625000
853		138.671875
854		144.531250
855		138.671875
856		144.531250
857		140.625000
858		146.484375
859		140.625000
860		148.437500
861		142.578125
862		148.437500
863		142.578125
864		148.437500
865		142.578125
866		148.437500
867		146.484375
868		148.437500
869		146.484375
870		148.437500
871		144.531250
872		150.390625
873		144.531250
874		152.343750
875		144.531250
876		152.343750
877		144.531250
878		152.343750
879		144.531250
880		152.343750
881		144.531250
882		152.343750
883		146.484375
884		150.390625
885		146.484375
886		150.390625
887		144.531250
888		150.390625
889		144.531250
890		152.343750
891		144.531250
892		150.390625
893		144.531250
894		150.390625
895		142.578125
896		150.390625
897		142.578125
898		148.437500
899		142.578125
900		148.437500
901		142.578125
902		146.484375
903		140.625000
904		144.531250
905		138.671875
906		146.484375
907		136.718750
908		144.531250
909		136.718750
910		142.578125
911		134.765625
912		142.578125
913		134.765625
914		140.625000
915		132.812500
916		140.625000
917		132.812500
918		136.718750
919		130.859375
920		134.765625
921		126.953125
922		134.765625
923		125.000000
924		132.812500
925		123.046875
926		130.859375
927		123.046875
928		128.906250
929		121.093750
930		126.953125
931		117.187500
932		125.000000
933		117.187500
934		123.046875
935		115.234375
936		119.140625
937		111.328125
938		117.187500
939		109.375000
940		117.187500
941		107.421875
942		113.281250
943		103.515625
944		111.328125
945		101.562500
946		109.375000
947		97.656250
948		105.468750
949		95.703125
950		103.515625
951		93.750000
952		99.609375
953		91.796875
954		95.703125
955		85.937500
956		93.750000
957		83.984375
958		91.796875
959		80.078125
960		87.890625
961		78.125000
962		85.937500
963		74.218750
964		82.031250
965		70.312500
966		80.078125
967		68.359375
968		74.218750
969		64.453125
970		70.312500
971		60.546875
972		66.406250
973		54.687500
974		64.453125
975		52.734375
976		60.546875
977		48.828125
978		56.640625
979		44.921875
980		52.734375
981		41.015625
982		48.828125
983		39.062500
984		44.921875
985		35.156250
986		39.062500
987		29.296875
988		37.109375
989		25.390625
990		33.203125
991		19.531250
992		29.296875
993		15.625000
994		25.390625
995		13.671875
996		21.484375
997		9.765625
998		17.578125
999		5.859375
1000		11.718750
1001		1.953125
1002		7.812500
1003		-1.953125
1004		3.906250
1005		-7.812500
1006		0.000000
1007		-11.718750
1008		-1.953125
1009		-15.625000
1010		-7.812500
1011		-21.484375
1012		-11.718750
1013		-25.390625
1014		-15.625000
1015		-27.343750
1016		-19.531250
1017		-31.250000
1018		-23.437500
1019		-35.156250
1020		-29.296875
1021		-41.015625
1022		-33.203125
1023		-44.921875
1024		-37.109375
1025		-48.828125
1026		-41.015625
1027		-52.734375
1028		-44.921875
1029		-56.640625
1030		-48.828125
1031		-60.546875
1032		-52.734375
1033		-64.453125
1034		-56.640625
1035		-66.406250
1036		-62.500000
1037		-70.312500
1038		-66.406250
1039		-78.125000
1040		-68.359375
1041		-80.078125
1042		-72.265625
1043		-83.984375
1044		-76.171875
1045		-87.890625
1046		-80.078125
1047		-91.796875
1048		-82.031250
1049		-95.703125
1050		-85.937500
1051		-97.656250
1052		-91.796875
1053		-99.609375
1054		-95.703125
1055		-105.468750
1056		-99.609375
1057		-109.375000
1058		-101.562500
1059		-111.328125
1060		-103.515625
1061		-113.281250
1062		-107.421875
1063		-117.187500
1064		-109.375000
1065		-121.093750
1066		-113.281250
1067		-123.046875
1068		-115.234375
1069		-125.000000
1070		-121.093750
1071		-128.906250
1072		-123.046875
1073		-132.812500
1074		-123.046875
1075		-134.765625
1076		-126.953125
1077		-136.718750
1078		-128.906250
1079		-138.671875
1080		-132.812500
1081		-140.625000
1082		-132.812500
1083		-142.578125
1084		-136.718750
1085		-142.578125
1086		-138.671875
1087		-144.531250
1088		-142.578125
1089		-148.437500
1090		-142.578125
1091		-150.390625
1092		-142.578125
1093		-152.343750
1094		-144.531250
1095		-152.343750
1096		-146.484375
1097		-154.296875
1098		-148.437500
1099		-156.250000
1100		-148.437500
1101		-156.250000
1102		-150.390625
1103		-156.250000
1104		-152.343750
1105		-158.203125
1106		-152.343750
1107		-158.203125
1108		-152.343750
1109		-160.156250
1110		-152.343750
1111		-160.156250
1112		-152.343750
1113		-160.156250
1114		-154.296875
1115		-160.156250
1116		-154.296875
1117		-160.156250
1118		-154.296875
1119		-158.203125
1120		-156.250000
1121		-158.203125
1122		-156.250000
1123		-160.156250
1124		-152.343750
1125		-160.156250
1126		-152.343750
1127		-158.203125
1128		-152.343750
1129		-158.203125
1130		-152.343750
1131		-156.250000
1132		-150.390625
1133		-156.250000
1134		-150.390625
1135		-154.296875
1136		-150.390625
1137		-152.343750
1138		-148.437500
1139		-152.343750
1140		-146.484375
1141		-152.343750
1142		-144.531250
1143		-150.390625
1144		-142.578125
1145		-148.437500
1146		-140.625000
1147		-146.484375
1148		-138.671875
1149		-144.531250
1150		-136.718750
1151		-142.578125
1152		-136.718750
1153		-138.671875
1154		-134.765625
1155		-136.718750
1156		-132.812500
1157		-134.765625
1158		-126.953125
1159		-132.812500
1160		-125.000000
1161		-130.859375
1162		-123.046875
1163		-126.953125
1164		-121.093750
1165		-125.000000
1166		-117.187500
1167		-123.046875
1168		-113.281250
1169		-117.187500
1170		-113.281250
1171		-113.281250
1172		-109.375000
1173		-111.328125
1174		-103.515625
1175		-109.375000
1176		-101.562500
1177		-105.468750
1178		-97.656250
1179		-103.515625
1180		-93.750000
1181		-97.656250
1182		-91.796875
1183		-95.703125
1184		-87.890625
1185		-91.796875
1186		-85.937500
1187		-85.937500
1188		-82.031250
1189		-82.031250
1190		-76.171875
1191		-80.078125
1192		-72.265625
1193		-76.171875
1194		-68.359375
1195		-72.265625
1196		-64.453125
1197		-68.359375
1198		-60.546875
1199		-64.453125
1200		-56.640625
1201		-60.546875
1202		-52.734375
1203		-54.687500
1204		-48.828125
1205		-50.781250
1206		-44.921875
1207		-46.875000
1208		-39.062500
1209		-44.921875
1210		-35.156250
1211		-41.015625
1212		-31.250000
1213		-35.156250
1214		-25.390625
1215		-31.250000
1216		-23.437500
1217		-27.343750
1218		-17.578125
1219		-21.484375
1220		-15.625000
1221		-17.578125
1222		-11.718750
1223		-11.718750
1224		-5.859375
1225		-9.765625
1226		-1.953125
1227		-5.859375
1228		1.953125
1229		-1.953125
1230		7.812500
1231		1.953125
1232		11.718750
1233		5.859375
1234		15.625000
1235		11.718750
1236		17.578125
1237		17.578125
1238		21.484375
1239		21.484375
1240		27.343750
1241		23.437500
1242		31.250000
1243		27.343750
1244		35.156250
1245		31.250000
1246		39.062500
1247		35.156250
1248		42.968750
1249		39.062500
1250		48.828125
1251		42.968750
1252		50.781250
1253		46.875000
1254		52.734375
1255		52.734375
1256		56.640625
1257		54.687500
1258		62.500000
1259		58.593750
1260		66.406250
1261		60.546875
1262		70.312500
1263		64.453125
1264		74.218750
1265		68.359375
1266		76.171875
1267		72.265625
1268		80.078125
1269		74.218750
1270		80.078125
1271		80.078125
1272		83.984375
1273		83.984375
1274		89.843750
1275		83.984375
1276		91.796875
1277		85.937500
1278		95.703125
1279		89.843750
1280		97.656250
1281		93.750000
1282		101.562500
1283		95.703125
1284		103.515625
1285		99.609375
1286		105.468750
1287		103.515625
1288		107.421875
1289		105.468750
1290		109.375000
1291		107.421875
1292		113.281250
1293		109.375000
1294		117.187500
1295		111.328125
1296		119.140625
1297		113.281250
1298		121.093750
1299		115.234375
1300		123.046875
1301		119.140625
1302		125.000000
1303		121.093750
1304		125.000000
1305		125.000000
1306		126.953125
1307		125.000000
1308		130.859375
1309		126.953125
1310		132.812500
1311		128.906250
1312		134.765625
1313		128.906250
1314		136.718750
1315		130.859375
1316		138.671875
1317		132.812500
1318		140.625000
1319		132.812500
1320		138.671875
1321		136.718750
1322		140.625000
1323		138.671875
1324		140.625000
1325		136.718750
1326		144.531250
1327		138.671875
1328		144.531250
1329		140.625000
1330		146.484375
1331		140.625000
1332		146.484375
1333		140.625000
1334		148.437500
1335		142.578125
1336		148.437500
1337		144.531250
1338		146.484375
1339		144.531250
1340		148.437500
1341		144.531250
1342		150.390625
1343		144.531250
1344		150.390625
1345		144.531250
1346		150.390625
1347		144.531250
1348		150.390625
1349		144.531250
1350		150.390625
1351		144.531250
1352		152.343750
1353		144.531250
1354		150.390625
1355		146.484375
1356		150.390625
1357		144.531250
1358		150.390625
1359		144.531250
1360		150.390625
1361		144.531250
1362		150.390625
1363		142.578125
1364		150.390625
1365		142.578125
1366		150.390625
1367		142.578125
1368		150.390625
1369		142.578125
1370		148.437500
1371		142.578125
1372		146.484375
1373		142.578125
1374		144.531250
1375		138.671875
1376		146.484375
1377		138.671875
1378		144.531250
1379		136.718750
1380		144.531250
1381		136.718750
1382		142.578125
1383		134.765625
1384		142.578125
1385		132.812500
1386		140.625000
1387		132.812500
1388		138.671875
1389		132.812500
1390		134.765625
1391		128.906250
1392		134.765625
1393		126.953125
1394		134.765625
1395		125.000000
1396		132.812500
1397		123.046875
1398		130.859375
1399		121.093750
1400		128.906250
1401		119.140625
1402		126.953125
1403		119.140625
1404		125.000000
1405		117.187500
1406		121.093750
1407		115.234375
1408		119.140625
1409		109.375000
1410		117.187500
1411		107.421875
1412		115.234375
1413		105.468750
1414		113.281250
1415		101.562500
1416		109.375000
1417		99.609375
1418		107.421875
1419		97.656250
1420		105.468750
1421		95.703125
1422		101.562500
1423		91.796875
1424		97.656250
1425		87.890625
1426		93.750000
1427		83.984375
1428		93.750000
1429		82.031250
1430		89.843750
1431		80.078125
1432		85.937500
1433		74.218750
1434		83.984375
1435		72.265625
1436		80.078125
1437		70.312500
1438		76.171875
1439		66.406250
1440		72.265625
1441		60.546875
1442		68.359375
1443		58.593750
1444		66.406250
1445		52.734375
1446		62.500000
1447		50.781250
1448		58.593750
1449		46.875000
1450		54.687500
1451		42.968750
1452		50.781250
1453		39.062500
1454		46.875000
1455		37.109375
1456		41.015625
1457		33.203125
1458		37.109375
1459		27.343750
1460		35.156250
1461		23.437500
1462		31.250000
1463		19.531250
1464		27.343750
1465		15.625000
1466		23.437500
1467		9.765625
1468		19.531250
1469		5.859375
1470		15.625000
1471		3.906250
1472		11.718750
1473		0.000000
1474		5.859375
1475		-5.859375
1476		1.953125
1477		-9.765625
1478		-1.953125
1479		-15.625000
1480		-5.859375
1481		-17.578125
1482		-9.765625
1483		-23.437500
1484		-13.671875
1485		-27.343750
1486		-19.531250
1487		-29.296875
1488		-21.484375
1489		-33.203125
1490		-27.343750
1491		-37.109375
1492		-31.250000
1493		-42.968750
1494		-35.156250
1495		-46.875000
1496		-39.062500
1497		-50.781250
1498		-42.968750
1499		-56.640625
1500		-46.875000
1501		-58.593750
1502		-50.781250
1503		-62.500000
1504		-54.687500
1505		-66.406250
1506		-58.593750
1507		-70.312500
1508		-64.453125
1509		-74.218750
1510		-68.359375
1511		-80.078125
1512		-70.312500
1513		-82.031250
1514		-74.218750
1515		-87.890625
1516		-78.125000
1517		-89.843750
1518		-82.031250
1519		-93.750000
1520		-83.984375
1521		-95.703125
1522		-89.843750
1523		-99.609375
1524		-93.750000
1525		-103.515625
1526		-97.656250
1527		-107.421875
1528		-99.609375
1529		-111.328125
1530		-101.562500
1531		-115.234375
1532		-105.468750
1533		-115.234375
1534		-107.421875
1535		-119.140625
1536		-111.328125
1537		-123.046875
1538		-115.234375
1539		-123.046875
1540		-119.140625
1541		-126.953125
1542		-121.093750
1543		-130.859375
1544		-123.046875
1545		-134.765625
1546		-126.953125
1547		-134.765625
1548		-128.906250
1549		-138.671875
1550		-130.859375
1551		-140.625000
1552		-132.812500
1553		-142.578125
1554		-134.765625
1555		-142.578125
1556		-136.718750
1557		-144.531250
1558		-140.625000
1559		-146.484375
1560		-142.578125
1561		-150.390625
1562		-142.578125
1563		-150.390625
1564		-144.531250
1565		-152.343750
1566		-146.484375
1567		-154.296875
1568		-148.437500
1569		-154.296875
1570		-148.437500
1571		-156.250000
1572		-148.437500
1573		-154.296875
1574		-152.343750
1575		-156.250000
1576		-154.296875
1577		-158.203125
1578		-152.343750
1579		-158.203125
1580		-152.343750
1581		-160.156250
1582		-152.343750
1583		-160.156250
1584		-154.296875
1585		-160.156250
1586		-154.296875
1587		-160.156250
1588		-154.296875
1589		-160.156250
1590		-154.296875
1591		-158.203125
1592		-156.250000
1593		-160.156250
1594		-152.343750
1595		-160.156250
1596		-152.343750
1597		-158.203125
1598		-152.343750
1599		-158.203125
1600		-152.343750
1601		-158.203125
1602		-150.390625
1603		-156.250000
1604		-150.390625
1605		-156.250000
1606		-150.390625
1607		-152.343750
1608		-148.437500
1609		-152.343750
1610		-148.437500
1611		-152.343750
1612		-144.531250
1613		-150.390625
1614		-142.578125
1615		-148.437500
1616		-142.578125
1617		-146.484375
1618		-140.625000
1619		-146.484375
1620		-136.718750
1621		-142.578125
1622		-134.765625
1623		-138.671875
1624		-134.765625
1625		-136.718750
1626		-132.812500
1627		-134.765625
1628		-128.906250
1629		-132.812500
1630		-126.953125
1631		-130.859375
1632		-125.000000
1633		-128.906250
1634		-123.046875
1635		-125.000000
1636		-119.140625
1637		-123.046875
1638		-117.187500
1639		-119.140625
1640		-113.281250
1641		-115.234375
1642		-111.328125
1643		-113.281250
1644		-105.468750
1645		-111.328125
1646		-101.562500
1647		-107.421875
1648		-99.609375
1649		-103.515625
1650		-95.703125
1651		-99.609375
1652		-91.796875
1653		-97.656250
1654		-87.890625
1655		-93.750000
1656		-85.937500
1657		-87.890625
1658		-82.031250
1659		-83.984375
1660		-80.078125
1661		-82.031250
1662		-72.265625
1663		-78.125000
1664		-70.312500
1665		-74.218750
1666		-66.406250
1667		-68.359375
1668		-60.546875
1669		-66.406250
1670		-56.640625
1671		-62.500000
1672		-54.687500
1673		-58.593750
1674		-50.781250
1675		-52.734375
1676		-46.875000
1677		-48.828125
1678		-41.015625
1679		-46.875000
1680		-37.109375
1681		-42.968750
1682		-33.203125
1683		-37.109375
1684		-29.296875
1685		-33.203125
1686		-25.390625
1687		-29.296875
1688		-19.531250
1689		-25.390625
1690		-17.578125
1691		-19.531250
1692		-13.671875
1693		-13.671875
1694		-7.812500
1695		-11.718750
1696		-1.953125
1697		-7.812500
1698		0.000000
1699		-3.906250
1700		5.859375
1701		0.000000
1702		9.765625
1703		5.859375
1704		13.671875
1705		9.765625
1706		17.578125
1707		13.671875
1708		19.531250
1709		19.531250
1710		23.437500
1711		21.484375
1712		29.296875
1713		25.390625
1714		33.203125
1715		29.296875
1716		37.109375
1717		33.203125
1718		41.015625
1719		37.109375
1720		44.921875
1721		41.015625
1722		48.828125
1723		44.921875
1724		50.781250
1725		50.781250
1726		54.687500
1727		54.687500
1728		60.546875
1729		54.687500
1730		64.453125
1731		60.546875
1732		68.359375
1733		62.500000
1734		70.312500
1735		66.406250
1736		74.218750
1737		70.312500
1738		78.125000
1739		72.265625
1740		82.031250
1741		78.125000
1742		82.031250
1743		82.031250
1744		85.937500
1745		83.984375
1746		91.796875
1747		85.937500
1748		93.750000
1749		89.843750
1750		97.656250
1751		91.796875
1752		99.609375
1753		95.703125
1754		101.562500
1755		97.656250
1756		105.468750
1757		101.562500
1758		105.468750
1759		105.468750
1760		109.375000
1761		107.421875
1762		113.281250
1763		107.421875
1764		115.234375
1765		111.328125
1766		117.187500
1767		111.328125
1768		121.093750
1769		115.234375
1770		123.046875
1771		117.187500
1772		125.000000
1773		119.140625
1774		126.953125
1775		123.046875
1776		126.953125
1777		125.000000
1778		128.906250
1779		125.000000
1780		132.812500
1781		126.953125
1782		134.765625
1783		128.906250
1784		134.765625
1785		130.859375
1786		136.718750
1787		132.812500
1788		138.671875
1789		132.812500
1790		140.625000
1791		136.718750
1792		140.625000
1793		138.671875
1794		140.625000
1795		136.718750
1796		144.531250
1797		138.671875
1798		144.531250
1799		138.671875
1800		146.484375
1801		140.625000
1802		146.484375
1803		140.625000
1804		148.437500
1805		142.578125
1806		148.437500
1807		144.531250
1808		148.437500
1809		144.531250
1810		148.437500
1811		144.531250
1812		150.390625
1813		144.531250
1814		150.390625
1815		144.531250
1816		150.390625
1817		144.531250
1818		152.343750
1819		144.531250
1820		152.343750
1821		144.531250
1822		152.343750
1823		144.531250
1824		152.343750
1825		148.437500
1826		150.390625
1827		146.484375
1828		150.390625
1829		144.531250
1830		150.390625
1831		144.531250
1832		152.343750
1833		144.531250
1834		150.390625
1835		142.578125
1836		150.390625
1837		142.578125
1838		148.437500
1839		142.578125
1840		148.437500
1841		144.531250
1842		148.437500
1843		142.578125
1844		146.484375
1845		140.625000
1846		146.484375
1847		138.671875
1848		146.484375
1849		138.671875
1850		144.531250
1851		136.718750
1852		142.578125
1853		136.718750
1854		142.578125
1855		134.765625
1856		142.578125
1857		134.765625
1858		140.625000
1859		132.812500
1860		136.718750
1861		132.812500
1862		134.765625
1863		128.906250
1864		134.765625
1865		126.953125
1866		134.765625
1867		125.000000
1868		132.812500
1869		123.046875
1870		128.906250
1871		119.140625
1872		128.906250
1873		119.140625
1874		126.953125
1875		119.140625
1876		123.046875
1877		117.187500
1878		119.140625
1879		111.328125
1880		119.140625
1881		109.375000
1882		117.187500
1883		107.421875
1884		115.234375
1885		103.515625
1886		113.281250
1887		101.562500
1888		109.375000
1889		99.609375
1890		107.421875
1891		97.656250
1892		103.515625
1893		95.703125
1894		99.609375
1895		91.796875
1896		97.656250
1897		87.890625
1898		95.703125
1899		83.984375
1900		91.796875
1901		82.031250
1902		89.843750
1903		78.125000
1904		85.937500
1905		74.218750
1906		82.031250
1907		72.265625
1908		80.078125
1909		68.359375
1910		74.218750
1911		66.406250
1912		70.312500
1913		60.546875
1914		68.359375
1915		56.640625
1916		64.453125
1917		52.734375
1918		62.500000
1919		48.828125
1920		58.593750
1921		44.921875
1922		54.687500
1923		42.968750
1924		48.828125
1925		39.062500
1926		44.921875
1927		35.156250
1928		41.015625
1929		29.296875
1930		37.109375
1931		25.390625
1932		35.156250
1933		23.437500
1934		29.296875
1935		19.531250
1936		27.343750
1937		13.671875
1938		23.437500
1939		9.765625
1940		19.531250
1941		5.859375
1942		15.625000
1943		3.906250
1944		9.765625
1945		-1.953125
1946		3.906250
1947		-7.812500
1948		1.953125
1949		-11.718750
1950		-1.953125
1951		-15.625000
1952		-5.859375
1953		-17.578125
1954		-11.718750
1955		-23.437500
1956		-15.625000
1957		-27.343750
1958		-19.531250
1959		-29.296875
1960		-21.484375
1961		-35.156250
1962		-29.296875
1963		-41.015625
1964		-31.250000
1965		-44.921875
1966		-35.156250
1967		-48.828125
1968		-39.062500
1969		-52.734375
1970		-42.968750
1971		-56.640625
1972		-46.875000
1973		-58.593750
1974		-50.781250
1975		-62.500000
1976		-54.687500
1977		-66.406250
1978		-60.546875
1979		-72.265625
1980		-64.453125
1981		-74.218750
1982		-68.359375
1983		-80.078125
1984		-70.312500
1985		-83.984375
1986		-74.218750
1987		-85.937500
1988		-78.125000
1989		-89.843750
1990		-82.031250
1991		-93.750000
1992		-85.937500
1993		-95.703125
1994		-91.796875
1995		-99.609375
1996		-93.750000
1997		-103.515625
1998		-97.656250
1999		-107.421875
2000		-99.609375
2001		-111.328125
2002		-101.562500
2003		-113.281250
2004		-105.468750
2005		-117.187500
2006		-107.421875
2007		-119.140625
2008		-113.281250
2009		-121.093750
2010		-115.234375
2011		-123.046875
2012		-119.140625
2013		-128.906250
2014		-123.046875
2015		-130.859375
2016		-123.046875
2017		-132.812500
2018		-125.000000
2019		-134.765625
2020		-128.906250
2021		-138.671875
2022		-128.906250
2023		-140.625000
2024		-132.812500
2025		-140.625000
2026		-134.765625
2027		-142.578125
2028		-138.671875
2029		-144.531250
2030		-140.625000
2031		-148.437500
2032		-140.625000
2033		-150.390625
2034		-142.578125
2035		-150.390625
2036		-144.531250
2037		-152.343750
2038		-144.531250
2039		-154.296875
2040		-146.484375
2041		-154.296875
2042		-148.437500
2043		-154.296875
2044		-148.437500
2045		-154.296875
2046		-150.390625
2047		-156.250000
2048		-152.343750
2049		-158.203125
2050		-150.390625
2051		-158.203125
2052		-152.343750
2053		-158.203125
2054		-152.343750
2055		-160.156250
2056		-152.343750
2057		-158.203125
2058		-152.343750
2059		-160.156250
2060		-152.343750
2061		-158.203125
2062		-154.296875
2063		-158.203125
2064		-152.343750
2065		-158.203125
2066		-152.343750
2067		-158.203125
2068		-152.343750
2069		-158.203125
2070		-152.343750
2071		-158.203125
2072		-150.390625
2073		-156.250000
2074		-150.390625
2075		-156.250000
2076		-148.437500
2077		-152.343750
2078		-150.390625
2079		-150.390625
2080		-148.437500
2081		-152.343750
2082		-144.531250
2083		-150.390625
2084		-144.531250
2085		-148.437500
2086		-140.625000
2087		-146.484375
2088		-140.625000
2089		-144.531250
2090		-138.671875
2091		-144.531250
2092		-136.718750
2093		-142.578125
2094		-134.765625
2095		-136.718750
2096		-132.812500
2097		-134.765625
2098		-130.859375
2099		-134.765625
2100		-126.953125
2101		-132.812500
2102		-125.000000
2103		-130.859375
2104		-121.093750
2105		-126.953125
2106		-119.140625
2107		-123.046875
2108		-117.187500
2109		-121.093750
2110		-113.281250
2111		-117.187500
2112		-111.328125
2113		-113.281250
2114		-109.375000
2115		-111.328125
2116		-103.515625
2117		-107.421875
2118		-101.562500
2119		-105.468750
2120		-97.656250
2121		-103.515625
2122		-93.750000
2123		-99.609375
2124		-89.843750
2125		-93.750000
2126		-85.937500
2127		-91.796875
2128		-83.984375
2129		-85.937500
2130		-80.078125
2131		-82.031250
2132		-76.171875
2133		-80.078125
2134		-72.265625
2135		-76.171875
2136		-66.406250
2137		-72.265625
2138		-64.453125
2139		-68.359375
2140		-58.593750
2141		-64.453125
2142		-54.687500
2143		-60.546875
2144		-52.734375
2145		-54.687500
2146		-48.828125
2147		-50.781250
2148		-42.968750
2149		-48.828125
2150		-39.062500
2151		-42.968750
2152		-33.203125
2153		-39.062500
2154		-31.250000
2155		-35.156250
2156		-27.343750
2157		-31.250000
2158		-21.484375
2159		-27.343750
2160		-17.578125
2161		-21.484375
2162		-15.625000
2163		-17.578125
2164		-11.718750
2165		-13.671875
2166		-5.859375
2167		-11.718750
2168		0.000000
2169		-5.859375
2170		3.906250
2171		0.000000
2172		7.812500
2173		3.906250
2174		11.718750
2175		7.812500
2176		15.625000
2177		9.765625
2178		17.578125
2179		17.578125
2180		21.484375
2181		21.484375
2182		27.343750
2183		23.437500
2184		31.250000
2185		25.390625
2186		35.156250
2187		31.250000
2188		39.062500
2189		35.156250
2190		42.968750
2191		39.062500
2192		46.875000
2193		42.968750
2194		50.781250
2195		48.828125
2196		52.734375
2197		50.781250
2198		56.640625
2199		54.687500
2200		62.500000
2201		56.640625
2202		66.406250
2203		60.546875
2204		70.312500
2205		64.453125
2206		72.265625
2207		68.359375
2208		76.171875
2209		72.265625
2210		80.078125
2211		74.218750
2212		82.031250
2213		80.078125
2214		83.984375
2215		82.031250
2216		89.843750
2217		85.937500
2218		91.796875
2219		85.937500
2220		95.703125
2221		89.843750
2222		97.656250
2223		93.750000
2224		101.562500
2225		95.703125
2226		103.515625
2227		99.609375
2228		105.468750
2229		103.515625
2230		107.421875
2231		105.468750
2232		111.328125
2233		107.421875
2234		115.234375
2235		109.375000
2236		117.187500
2237		111.328125
2238		119.140625
2239		113.281250
2240		121.093750
2241		115.234375
2242		123.046875
2243		119.140625
2244		125.000000
2245		121.093750
2246		126.953125
2247		125.000000
2248		126.953125
2249		125.000000
2250		130.859375
2251		126.953125
2252		132.812500
2253		128.906250
2254		134.765625
2255		128.906250
2256		136.718750
2257		130.859375
2258		138.671875
2259		130.859375
2260		140.625000
2261		134.765625
2262		140.625000
2263		136.718750
2264		140.625000
2265		136.718750
2266		142.578125
2267		138.671875
2268		144.531250
2269		138.671875
2270		146.484375
2271		138.671875
2272		146.484375
2273		140.625000
2274		146.484375
2275		140.625000
2276		148.437500
2277		142.578125
2278		148.437500
2279		144.531250
2280		148.437500
2281		146.484375
2282		148.437500
2283		144.531250
2284		150.390625
2285		144.531250
2286		150.390625
2287		144.531250
2288		150.390625
2289		144.531250
2290		152.343750
2291		144.531250
2292		152.343750
2293		146.484375
2294		152.343750
2295		146.484375
2296		152.343750
2297		148.437500
2298		150.390625
2299		146.484375
2300		150.390625
2301		144.531250
2302		152.343750
2303		144.531250
2304		152.343750
2305		144.531250
2306		150.390625
2307		142.578125
2308		150.390625
2309		144.531250
2310		150.390625
2311		142.578125
2312		148.437500
2313		144.531250
2314		146.484375
2315		142.578125
2316		146.484375
2317		140.625000
2318		146.484375
2319		138.671875
2320		146.484375
2321		138.671875
2322		144.531250
2323		136.718750
2324		144.531250
2325		134.765625
2326		142.578125
2327		134.765625
2328		142.578125
2329		134.765625
2330		138.671875
2331		132.812500
2332		136.718750
2333		128.906250
2334		136.718750
2335		128.906250
2336		134.765625
2337		126.953125
2338		132.812500
2339		125.000000
2340		132.812500
2341		123.046875
2342		130.859375
2343		121.093750
2344		128.906250
2345		119.140625
2346		125.000000
2347		117.187500
2348		121.093750
2349		113.281250
2350		119.140625
2351		111.328125
2352		119.140625
2353		109.375000
2354		117.187500
2355		107.421875
2356		113.281250
2357		103.515625
2358		111.328125
2359		101.562500
2360		109.375000
2361		99.609375
2362		105.468750
2363		97.656250
2364		101.562500
2365		95.703125
2366		99.609375
2367		89.843750
2368		97.656250
2369		85.937500
2370		93.750000
2371		83.984375
2372		91.796875
2373		80.078125
2374		89.843750
2375		78.125000
2376		83.984375
2377		74.218750
2378		82.031250
2379		72.265625
2380		80.078125
2381		68.359375
2382		74.218750
2383		64.453125
2384		70.312500
2385		58.593750
2386		68.359375
2387		54.687500
2388		64.453125
2389		52.734375
2390		60.546875
2391		48.828125
2392		56.640625
2393		44.921875
2394		52.734375
2395		42.968750
2396		48.828125
2397		39.062500
2398		44.921875
2399		35.156250
2400		41.015625
2401		29.296875
2402		37.109375
2403		25.390625
2404		35.156250
2405		19.531250
2406		29.296875
2407		17.578125
2408		25.390625
2409		11.718750
2410		21.484375
2411		9.765625
2412		17.578125
2413		5.859375
2414		11.718750
2415		1.953125
2416		7.812500
2417		-3.906250
2418		3.906250
2419		-7.812500
2420		1.953125
2421		-11.718750
2422		-3.906250
2423		-17.578125
2424		-7.812500
2425		-21.484375
2426		-11.718750
2427		-23.437500
2428		-15.625000
2429		-27.343750
2430		-19.531250
2431		-31.250000
2432		-25.390625
2433		-37.109375
2434		-29.296875
2435		-41.015625
2436		-31.250000
2437		-44.921875
2438		-37.109375
2439		-48.828125
2440		-41.015625
2441		-52.734375
2442		-44.921875
2443		-56.640625
2444		-48.828125
2445		-60.546875
2446		-52.734375
2447		-64.453125
2448		-58.593750
2449		-66.406250
2450		-62.500000
2451		-72.265625
2452		-64.453125
2453		-76.171875
2454		-68.359375
2455		-80.078125
2456		-72.265625
2457		-83.984375
2458		-76.171875
2459		-87.890625
2460		-80.078125
2461		-91.796875
2462		-83.984375
2463		-93.750000
2464		-87.890625
2465		-97.656250
2466		-91.796875
2467		-101.562500
2468		-95.703125
2469		-105.468750
2470		-97.656250
2471		-109.375000
2472		-101.562500
2473		-111.328125
2474		-103.515625
2475		-115.234375
2476		-107.421875
2477		-117.187500
2478		-109.375000
2479		-119.140625
2480		-111.328125
2481		-121.093750
2482		-117.187500
2483		-125.000000
2484		-119.140625
2485		-128.906250
2486		-121.093750
2487		-130.859375
2488		-123.046875
2489		-134.765625
2490		-126.953125
2491		-136.718750
2492		-128.906250
2493		-138.671875
2494		-130.859375
2495		-140.625000
2496		-132.812500
2497		-140.625000
2498		-136.718750
2499		-142.578125
2500		-138.671875
2501		-146.484375
2502		-140.625000
2503		-148.437500
2504		-140.625000
2505		-150.390625
2506		-142.578125
2507		-150.390625
2508		-144.531250
2509		-152.343750
2510		-146.484375
2511		-154.296875
2512		-146.484375
2513		-154.296875
2514		-148.437500
2515		-154.296875
2516		-152.343750
2517		-158.203125
2518		-150.390625
2519		-158.203125
2520		-150.390625
2521		-158.203125
2522		-152.343750
2523		-158.203125
2524		-152.343750
2525		-160.156250
2526		-152.343750
2527		-160.156250
2528		-152.343750
2529		-160.156250
2530		-154.296875
2531		-158.203125
2532		-154.296875
2533		-158.203125
2534		-154.296875
2535		-158.203125
2536		-154.296875
2537		-160.156250
2538		-152.343750
2539		-158.203125
2540		-152.343750
2541		-158.203125
2542		-152.343750
2543		-156.250000
2544		-150.390625
2545		-156.250000
2546		-148.437500
2547		-154.296875
2548		-150.390625
2549		-152.343750
2550		-150.390625
2551		-152.343750
2552		-146.484375
2553		-152.343750
2554		-144.531250
2555		-150.390625
2556		-142.578125
2557		-148.437500
2558		-142.578125
2559		-146.484375
2560		-140.625000
2561		-146.484375
2562		-138.671875
2563		-144.531250
2564		-136.718750
2565		-138.671875
2566		-134.765625
2567		-136.718750
2568		-132.812500
2569		-136.718750
2570		-128.906250
2571		-134.765625
2572		-126.953125
2573		-130.859375
2574		-125.000000
2575		-128.906250
2576		-121.093750
2577		-126.953125
2578		-119.140625
2579		-123.046875
2580		-115.234375
2581		-121.093750
2582		-115.234375
2583		-115.234375
2584		-111.328125
2585		-113.281250
2586		-107.421875
2587		-111.328125
2588		-103.515625
2589		-107.421875
2590		-99.609375
2591		-105.468750
2592		-97.656250
2593		-101.562500
2594		-91.796875
2595		-97.656250
2596		-89.843750
2597		-93.750000
2598		-87.890625
2599		-89.843750
2600		-83.984375
2601		-85.937500
2602		-78.125000
2603		-82.031250
2604		-74.218750
2605		-78.125000
2606		-70.312500
2607		-76.171875
2608		-66.406250
2609		-72.265625
2610		-62.500000
2611		-66.406250
2612		-58.593750
2613		-62.500000
2614		-54.687500
2615		-58.593750
2616		-52.734375
2617		-52.734375
2618		-48.828125
2619		-48.828125
2620		-42.968750
2621		-46.875000
2622		-39.062500
2623		-42.968750
2624		-35.156250
2625		-39.062500
2626		-29.296875
2627		-35.156250
2628		-25.390625
2629		-31.250000
2630		-21.484375
2631		-25.390625
2632		-19.531250
2633		-19.531250
2634		-13.671875
2635		-15.625000
2636		-7.812500
2637		-11.718750
2638		-3.906250
2639		-7.812500
2640		0.000000
2641		-3.906250
2642		3.906250
2643		0.000000
2644		7.812500
2645		3.906250
2646		11.718750
2647		7.812500
2648		15.625000
2649		13.671875
2650		19.531250
2651		17.578125
2652		23.437500
2653		19.531250
2654		29.296875
2655		23.437500
2656		31.250000
2657		29.296875
2658		35.156250
2659		33.203125
2660		41.015625
2661		35.156250
2662		44.921875
2663		41.015625
2664		46.875000
2665		42.968750
2666		50.781250
2667		48.828125
2668		54.687500
2669		52.734375
2670		58.593750
2671		54.687500
2672		62.500000
2673		56.640625
2674		66.406250
2675		62.500000
2676		70.312500
2677		64.453125
2678		74.218750
2679		68.359375
2680		76.171875
2681		72.265625
2682		78.125000
2683		78.125000
2684		82.031250
2685		80.078125
2686		85.937500
2687		82.031250
2688		89.843750
2689		83.984375
2690		93.750000
2691		87.890625
2692		97.656250
2693		91.796875
2694		97.656250
2695		93.750000
2696		101.562500
2697		95.703125
2698		103.515625
2699		101.562500
2700		105.468750
2701		103.515625
2702		107.421875
2703		103.515625
2704		111.328125
2705		107.421875
2706		115.234375
2707		109.375000
2708		117.187500
2709		113.281250
2710		119.140625
2711		113.281250
2712		123.046875
2713		117.187500
2714		123.046875
2715		119.140625
2716		125.000000
2717		123.046875
2718		126.953125
2719		123.046875
2720		130.859375
2721		125.000000
2722		132.812500
2723		126.953125
2724		132.812500
2725		128.906250
2726		134.765625
2727		128.906250
2728		136.718750
2729		130.859375
2730		138.671875
2731		132.812500
2732		140.625000
2733		136.718750
2734		138.671875
2735		136.718750
2736		140.625000
2737		136.718750
2738		142.578125
2739		138.671875
2740		144.531250
2741		138.671875
2742		146.484375
2743		140.625000
2744		146.484375
2745		140.625000
2746		148.437500
2747		142.578125
2748		148.437500
2749		142.578125
2750		148.437500
2751		144.531250
2752		148.437500
2753		144.531250
2754		150.390625
2755		144.531250
2756		150.390625
2757		144.531250
2758		152.343750
2759		144.531250
2760		152.343750
2761		144.531250
2762		152.343750
2763		144.531250
2764		152.343750
2765		146.484375
2766		152.343750
2767		146.484375
2768		150.390625
2769		144.531250
2770		150.390625
2771		146.484375
2772		150.390625
2773		144.531250
2774		150.390625
2775		144.531250
2776		150.390625
2777		144.531250
2778		150.390625
2779		144.531250
2780		150.390625
2781		142.578125
2782		148.437500
2783		144.531250
2784		146.484375
2785		144.531250
2786		146.484375
2787		140.625000
2788		146.484375
2789		140.625000
2790		146.484375
2791		138.671875
2792		146.484375
2793		136.718750
2794		144.531250
2795		136.718750
2796		144.531250
2797		136.718750
2798		142.578125
2799		134.765625
2800		140.625000
2801		134.765625
2802		136.718750
2803		130.859375
2804		136.718750
2805		128.906250
2806		136.718750
2807		126.953125
2808		134.765625
2809		125.000000
2810		132.812500
2811		123.046875
2812		130.859375
2813		123.046875
2814		128.906250
2815		121.093750
2816		126.953125
2817		119.140625
2818		123.046875
2819		117.187500
2820		121.093750
2821		113.281250
2822		121.093750
2823		111.328125
2824		119.140625
2825		107.421875
2826		117.187500
2827		105.468750
2828		113.281250
2829		103.515625
2830		111.328125
2831		101.562500
2832		107.421875
2833		99.609375
2834		105.468750
2835		97.656250
2836		101.562500
2837		91.796875
2838		97.656250
2839		89.843750
2840		95.703125
2841		87.890625
2842		93.750000
2843		82.031250
2844		89.843750
2845		78.125000
2846		87.890625
2847		76.171875
2848		83.984375
2849		74.218750
2850		80.078125
2851		70.312500
2852		76.171875
2853		64.453125
2854		72.265625
2855		62.500000
2856		70.312500
2857		58.593750
2858		66.406250
2859		54.687500
2860		62.500000
2861		50.781250
2862		58.593750
2863		46.875000
2864		56.640625
2865		42.968750
2866		52.734375
2867		41.015625
2868		46.875000
2869		37.109375
2870		42.968750
2871		31.250000
2872		39.062500
2873		27.343750
2874		37.109375
2875		25.390625
2876		33.203125
2877		19.531250
2878		29.296875
2879		17.578125
2880		25.390625
2881		11.718750
2882		21.484375
2883		9.765625
2884		17.578125
2885		5.859375
2886		9.765625
2887		0.000000
2888		5.859375
2889		-5.859375
2890		3.906250
2891		-9.765625
2892		0.000000
2893		-11.718750
2894		-3.906250
2895		-17.578125
2896		-7.812500
2897		-21.484375
2898		-11.718750
2899		-25.390625
2900		-17.578125
2901		-27.343750
2902		-23.437500
2903		-31.250000
2904		-27.343750
2905		-37.109375
2906		-29.296875
2907		-42.968750
2908		-33.203125
2909		-44.921875
2910		-37.109375
2911		-50.781250
2912		-41.015625
2913		-54.687500
2914		-44.921875
2915		-58.593750
2916		-50.781250
2917		-60.546875
2918		-54.687500
2919		-64.453125
2920		-58.593750
2921		-70.312500
2922		-62.500000
2923		-74.218750
2924		-66.406250
2925		-76.171875
2926		-70.312500
2927		-82.031250
2928		-72.265625
2929		-85.937500
2930		-76.171875
2931		-87.890625
2932		-80.078125
2933		-91.796875
2934		-83.984375
2935		-93.750000
2936		-89.843750
2937		-99.609375
2938		-91.796875
2939		-103.515625
2940		-93.750000
2941		-105.468750
2942		-97.656250
2943		-109.375000
2944		-101.562500
2945		-113.281250
2946		-103.515625
2947		-115.234375
2948		-107.421875
2949		-119.140625
2950		-109.375000
2951		-119.140625
2952		-115.234375
2953		-123.046875
2954		-119.140625
2955		-126.953125
2956		-119.140625
2957		-128.906250
2958		-121.093750
2959		-132.812500
2960		-125.000000
2961		-134.765625
2962		-126.953125
2963		-136.718750
2964		-128.906250
2965		-140.625000
2966		-130.859375
2967		-138.671875
2968		-134.765625
2969		-140.625000
2970		-138.671875
2971		-144.531250
2972		-140.625000
2973		-146.484375
2974		-138.671875
2975		-148.437500
2976		-142.578125
2977		-150.390625
2978		-142.578125
2979		-150.390625
2980		-144.531250
2981		-154.296875
2982		-146.484375
2983		-154.296875
2984		-146.484375
2985		-152.343750
2986		-150.390625
2987		-154.296875
2988		-150.390625
2989		-158.203125
2990		-150.390625
2991		-158.203125
2992		-150.390625
2993		-158.203125
2994		-152.343750
2995		-158.203125
2996		-152.343750
2997		-160.156250
2998		-152.343750
2999		-160.156250
3000		-152.343750
3001		-160.156250
3002		-154.296875
3003		-158.203125
3004		-154.296875
3005		-158.203125
3006		-152.343750
3007		-160.156250
3008		-152.343750
3009		-158.203125
3010		-152.343750
3011		-158.203125
3012		-152.343750
3013		-158.203125
3014		-150.390625
3015		-156.250000
3016		-150.390625
3017		-156.250000
3018		-148.437500
3019		-152.343750
3020		-150.390625
3021		-152.343750
3022		-148.437500
3023		-152.343750
3024		-146.484375
3025		-152.343750
3026		-144.531250
3027		-150.390625
3028		-142.578125
3029		-148.437500
3030		-140.625000
3031		-146.484375
3032		-138.671875
3033		-144.531250
3034		-136.718750
3035		-140.625000
3036		-136.718750
3037		-138.671875
3038		-134.765625
3039		-136.718750
3040		-130.859375
3041		-136.718750
3042		-126.953125
3043		-132.812500
3044		-125.000000
3045		-130.859375
3046		-123.046875
3047		-128.906250
3048		-121.093750
3049		-125.000000
3050		-117.187500
3051		-123.046875
3052		-117.187500
3053		-117.187500
3054		-113.281250
3055		-115.234375
3056		-107.421875
3057		-113.281250
3058		-105.468750
3059		-109.375000
3060		-101.562500
3061		-105.468750
3062		-99.609375
3063		-103.515625
3064		-95.703125
3065		-99.609375
3066		-91.796875
3067		-97.656250
3068		-87.890625
3069		-91.796875
3070		-85.937500
3071		-87.890625
3072		-82.031250
3073		-85.937500
3074		-76.171875
3075		-82.031250
3076		-72.265625
3077		-78.125000
3078		-68.359375
3079		-74.218750
3080		-64.453125
3081		-70.312500
3082		-60.546875
3083		-66.406250
3084		-56.640625
3085		-62.500000
3086		-54.687500
3087		-56.640625
3088		-50.781250
3089		-52.734375
3090		-44.921875
3091		-48.828125
3092		-39.062500
3093		-44.921875
3094		-37.109375
3095		-41.015625
3096		-31.250000
3097		-37.109375
3098		-29.296875
3099		-31.250000
3100		-23.437500
3101		-29.296875
3102		-19.531250
3103		-23.437500
3104		-17.578125
3105		-19.531250
3106		-11.718750
3107		-15.625000
3108		-7.812500
3109		-11.718750
3110		-3.906250
3111		-7.812500
3112		1.953125
3113		-3.906250
3114		5.859375
3115		1.953125
3116		9.765625
3117		3.906250
3118		13.671875
3119		9.765625
3120		15.625000
3121		15.625000
3122		19.531250
3123		17.578125
3124		25.390625
3125		21.484375
3126		29.296875
3127		25.390625
3128		33.203125
3129		29.296875
3130		37.109375
3131		33.203125
3132		42.968750
3133		37.109375
3134		46.875000
3135		41.015625
3136		48.828125
3137		46.875000
3138		52.734375
3139		50.781250
3140		56.640625
3141		52.734375
3142		60.546875
3143		56.640625
3144		64.453125
3145		60.546875
3146		66.406250
3147		62.500000
3148		72.265625
3149		68.359375
3150		76.171875
3151		68.359375
3152		78.125000
3153		76.171875
3154		80.078125
3155		78.125000
3156		83.984375
3157		80.078125
3158		87.890625
3159		82.031250
3160		89.843750
3161		85.937500
3162		93.750000
3163		89.843750
3164		97.656250
3165		93.750000
3166		99.609375
3167		93.750000
3168		101.562500
3169		97.656250
3170		103.515625
3171		103.515625
3172		107.421875
3173		105.468750
3174		111.328125
3175		105.468750
3176		113.281250
3177		109.375000
3178		117.187500
3179		111.328125
3180		119.140625
3181		113.281250
3182		121.093750
3183		115.234375
3184		123.046875
3185		117.187500
3186		123.046875
3187		121.093750
3188		125.000000
3189		123.046875
3190		126.953125
3191		125.000000
3192		130.859375
3193		125.000000
3194		132.812500
3195		126.953125
3196		134.765625
3197		128.906250
3198		136.718750
3199		130.859375
3200		138.671875
3201		130.859375
3202		138.671875
3203		134.765625
3204		138.671875
3205		136.718750
3206		140.625000
3207		136.718750
3208		142.578125
3209		136.718750
3210		144.531250
3211		138.671875
3212		146.484375
3213		138.671875
3214		146.484375
3215		140.625000
3216		148.437500
3217		140.625000
3218		148.437500
3219		142.578125
3220		148.437500
3221		144.531250
3222		148.437500
3223		144.531250
3224		150.390625
3225		144.531250
3226		150.390625
3227		144.531250
3228		152.343750
3229		144.531250
3230		152.343750
3231		144.531250
3232		152.343750
3233		144.531250
3234		152.343750
3235		146.484375
3236		152.343750
3237		148.437500
3238		150.390625
3239		148.437500
3240		150.390625
3241		146.484375
3242		152.343750
3243		146.484375
3244		152.343750
3245		144.531250
3246		152.343750
3247		144.531250
3248		152.343750
3249		144.531250
3250		150.390625
3251		144.531250
3252		150.390625
3253		144.531250
3254		150.390625
3255		144.531250
3256		148.437500
3257		142.578125
3258		148.437500
3259		140.625000
3260		148.437500
3261		140.625000
3262		146.484375
3263		138.671875
3264		146.484375
3265		138.671875
3266		144.531250
3267		136.718750
3268		144.531250
3269		136.718750
3270		142.578125
3271		136.718750
3272		138.671875
3273		132.812500
3274		138.671875
3275		130.859375
3276		138.671875
3277		128.906250
3278		136.718750
3279		126.953125
3280		134.765625
3281		126.953125
3282		132.812500
3283		123.046875
3284		132.812500
3285		121.093750
3286		128.906250
3287		121.093750
3288		126.953125
3289		119.140625
3290		123.046875
3291		115.234375
3292		121.093750
3293		113.281250
3294		121.093750
3295		111.328125
3296		119.140625
3297		107.421875
3298		115.234375
3299		105.468750
3300		113.281250
3301		103.515625
3302		111.328125
3303		101.562500
3304		107.421875
3305		99.609375
3306		103.515625
3307		95.703125
3308		101.562500
3309		93.750000
3310		99.609375
3311		89.843750
3312		95.703125
3313		85.937500
3314		93.750000
3315		83.984375
3316		89.843750
3317		80.078125
3318		85.937500
3319		76.171875
3320		83.984375
3321		74.218750
3322		80.078125
3323		70.312500
3324		76.171875
3325		66.406250
3326		72.265625
3327		62.500000
3328		70.312500
3329		58.593750
3330		68.359375
3331		54.687500
3332		62.500000
3333		50.781250
3334		60.546875
3335		46.875000
3336		56.640625
3337		44.921875
3338		52.734375
3339		41.015625
3340		46.875000
3341		35.156250
3342		42.968750
3343		31.250000
3344		41.015625
3345		27.343750
3346		37.109375
3347		23.437500
3348		31.250000
3349		19.531250
3350		29.296875
3351		15.625000
3352		25.390625
3353		11.718750
3354		19.531250
3355		9.765625
3356		13.671875
3357		5.859375
3358		9.765625
3359		-1.953125
3360		7.812500
3361		-3.906250
3362		3.906250
3363		-9.765625
3364		0.000000
3365		-13.671875
3366		-5.859375
3367		-17.578125
3368		-7.812500
3369		-21.484375
3370		-13.671875
3371		-23.437500
3372		-15.625000
3373		-27.343750
3374		-23.437500
3375		-33.203125
3376		-27.343750
3377		-39.062500
3378		-29.296875
3379		-42.968750
3380		-33.203125
3381		-46.875000
3382		-37.109375
3383		-50.781250
3384		-41.015625
3385		-54.687500
3386		-46.875000
3387		-56.640625
3388		-48.828125
3389		-60.546875
3390		-54.687500
3391		-64.453125
3392		-58.593750
3393		-70.312500
3394		-62.500000
3395		-74.218750
3396		-64.453125
3397		-78.125000
3398		-70.312500
3399		-82.031250
3400		-72.265625
3401		-85.937500
3402		-76.171875
3403		-87.890625
3404		-80.078125
3405		-89.843750
3406		-85.937500
3407		-95.703125
3408		-89.843750
3409		-99.609375
3410		-91.796875
3411		-103.515625
3412		-93.750000
3413		-107.421875
3414		-97.656250
3415		-109.375000
3416		-101.562500
3417		-113.281250
3418		-103.515625
3419		-115.234375
3420		-107.421875
3421		-117.187500
3422		-111.328125
3423		-119.140625
3424		-115.234375
3425		-123.046875
3426		-117.187500
3427		-126.953125
3428		-119.140625
3429		-128.906250
3430		-121.093750
3431		-132.812500
3432		-125.000000
3433		-134.765625
3434		-126.953125
3435		-138.671875
3436		-128.906250
3437		-138.671875
3438		-130.859375
3439		-138.671875
3440		-134.765625
3441		-140.625000
3442		-136.718750
3443		-144.531250
3444		-138.671875
3445		-146.484375
3446		-140.625000
3447		-148.437500
3448		-140.625000
3449		-150.390625
3450		-142.578125
3451		-152.343750
3452		-144.531250
3453		-152.343750
3454		-146.484375
3455		-152.343750
3456		-146.484375
3457		-152.343750
3458		-150.390625
3459		-156.250000
3460		-150.390625
3461		-156.250000
3462		-150.390625
3463		-158.203125
3464		-150.390625
3465		-158.203125
3466		-152.343750
3467		-158.203125
3468		-150.390625
3469		-158.203125
3470		-152.343750
3471		-158.203125
3472		-152.343750
3473		-156.250000
3474		-154.296875
3475		-158.203125
3476		-154.296875
3477		-160.156250
3478		-152.343750
3479		-158.203125
3480		-152.343750
3481		-158.203125
3482		-152.343750
3483		-158.203125
3484		-150.390625
3485		-156.250000
3486		-150.390625
3487		-156.250000
3488		-150.390625
3489		-152.343750
3490		-150.390625
3491		-152.343750
3492		-148.437500
3493		-152.343750
3494		-146.484375
3495		-152.343750
3496		-144.531250
3497		-150.390625
3498		-142.578125
3499		-148.437500
3500		-140.625000
3501		-146.484375
3502		-140.625000
3503		-144.531250
3504		-138.671875
3505		-144.531250
3506		-136.718750
3507		-140.625000
3508		-136.718750
3509		-138.671875
3510		-132.812500
3511		-138.671875
3512		-128.906250
3513		-134.765625
3514		-126.953125
3515		-132.812500
3516		-125.000000
3517		-130.859375
3518		-123.046875
3519		-126.953125
3520		-119.140625
3521		-125.000000
3522		-117.187500
3523		-119.140625
3524		-115.234375
3525		-117.187500
3526		-111.328125
3527		-115.234375
3528		-107.421875
3529		-111.328125
3530		-103.515625
3531		-109.375000
3532		-101.562500
3533		-105.468750
3534		-97.656250
3535		-103.515625
3536		-93.750000
3537		-99.609375
3538		-89.843750
3539		-93.750000
3540		-89.843750
3541		-89.843750
3542		-83.984375
3543		-85.937500
3544		-78.125000
3545		-83.984375
3546		-76.171875
3547		-80.078125
3548		-72.265625
3549		-76.171875
3550		-68.359375
3551		-72.265625
3552		-64.453125
3553		-68.359375
3554		-60.546875
3555		-64.453125
3556		-58.593750
3557		-58.593750
3558		-54.687500
3559		-54.687500
3560		-48.828125
3561		-52.734375
3562		-42.968750
3563		-48.828125
3564		-41.015625
3565		-44.921875
3566		-35.156250
3567		-39.062500
3568		-31.250000
3569		-35.156250
3570		-27.343750
3571		-33.203125
3572		-23.437500
3573		-25.390625
3574		-19.531250
3575		-21.484375
3576		-15.625000
3577		-17.578125
3578		-11.718750
3579		-15.625000
3580		-5.859375
3581		-9.765625
3582		-1.953125
3583		-5.859375
3584		3.906250
3585		0.000000
3586		5.859375
3587		1.953125
3588		11.718750
3589		5.859375
3590		13.671875
3591		11.718750
3592		17.578125
3593		15.625000
3594		21.484375
3595		19.531250
3596		27.343750
3597		23.437500
3598		31.250000
3599		27.343750
3600		35.156250
3601		29.296875
3602		39.062500
3603		35.156250
3604		42.968750
3605		39.062500
3606		46.875000
3607		42.968750
3608		48.828125
3609		46.875000
3610		52.734375
3611		50.781250
3612		58.593750
3613		54.687500
3614		62.500000
3615		56.640625
3616		64.453125
3617		60.546875
3618		70.312500
3619		64.453125
3620		72.265625
3621		68.359375
3622		76.171875
3623		72.265625
3624		78.125000
3625		76.171875
3626		80.078125
3627		80.078125
3628		85.937500
3629		82.031250
3630		89.843750
3631		83.984375
3632		91.796875
3633		87.890625
3634		95.703125
3635		89.843750
3636		97.656250
3637		93.750000
3638		101.562500
3639		95.703125
3640		103.515625
3641		99.609375
3642		105.468750
3643		103.515625
3644		107.421875
3645		105.468750
3646		111.328125
3647		105.468750
3648		113.281250
3649		109.375000
3650		117.187500
3651		111.328125
3652		119.140625
3653		113.281250
3654		121.093750
3655		115.234375
3656		123.046875
3657		119.140625
3658		123.046875
3659		121.093750
3660		125.000000
3661		123.046875
3662		128.906250
3663		125.000000
3664		130.859375
3665		125.000000
3666		132.812500
3667		126.953125
3668		134.765625
3669		128.906250
3670		136.718750
3671		130.859375
3672		138.671875
3673		132.812500
3674		138.671875
3675		136.718750
3676		138.671875
3677		136.718750
3678		140.625000
3679		136.718750
3680		144.531250
3681		136.718750
3682		144.531250
3683		138.671875
3684		146.484375
3685		140.625000
3686		146.484375
3687		140.625000
3688		148.437500
3689		140.625000
3690		148.437500
3691		144.531250
3692		146.484375
3693		144.531250
3694		148.437500
3695		144.531250
3696		150.390625
3697		144.531250
3698		150.390625
3699		144.531250
3700		152.343750
3701		144.531250
3702		152.343750
3703		144.531250
3704		152.343750
3705		146.484375
3706		152.343750
3707		146.484375
3708		152.343750
3709		148.437500
3710		150.390625
3711		146.484375
3712		152.343750
3713		146.484375
3714		152.343750
3715		146.484375
3716		152.343750
3717		144.531250
3718		152.343750
3719		144.531250
3720		150.390625
3721		144.531250
3722		150.390625
3723		144.531250
3724		150.390625
3725		144.531250
3726		148.437500
3727		144.531250
3728		148.437500
3729		140.625000
3730		148.437500
3731		140.625000
3732		148.437500
3733		140.625000
3734		146.484375
3735		138.671875
3736		146.484375
3737		136.718750
3738		144.531250
3739		136.718750
3740		144.531250
3741		136.718750
3742		140.625000
3743		134.765625
3744		138.671875
3745		130.859375
3746		138.671875
3747		130.859375
3748		138.671875
3749		128.906250
3750		136.718750
3751		126.953125
3752		134.765625
3753		125.000000
3754		132.812500
3755		123.046875
3756		130.859375
3757		123.046875
3758		128.906250
3759		121.093750
3760		125.000000
3761		117.187500
3762		123.046875
3763		115.234375
3764		123.046875
3765		113.281250
3766		119.140625
3767		109.375000
3768		117.187500
3769		107.421875
3770		115.234375
3771		105.468750
3772		113.281250
3773		101.562500
3774		109.375000
3775		101.562500
3776		105.468750
3777		99.609375
3778		103.515625
3779		93.750000
3780		101.562500
3781		91.796875
3782		99.609375
3783		87.890625
3784		95.703125
3785		83.984375
3786		93.750000
3787		82.031250
3788		89.843750
3789		78.125000
3790		85.937500
3791		76.171875
3792		83.984375
3793		72.265625
3794		78.125000
3795		68.359375
3796		74.218750
3797		66.406250
3798		72.265625
3799		60.546875
3800		70.312500
3801		56.640625
3802		66.406250
3803		52.734375
3804		62.500000
3805		50.781250
3806		58.593750
3807		46.875000
3808		54.687500
3809		42.968750
3810		48.828125
3811		41.015625
3812		44.921875
3813		35.156250
3814		42.968750
3815		29.296875
3816		39.062500
3817		27.343750
3818		35.156250
3819		21.484375
3820		31.250000
3821		17.578125
3822		27.343750
3823		13.671875
3824		23.437500
3825		11.718750
3826		17.578125
3827		7.812500
3828		13.671875
3829		1.953125
3830		9.765625
3831		-1.953125
3832		5.859375
3833		-5.859375
3834		1.953125
3835		-9.765625
3836		-1.953125
3837		-15.625000
3838		-5.859375
3839		-19.531250
3840		-9.765625
3841		-21.484375
3842		-13.671875
3843		-25.390625
3844		-19.531250
3845		-31.250000
3846		-23.437500
3847		-35.156250
3848		-27.343750
3849		-39.062500
3850		-31.250000
3851		-42.968750
3852		-35.156250
3853		-46.875000
3854		-39.062500
3855		-50.781250
3856		-42.968750
3857		-56.640625
3858		-46.875000
3859		-58.593750
3860		-52.734375
3861		-62.500000
3862		-56.640625
3863		-66.406250
3864		-60.546875
3865		-72.265625
3866		-62.500000
3867		-74.218750
3868		-66.406250
3869		-78.125000
3870		-70.312500
3871		-82.031250
3872		-74.218750
3873		-85.937500
3874		-78.125000
3875		-87.890625
3876		-82.031250
3877		-91.796875
3878		-85.937500
3879		-95.703125
3880		-89.843750
3881		-99.609375
3882		-91.796875
3883		-103.515625
3884		-95.703125
3885		-107.421875
3886		-97.656250
3887		-109.375000
3888		-101.562500
3889		-113.281250
3890		-105.468750
3891		-115.234375
3892		-109.375000
3893		-117.187500
3894		-113.281250
3895		-119.140625
3896		-115.234375
3897		-125.000000
3898		-117.187500
3899		-126.953125
3900		-119.140625
3901		-130.859375
3902		-123.046875
3903		-132.812500
3904		-125.000000
3905		-134.765625
3906		-126.953125
3907		-136.718750
3908		-130.859375
3909		-136.718750
3910		-132.812500
3911		-140.625000
3912		-136.718750
3913		-142.578125
3914		-136.718750
3915		-146.484375
3916		-136.718750
3917		-146.484375
3918		-140.625000
3919		-148.437500
3920		-142.578125
3921		-150.390625
3922		-142.578125
3923		-152.343750
3924		-144.531250
3925		-152.343750
3926		-146.484375
3927		-152.343750
3928		-148.437500
3929		-154.296875
3930		-150.390625
3931		-156.250000
3932		-150.390625
3933		-158.203125
3934		-150.390625
3935		-158.203125
3936		-150.390625
3937		-158.203125
3938		-152.343750
3939		-158.203125
3940		-152.343750
3941		-160.156250
3942		-152.343750
3943		-156.250000
3944		-154.296875
3945		-156.250000
3946		-154.296875
3947		-160.156250
3948		-152.343750
3949		-160.156250
3950		-152.343750
3951		-158.203125
3952		-152.343750
3953		-158.203125
3954		-152.343750
3955		-158.203125
3956		-150.390625
3957		-156.250000
3958		-150.390625
3959		-156.250000
3960		-150.390625
3961		-152.343750
3962		-150.390625
3963		-152.343750
3964		-148.437500
3965		-154.296875
3966		-146.484375
3967		-152.343750
3968		-144.531250
3969		-150.390625
3970		-142.578125
3971		-148.437500
3972		-142.578125
3973		-146.484375
3974		-140.625000
3975		-144.531250
3976		-138.671875
3977		-140.625000
3978		-138.671875
3979		-138.671875
3980		-134.765625
3981		-138.671875
3982		-132.812500
3983		-136.718750
3984		-128.906250
3985		-134.765625
3986		-126.953125
3987		-130.859375
3988		-125.000000
3989		-128.906250
3990		-121.093750
3991		-126.953125
3992		-119.140625
3993		-125.000000
3994		-117.187500
3995		-119.140625
3996		-115.234375
3997		-117.187500
3998		-111.328125
3999		-115.234375
4000		-107.421875
4001		-113.281250
4002		-103.515625
4003		-109.375000
4004		-99.609375
4005		-105.468750
4006		-97.656250
4007		-101.562500
4008		-93.750000
4009		-97.656250
4010		-91.796875
4011		-93.750000
4012		-87.890625
4013		-89.843750
4014		-83.984375
4015		-85.937500
4016		-78.125000
4017		-83.984375
4018		-76.171875
4019		-80.078125
4020		-72.265625
4021		-76.171875
4022		-66.406250
4023		-72.265625
4024		-64.453125
4025		-68.359375
4026		-58.593750
4027		-62.500000
4028		-56.640625
4029		-58.593750
4030		-52.734375
4031		-54.687500
4032		-46.875000
4033		-50.781250
4034		-42.968750
4035		-46.875000
4036		-39.062500
4037		-42.968750
4038		-35.156250
4039		-39.062500
4040		-31.250000
4041		-35.156250
4042		-27.343750
4043		-31.250000
4044		-23.437500
4045		-25.390625
4046		-19.531250
4047		-21.484375
4048		-15.625000
4049		-17.578125
4050		-9.765625
4051		-13.671875
4052		-3.906250
4053		-9.765625
4054		0.000000
4055		-5.859375
4056		1.953125
4057		-1.953125
4058		7.812500
4059		1.953125
4060		9.765625
4061		9.765625
4062		13.671875
4063		11.718750
4064		17.578125
4065		15.625000
4066		23.437500
4067		19.531250
4068		29.296875
4069		23.437500
4070		31.250000
4071		27.343750
4072		37.109375
4073		31.250000
4074		41.015625
4075		35.156250
4076		44.921875
4077		39.062500
4078		46.875000
4079		44.921875
4080		50.781250
4081		48.828125
4082		54.687500
4083		50.781250
4084		58.593750
4085		52.734375
4086		62.500000
4087		56.640625
4088		66.406250
4089		62.500000
4090		70.312500
4091		66.406250
4092		72.265625
4093		68.359375
4094		76.171875
4095		74.218750
4096		78.125000
4097		76.171875
4098		82.031250
4099		78.125000
4100		85.937500
4101		82.031250
4102		89.843750
4103		83.984375
4104		91.796875
4105		87.890625
4106		97.656250
4107		91.796875
4108		97.656250
4109		93.750000
4110		101.562500
4111		97.656250
4112		103.515625
4113		101.562500
4114		105.468750
4115		103.515625
4116		109.375000
4117		105.468750
4118		111.328125
4119		107.421875
4120		115.234375
4121		109.375000
4122		117.187500
4123		111.328125
4124		119.140625
4125		113.281250
4126		123.046875
4127		117.187500
4128		123.046875
4129		121.093750
4130		125.000000
4131		123.046875
4132		126.953125
4133		123.046875
4134		130.859375
4135		125.000000
4136		132.812500
4137		126.953125
4138		132.812500
4139		126.953125
4140		134.765625
4141		128.906250
4142		136.718750
4143		130.859375
4144		138.671875
4145		134.765625
4146		138.671875
4147		136.718750
4148		138.671875
4149		136.718750
4150		142.578125
4151		138.671875
4152		142.578125
4153		138.671875
4154		144.531250
4155		138.671875
4156		144.531250
4157		140.625000
4158		146.484375
4159		142.578125
4160		146.484375
4161		142.578125
4162		146.484375
4163		144.531250
4164		148.437500
4165		144.531250
4166		150.390625
4167		144.531250
4168		150.390625
4169		144.531250
4170		152.343750
4171		144.531250
4172		152.343750
4173		144.531250
4174		152.343750
4175		144.531250
4176		152.343750
4177		144.531250
4178		152.343750
4179		148.437500
4180		150.390625
4181		148.437500
4182		150.390625
4183		146.484375
4184		152.343750
4185		144.531250
4186		152.343750
4187		144.531250
4188		152.343750
4189		144.531250
4190		150.390625
4191		144.531250
4192		150.390625
4193		144.531250
4194		150.390625
4195		144.531250
4196		148.437500
4197		144.531250
4198		148.437500
4199		142.578125
4200		148.437500
4201		140.625000
4202		148.437500
4203		140.625000
4204		146.484375
4205		138.671875
4206		146.484375
4207		138.671875
4208		144.531250
4209		136.718750
4210		144.531250
4211		136.718750
4212		142.578125
4213		136.718750
4214		140.625000
4215		134.765625
4216		138.671875
4217		132.812500
4218		138.671875
4219		130.859375
4220		136.718750
4221		128.906250
4222		134.765625
4223		125.000000
4224		134.765625
4225		125.000000
4226		132.812500
4227		123.046875
4228		128.906250
4229		123.046875
4230		126.953125
4231		121.093750
4232		125.000000
4233		117.187500
4234		123.046875
4235		113.281250
4236		121.093750
4237		111.328125
4238		119.140625
4239		109.375000
4240		117.187500
4241		105.468750
4242		113.281250
4243		103.515625
4244		111.328125
4245		103.515625
4246		109.375000
4247		99.609375
4248		105.468750
4249		95.703125
4250		101.562500
4251		93.750000
4252		101.562500
4253		89.843750
4254		97.656250
4255		87.890625
4256		95.703125
4257		82.031250
4258		91.796875
4259		80.078125
4260		89.843750
4261		78.125000
4262		85.937500
4263		76.171875
4264		80.078125
4265		72.265625
4266		76.171875
4267		66.406250
4268		74.218750
4269		62.500000
4270		72.265625
4271		60.546875
4272		66.406250
4273		56.640625
4274		64.453125
4275		52.734375
4276		60.546875
4277		48.828125
4278		56.640625
4279		46.875000
4280		52.734375
4281		42.968750
4282		46.875000
4283		37.109375
4284		44.921875
4285		31.250000
4286		41.015625
4287		27.343750
4288		37.109375
4289		25.390625
4290		33.203125
4291		21.484375
4292		29.296875
4293		15.625000
4294		25.390625
4295		15.625000
4296		21.484375
4297		9.765625
4298		15.625000
4299		5.859375
4300		11.718750
4301		0.000000
4302		9.765625
4303		-3.906250
4304		3.906250
4305		-7.812500
4306		1.953125
4307		-11.718750
4308		-3.906250
4309		-15.625000
4310		-7.812500
4311		-19.531250
4312		-11.718750
4313		-23.437500
4314		-17.578125
4315		-27.343750
4316		-21.484375
4317		-31.250000
4318		-25.390625
4319		-37.109375
4320		-29.296875
4321		-41.015625
4322		-31.250000
4323		-44.921875
4324		-35.156250
4325		-48.828125
4326		-41.015625
4327		-52.734375
4328		-44.921875
4329		-56.640625
4330		-48.828125
4331		-60.546875
4332		-54.687500
4333		-66.406250
4334		-58.593750
4335		-70.312500
4336		-60.546875
4337		-72.265625
4338		-64.453125
4339		-76.171875
4340		-68.359375
4341		-82.031250
4342		-72.265625
4343		-83.984375
4344		-76.171875
4345		-85.937500
4346		-80.078125
4347		-89.843750
4348		-83.984375
4349		-93.750000
4350		-87.890625
4351		-97.656250
4352		-89.843750
4353		-101.562500
4354		-93.750000
4355		-103.515625
4356		-97.656250
4357		-107.421875
4358		-101.562500
4359		-111.328125
4360		-103.515625
4361		-115.234375
4362		-105.468750
4363		-115.234375
4364		-109.375000
4365		-119.140625
4366		-113.281250
4367		-123.046875
4368		-117.187500
4369		-126.953125
4370		-117.187500
4371		-128.906250
4372		-121.093750
4373		-130.859375
4374		-123.046875
4375		-132.812500
4376		-126.953125
4377		-136.718750
4378		-128.906250
4379		-136.718750
4380		-130.859375
4381		-138.671875
4382		-134.765625
4383		-140.625000
4384		-136.718750
4385		-144.531250
4386		-136.718750
4387		-146.484375
4388		-140.625000
4389		-148.437500
4390		-140.625000
4391		-148.437500
4392		-142.578125
4393		-150.390625
4394		-144.531250
4395		-152.343750
4396		-144.531250
4397		-152.343750
4398		-148.437500
4399		-152.343750
4400		-148.437500
4401		-156.250000
4402		-148.437500
4403		-156.250000
4404		-150.390625
4405		-156.250000
4406		-150.390625
4407		-158.203125
4408		-152.343750
4409		-158.203125
4410		-152.343750
4411		-158.203125
4412		-152.343750
4413		-158.203125
4414		-152.343750
4415		-156.250000
4416		-154.296875
4417		-158.203125
4418		-152.343750
4419		-158.203125
4420		-152.343750
4421		-158.203125
4422		-152.343750
4423		-158.203125
4424		-152.343750
4425		-158.203125
4426		-150.390625
4427		-158.203125
4428		-150.390625
4429		-156.250000
4430		-150.390625
4431		-154.296875
4432		-150.390625
4433		-152.343750
4434		-150.390625
4435		-152.343750
4436		-146.484375
4437		-152.343750
4438		-146.484375
4439		-150.390625
4440		-144.531250
4441		-150.390625
4442		-142.578125
4443		-148.437500
4444		-140.625000
4445		-146.484375
4446		-138.671875
4447		-144.531250
4448		-138.671875
4449		-140.625000
4450		-136.718750
4451		-138.671875
4452		-132.812500
4453		-136.718750
4454		-130.859375
4455		-134.765625
4456		-128.906250
4457		-132.812500
4458		-126.953125
4459		-130.859375
4460		-123.046875
4461		-128.906250
4462		-119.140625
4463		-126.953125
4464		-119.140625
4465		-121.093750
4466		-117.187500
4467		-117.187500
4468		-113.281250
4469		-117.187500
4470		-109.375000
4471		-115.234375
4472		-105.468750
4473		-111.328125
4474		-103.515625
4475		-107.421875
4476		-99.609375
4477		-103.515625
4478		-95.703125
4479		-101.562500
4480		-93.750000
4481		-95.703125
4482		-89.843750
4483		-91.796875
4484		-85.937500
4485		-87.890625
4486		-80.078125
4487		-85.937500
4488		-78.125000
4489		-82.031250
4490		-74.218750
4491		-78.125000
4492		-68.359375
4493		-74.218750
4494		-66.406250
4495		-70.312500
4496		-62.500000
4497		-66.406250
4498		-58.593750
4499		-60.546875
4500		-54.687500
4501		-56.640625
4502		-48.828125
4503		-54.687500
4504		-44.921875
4505		-50.781250
4506		-41.015625
4507		-44.921875
4508		-37.109375
4509		-42.968750
4510		-33.203125
4511		-37.109375
4512		-27.343750
4513		-33.203125
4514		-25.390625
4515		-27.343750
4516		-21.484375
4517		-23.437500
4518		-17.578125
4519		-19.531250
4520		-11.718750
4521		-15.625000
4522		-7.812500
4523		-11.718750
4524		-1.953125
4525		-7.812500
4526		0.000000
4527		-3.906250
4528		5.859375
4529		1.953125
4530		9.765625
4531		5.859375
4532		11.718750
4533		9.765625
4534		15.625000
4535		15.625000
4536		21.484375
4537		17.578125
4538		27.343750
4539		21.484375
4540		29.296875
4541		25.390625
4542		33.203125
4543		29.296875
4544		39.062500
4545		35.156250
4546		41.015625
4547		37.109375
4548		44.921875
4549		42.968750
4550		48.828125
4551		46.875000
4552		52.734375
4553		48.828125
4554		56.640625
4555		52.734375
4556		60.546875
4557		56.640625
4558		64.453125
4559		58.593750
4560		68.359375
4561		64.453125
4562		72.265625
4563		66.406250
4564		74.218750
4565		72.265625
4566		76.171875
4567		76.171875
4568		80.078125
4569		78.125000
4570		85.937500
4571		80.078125
4572		87.890625
4573		83.984375
4574		91.796875
4575		85.937500
4576		95.703125
4577		89.843750
4578		97.656250
4579		91.796875
4580		99.609375
4581		95.703125
4582		101.562500
4583		99.609375
4584		103.515625
4585		103.515625
4586		107.421875
4587		103.515625
4588		111.328125
4589		105.468750
4590		113.281250
4591		109.375000
4592		115.234375
4593		111.328125
4594		119.140625
4595		113.281250
4596		121.093750
4597		115.234375
4598		123.046875
4599		119.140625
4600		123.046875
4601		123.046875
4602		125.000000
4603		123.046875
4604		128.906250
4605		123.046875
4606		130.859375
4607		126.953125
4608		132.812500
4609		126.953125
4610		134.765625
4611		128.906250
4612		136.718750
4613		130.859375
4614		138.671875
4615		132.812500
4616		138.671875
4617		136.718750
4618		138.671875
4619		136.718750
4620		142.578125
4621		136.718750
4622		142.578125
4623		138.671875
4624		144.531250
4625		138.671875
4626		146.484375
4627		140.625000
4628		146.484375
4629		140.625000
4630		148.437500
4631		140.625000
4632		148.437500
4633		144.531250
4634		146.484375
4635		144.531250
4636		148.437500
4637		144.531250
4638		150.390625
4639		144.531250
4640		152.343750
4641		144.531250
4642		152.343750
4643		144.531250
4644		152.343750
4645		144.531250
4646		152.343750
4647		146.484375
4648		152.343750
4649		148.437500
4650		150.390625
4651		148.437500
4652		150.390625
4653		146.484375
4654		152.343750
4655		146.484375
4656		152.343750
4657		146.484375
4658		152.343750
4659		144.531250
4660		152.343750
4661		146.484375
4662		152.343750
4663		144.531250
4664		152.343750
4665		144.531250
4666		150.390625
4667		146.484375
4668		148.437500
4669		144.531250
4670		148.437500
4671		142.578125
4672		150.390625
4673		140.625000
4674		148.437500
4675		140.625000
4676		146.484375
4677		138.671875
4678		146.484375
4679		138.671875
4680		144.531250
4681		136.718750
4682		144.531250
4683		138.671875
4684		140.625000
4685		136.718750
4686		140.625000
4687		132.812500
4688		140.625000
4689		130.859375
4690		138.671875
4691		130.859375
4692		136.718750
4693		128.906250
4694		134.765625
4695		126.953125
4696		132.812500
4697		123.046875
4698		132.812500
4699		125.000000
4700		128.906250
4701		123.046875
4702		126.953125
4703		119.140625
4704		125.000000
4705		115.234375
4706		123.046875
4707		113.281250
4708		121.093750
4709		111.328125
4710		119.140625
4711		109.375000
4712		117.187500
4713		107.421875
4714		113.281250
4715		105.468750
4716		111.328125
4717		103.515625
4718		107.421875
4719		99.609375
4720		103.515625
4721		95.703125
4722		103.515625
4723		91.796875
4724		99.609375
4725		87.890625
4726		97.656250
4727		85.937500
4728		93.750000
4729		82.031250
4730		91.796875
4731		80.078125
4732		87.890625
4733		78.125000
4734		82.031250
4735		74.218750
4736		80.078125
4737		70.312500
4738		76.171875
4739		66.406250
4740		74.218750
4741		62.500000
4742		70.312500
4743		58.593750
4744		66.406250
4745		54.687500
4746		64.453125
4747		50.781250
4748		60.546875
4749		48.828125
4750		54.687500
4751		44.921875
4752		50.781250
4753		41.015625
4754		46.875000
4755		37.109375
4756		44.921875
4757		33.203125
4758		41.015625
4759		29.296875
4760		37.109375
4761		25.390625
4762		33.203125
4763		19.531250
4764		29.296875
4765		17.578125
4766		25.390625
4767		13.671875
4768		19.531250
4769		9.765625
4770		15.625000
4771		3.906250
4772		11.718750
4773		0.000000
4774		7.812500
4775		-3.906250
4776		3.906250
4777		-7.812500
4778		0.000000
4779		-13.671875
4780		-3.906250
4781		-15.625000
4782		-7.812500
4783		-19.531250
4784		-11.718750
4785		-23.437500
4786		-17.578125
4787		-29.296875
4788		-21.484375
4789		-33.203125
4790		-25.390625
4791		-37.109375
4792		-29.296875
4793		-42.968750
4794		-33.203125
4795		-46.875000
4796		-37.109375
4797		-48.828125
4798		-42.968750
4799		-52.734375
4800		-44.921875
4801		-56.640625
4802		-50.781250
4803		-60.546875
4804		-54.687500
4805		-64.453125
4806		-58.593750
4807		-70.312500
4808		-60.546875
4809		-74.218750
4810		-64.453125
4811		-78.125000
4812		-68.359375
4813		-82.031250
4814		-72.265625
4815		-83.984375
4816		-76.171875
4817		-87.890625
4818		-82.031250
4819		-89.843750
4820		-85.937500
4821		-95.703125
4822		-87.890625
4823		-99.609375
4824		-89.843750
4825		-103.515625
4826		-93.750000
4827		-105.468750
4828		-97.656250
4829		-109.375000
4830		-99.609375
4831		-113.281250
4832		-103.515625
4833		-113.281250
4834		-107.421875
4835		-117.187500
4836		-111.328125
4837		-119.140625
4838		-115.234375
4839		-125.000000
4840		-115.234375
4841		-126.953125
4842		-119.140625
4843		-128.906250
4844		-121.093750
4845		-130.859375
4846		-123.046875
4847		-134.765625
4848		-126.953125
4849		-136.718750
4850		-128.906250
4851		-136.718750
4852		-132.812500
4853		-138.671875
4854		-134.765625
4855		-142.578125
4856		-136.718750
4857		-144.531250
4858		-138.671875
4859		-146.484375
4860		-138.671875
4861		-148.437500
4862		-140.625000
4863		-150.390625
4864		-142.578125
4865		-150.390625
4866		-144.531250
4867		-152.343750
4868		-144.531250
4869		-152.343750
4870		-148.437500
4871		-156.250000
4872		-148.437500
4873		-156.250000
4874		-148.437500
4875		-156.250000
4876		-150.390625
4877		-158.203125
4878		-150.390625
4879		-158.203125
4880		-150.390625
4881		-158.203125
4882		-152.343750
4883		-158.203125
4884		-152.343750
4885		-156.250000
4886		-154.296875
4887		-156.250000
4888		-154.296875
4889		-160.156250
4890		-152.343750
4891		-158.203125
4892		-152.343750
4893		-158.203125
4894		-152.343750
4895		-158.203125
4896		-152.343750
4897		-158.203125
4898		-152.343750
4899		-158.203125
4900		-150.390625
4901		-156.250000
4902		-152.343750
4903		-154.296875
4904		-150.390625
4905		-152.343750
4906		-148.437500
4907		-154.296875
4908		-146.484375
4909		-152.343750
4910		-144.531250
4911		-150.390625
4912		-144.531250
4913		-150.390625
4914		-142.578125
4915		-148.437500
4916		-140.625000
4917		-144.531250
4918		-140.625000
4919		-142.578125
4920		-138.671875
4921		-140.625000
4922		-136.718750
4923		-140.625000
4924		-132.812500
4925		-136.718750
4926		-128.906250
4927		-134.765625
4928		-126.953125
4929		-132.812500
4930		-125.000000
4931		-130.859375
4932		-123.046875
4933		-126.953125
4934		-119.140625
4935		-123.046875
4936		-119.140625
4937		-121.093750
4938		-115.234375
4939		-119.140625
4940		-111.328125
4941		-115.234375
4942		-109.375000
4943		-113.281250
4944		-105.468750
4945		-109.375000
4946		-101.562500
4947		-105.468750
4948		-97.656250
4949		-103.515625
4950		-95.703125
4951		-99.609375
4952		-91.796875
4953		-93.750000
4954		-89.843750
4955		-89.843750
4956		-83.984375
4957		-89.843750
4958		-80.078125
4959		-85.937500
4960		-76.171875
4961		-82.031250
4962		-72.265625
4963		-76.171875
4964		-70.312500
4965		-74.218750
4966		-64.453125
4967		-70.312500
4968		-62.500000
4969		-64.453125
4970		-58.593750
4971		-60.546875
4972		-54.687500
4973		-56.640625
4974		-48.828125
4975		-52.734375
4976		-44.921875
4977		-48.828125
4978		-39.062500
4979		-42.968750
4980		-37.109375
4981		-41.015625
4982		-31.250000
4983		-37.109375
4984		-27.343750
4985		-31.250000
4986		-25.390625
4987		-25.390625
4988		-19.531250
4989		-21.484375
4990		-15.625000
4991		-19.531250
4992		-11.718750
4993		-13.671875
4994		-5.859375
4995		-9.765625
4996		-3.906250
4997		-5.859375
4998		1.953125
4999		-1.953125
5000		5.859375
5001		3.906250
5002		9.765625
5003		7.812500
5004		13.671875
5005		11.718750
5006		17.578125
5007		13.671875
5008		23.437500
5009		19.531250
5010		25.390625
5011		21.484375
5012		31.250000
5013		25.390625
5014		35.156250
5015		31.250000
5016		39.062500
5017		35.156250
5018		42.968750
5019		39.062500
5020		44.921875
5021		42.968750
5022		48.828125
5023		46.875000
5024		54.687500
5025		50.781250
5026		56.640625
5027		52.734375
5028		62.500000
5029		56.640625
5030		66.406250
5031		60.546875
5032		68.359375
5033		64.453125
5034		72.265625
5035		66.406250
5036		74.218750
5037		72.265625
5038		78.125000
5039		76.171875
5040		82.031250
5041		78.125000
5042		85.937500
5043		80.078125
5044		89.843750
5045		83.984375
5046		91.796875
5047		87.890625
5048		95.703125
5049		89.843750
5050		97.656250
5051		93.750000
5052		99.609375
5053		97.656250
5054		103.515625
5055		101.562500
5056		105.468750
5057		101.562500
5058		109.375000
5059		103.515625
5060		111.328125
5061		107.421875
5062		115.234375
5063		109.375000
5064		115.234375
5065		111.328125
5066		119.140625
5067		115.234375
5068		121.093750
5069		117.187500
5070		121.093750
5071		119.140625
5072		123.046875
5073		123.046875
5074		126.953125
5075		123.046875
5076		128.906250
5077		125.000000
5078		130.859375
5079		125.000000
5080		132.812500
5081		128.906250
5082		136.718750
5083		128.906250
5084		136.718750
5085		132.812500
5086		136.718750
5087		134.765625
5088		138.671875
5089		136.718750
5090		140.625000
5091		134.765625
5092		142.578125
5093		136.718750
5094		142.578125
5095		138.671875
5096		144.531250
5097		138.671875
5098		146.484375
5099		140.625000
5100		146.484375
5101		140.625000
5102		148.437500
5103		144.531250
5104		146.484375
5105		144.531250
5106		146.484375
5107		142.578125
5108		150.390625
5109		144.531250
5110		150.390625
5111		144.531250
5112		152.343750
5113		144.531250
5114		152.343750
5115		144.531250
5116		150.390625
5117		144.531250
5118		152.343750
5119		146.484375
5120		152.343750
5121		148.437500
5122		150.390625
5123		148.437500
5124		150.390625
5125		146.484375
5126		152.343750
5127		146.484375
5128		152.343750
5129		146.484375
5130		152.343750
5131		146.484375
5132		152.343750
5133		144.531250
5134		152.343750
5135		144.531250
5136		152.343750
5137		146.484375
5138		148.437500
5139		144.531250
5140		148.437500
5141		142.578125
5142		150.390625
5143		142.578125
5144		146.484375
5145		140.625000
5146		146.484375
5147		140.625000
5148		144.531250
5149		138.671875
5150		146.484375
5151		138.671875
5152		144.531250
5153		138.671875
5154		142.578125
5155		136.718750
5156		140.625000
5157		134.765625
5158		140.625000
5159		132.812500
5160		138.671875
5161		132.812500
5162		136.718750
5163		130.859375
5164		136.718750
5165		128.906250
5166		132.812500
5167		126.953125
5168		132.812500
5169		125.000000
5170		130.859375
5171		123.046875
5172		126.953125
5173		119.140625
5174		125.000000
5175		119.140625
5176		125.000000
5177		117.187500
5178		121.093750
5179		115.234375
5180		119.140625
5181		111.328125
5182		117.187500
5183		107.421875
5184		115.234375
5185		105.468750
5186		113.281250
5187		105.468750
5188		109.375000
5189		101.562500
5190		105.468750
5191		97.656250
5192		103.515625
5193		95.703125
5194		101.562500
5195		91.796875
5196		97.656250
5197		89.843750
5198		93.750000
5199		85.937500
5200		91.796875
5201		82.031250
5202		89.843750
5203		80.078125
5204		85.937500
5205		78.125000
5206		82.031250
5207		72.265625
5208		78.125000
5209		70.312500
5210		74.218750
5211		66.406250
5212		72.265625
5213		62.500000
5214		68.359375
5215		58.593750
5216		64.453125
5217		54.687500
5218		60.546875
5219		50.781250
5220		58.593750
5221		48.828125
5222		52.734375
5223		44.921875
5224		48.828125
5225		41.015625
5226		46.875000
5227		35.156250
5228		42.968750
5229		31.250000
5230		37.109375
5231		27.343750
5232		33.203125
5233		25.390625
5234		29.296875
5235		17.578125
5236		27.343750
5237		15.625000
5238		21.484375
5239		11.718750
5240		17.578125
5241		7.812500
5242		13.671875
5243		3.906250
5244		9.765625
5245		0.000000
5246		5.859375
5247		-5.859375
5248		1.953125
5249		-7.812500
5250		-3.906250
5251		-13.671875
5252		-7.812500
5253		-17.578125
5254		-9.765625
5255		-21.484375
5256		-15.625000
5257		-25.390625
5258		-19.531250
5259		-29.296875
5260		-23.437500
5261		-33.203125
5262		-27.343750
5263		-37.109375
5264		-33.203125
5265		-41.015625
5266		-37.109375
5267		-46.875000
5268		-41.015625
5269		-50.781250
5270		-42.968750
5271		-54.687500
5272		-48.828125
5273		-58.593750
5274		-52.734375
5275		-62.500000
5276		-56.640625
5277		-66.406250
5278		-60.546875
5279		-70.312500
5280		-64.453125
5281		-74.218750
5282		-68.359375
5283		-76.171875
5284		-72.265625
5285		-82.031250
5286		-76.171875
5287		-83.984375
5288		-78.125000
5289		-87.890625
5290		-83.984375
5291		-91.796875
5292		-85.937500
5293		-95.703125
5294		-89.843750
5295		-99.609375
5296		-93.750000
5297		-101.562500
5298		-97.656250
5299		-105.468750
5300		-99.609375
5301		-109.375000
5302		-103.515625
5303		-111.328125
5304		-107.421875
5305		-115.234375
5306		-109.375000
5307		-117.187500
5308		-113.281250
5309		-121.093750
5310		-115.234375
5311		-123.046875
5312		-119.140625
5313		-125.000000
5314		-121.093750
5315		-128.906250
5316		-125.000000
5317		-130.859375
5318		-126.953125
5319		-134.765625
5320		-128.906250
5321		-134.765625
5322		-130.859375
5323		-138.671875
5324		-134.765625
5325		-140.625000
5326		-136.718750
5327		-142.578125
5328		-138.671875
5329		-144.531250
5330		-140.625000
5331		-146.484375
5332		-142.578125
5333		-146.484375
5334		-144.531250
5335		-148.437500
5336		-144.531250
5337		-150.390625
5338		-146.484375
5339		-150.390625
5340		-148.437500
5341		-152.343750
5342		-148.437500
5343		-154.296875
5344		-150.390625
5345		-154.296875
5346		-150.390625
5347		-154.296875
5348		-152.343750
5349		-156.250000
5350		-152.343750
5351		-156.250000
5352		-152.343750
5353		-156.250000
5354		-154.296875
5355		-156.250000
5356		-154.296875
5357		-156.250000
5358		-154.296875
5359		-158.203125
5360		-154.296875
5361		-158.203125
5362		-154.296875
5363		-156.250000
5364		-154.296875
5365		-156.250000
5366		-154.296875
5367		-156.250000
5368		-152.343750
5369		-156.250000
5370		-152.343750
5371		-156.250000
5372		-152.343750
5373		-154.296875
5374		-152.343750
5375		-152.343750
5376		-148.437500
5377		-152.343750
5378		-148.437500
5379		-150.390625
5380		-146.484375
5381		-150.390625
5382		-146.484375
5383		-148.437500
5384		-144.531250
5385		-146.484375
5386		-142.578125
5387		-144.531250
5388		-140.625000
5389		-142.578125
5390		-138.671875
5391		-140.625000
5392		-136.718750
5393		-138.671875
5394		-134.765625
5395		-136.718750
5396		-132.812500
5397		-136.718750
5398		-130.859375
5399		-132.812500
5400		-128.906250
5401		-130.859375
5402		-125.000000
5403		-126.953125
5404		-123.046875
5405		-125.000000
5406		-121.093750
5407		-121.093750
5408		-117.187500
5409		-119.140625
5410		-115.234375
5411		-115.234375
5412		-111.328125
5413		-113.281250
5414		-109.375000
5415		-109.375000
5416		-103.515625
5417		-107.421875
5418		-101.562500
5419		-103.515625
5420		-97.656250
5421		-99.609375
5422		-93.750000
5423		-95.703125
5424		-91.796875
5425		-91.796875
5426		-87.890625
5427		-89.843750
5428		-83.984375
5429		-85.937500
5430		-80.078125
5431		-82.031250
5432		-76.171875
5433		-78.125000
5434		-72.265625
5435		-74.218750
5436		-68.359375
5437		-70.312500
5438		-64.453125
5439		-66.406250
5440		-60.546875
5441		-62.500000
5442		-56.640625
5443		-58.593750
5444		-52.734375
5445		-54.687500
5446		-48.828125
5447		-50.781250
5448		-44.921875
5449		-46.875000
5450		-39.062500
5451		-41.015625
5452		-35.156250
5453		-37.109375
5454		-31.250000
5455		-33.203125
5456		-27.343750
5457		-29.296875
5458		-23.437500
5459		-25.390625
5460		-19.531250
5461		-21.484375
5462		-13.671875
5463		-15.625000
5464		-9.765625
5465		-11.718750
5466		-5.859375
5467		-7.812500
5468		-1.953125
5469		-3.906250
5470		1.953125
5471		0.000000
5472		5.859375
5473		5.859375
5474		9.765625
5475		9.765625
5476		13.671875
5477		13.671875
5478		19.531250
5479		17.578125
5480		23.437500
5481		21.484375
5482		27.343750
5483		25.390625
5484		31.250000
5485		29.296875
5486		35.156250
5487		33.203125
5488		39.062500
5489		37.109375
5490		42.968750
5491		41.015625
5492		46.875000
5493		44.921875
5494		50.781250
5495		48.828125
5496		54.687500
5497		52.734375
5498		58.593750
5499		56.640625
5500		62.500000
5501		60.546875
5502		64.453125
5503		64.453125
5504		70.312500
5505		68.359375
5506		72.265625
5507		70.312500
5508		76.171875
5509		74.218750
5510		78.125000
5511		76.171875
5512		82.031250
5513		80.078125
5514		85.937500
5515		83.984375
5516		87.890625
5517		87.890625
5518		91.796875
5519		89.843750
5520		95.703125
5521		93.750000
5522		97.656250
5523		95.703125
5524		99.609375
5525		99.609375
5526		103.515625
5527		101.562500
5528		105.468750
5529		103.515625
5530		109.375000
5531		107.421875
5532		111.328125
5533		109.375000
5534		113.281250
5535		111.328125
5536		117.187500
5537		113.281250
5538		119.140625
5539		115.234375
5540		121.093750
5541		119.140625
5542		123.046875
5543		121.093750
5544		126.953125
5545		123.046875
5546		126.953125
5547		125.000000
5548		128.906250
5549		126.953125
5550		130.859375
5551		128.906250
5552		132.812500
5553		130.859375
5554		134.765625
5555		132.812500
5556		136.718750
5557		134.765625
5558		136.718750
5559		134.765625
5560		138.671875
5561		136.718750
5562		140.625000
5563		138.671875
5564		140.625000
5565		138.671875
5566		142.578125
5567		140.625000
5568		144.531250
5569		140.625000
5570		144.531250
5571		142.578125
5572		146.484375
5573		142.578125
5574		146.484375
5575		144.531250
5576		148.437500
5577		144.531250
5578		148.437500
5579		146.484375
5580		150.390625
5581		146.484375
5582		150.390625
5583		146.484375
5584		150.390625
5585		146.484375
5586		150.390625
5587		148.437500
5588		150.390625
5589		148.437500
5590		150.390625
5591		148.437500
5592		150.390625
5593		148.437500
5594		150.390625
5595		148.437500
5596		152.343750
5597		148.437500
5598		152.343750
5599		148.437500
5600		150.390625
5601		148.437500
5602		150.390625
5603		148.437500
5604		150.390625
5605		146.484375
5606		150.390625
5607		146.484375
5608		150.390625
5609		146.484375
5610		148.437500
5611		146.484375
5612		148.437500
5613		144.531250
5614		148.437500
5615		142.578125
5616		146.484375
5617		142.578125
5618		146.484375
5619		140.625000
5620		144.531250
5621		140.625000
5622		144.531250
5623		138.671875
5624		144.531250
5625		138.671875
5626		140.625000
5627		136.718750
5628		140.625000
5629		134.765625
5630		138.671875
5631		134.765625
5632		138.671875
5633		132.812500
5634		136.718750
5635		130.859375
5636		134.765625
5637		128.906250
5638		132.812500
5639		126.953125
5640		130.859375
5641		125.000000
5642		128.906250
5643		123.046875
5644		126.953125
5645		121.093750
5646		125.000000
5647		119.140625
5648		123.046875
5649		117.187500
5650		121.093750
5651		115.234375
5652		119.140625
5653		111.328125
5654		117.187500
5655		109.375000
5656		113.281250
5657		107.421875
5658		111.328125
5659		103.515625
5660		109.375000
5661		101.562500
5662		105.468750
5663		97.656250
5664		103.515625
5665		95.703125
5666		101.562500
5667		91.796875
5668		97.656250
5669		89.843750
5670		95.703125
5671		85.937500
5672		91.796875
5673		82.031250
5674		87.890625
5675		80.078125
5676		83.984375
5677		76.171875
5678		80.078125
5679		72.265625
5680		78.125000
5681		68.359375
5682		74.218750
5683		66.406250
5684		70.312500
5685		62.500000
5686		68.359375
5687		58.593750
5688		64.453125
5689		54.687500
5690		60.546875
5691		50.781250
5692		56.640625
5693		46.875000
5694		52.734375
5695		42.968750
5696		48.828125
5697		39.062500
5698		44.921875
5699		35.156250
5700		41.015625
5701		31.250000
5702		37.109375
5703		27.343750
5704		33.203125
5705		23.437500
5706		29.296875
5707		19.531250
5708		25.390625
5709		15.625000
5710		21.484375
5711		9.765625
5712		17.578125
5713		5.859375
5714		13.671875
5715		3.906250
5716		9.765625
5717		-1.953125
5718		5.859375
5719		-5.859375
5720		0.000000
5721		-9.765625
5722		-3.906250
5723		-13.671875
5724		-7.812500
5725		-17.578125
5726		-11.718750
5727		-21.484375
5728		-15.625000
5729		-27.343750
5730		-19.531250
5731		-31.250000
5732		-25.390625
5733		-35.156250
5734		-29.296875
5735		-39.062500
5736		-33.203125
5737		-42.968750
5738		-37.109375
5739		-46.875000
5740		-41.015625
5741		-50.781250
5742		-44.921875
5743		-54.687500
5744		-48.828125
5745		-58.593750
5746		-52.734375
5747		-62.500000
5748		-56.640625
5749		-68.359375
5750		-60.546875
5751		-70.312500
5752		-64.453125
5753		-74.218750
5754		-68.359375
5755		-78.125000
5756		-72.265625
5757		-82.031250
5758		-76.171875
5759		-85.937500
5760		-80.078125
5761		-87.890625
5762		-83.984375
5763		-93.750000
5764		-87.890625
5765		-95.703125
5766		-89.843750
5767		-99.609375
5768		-93.750000
5769		-103.515625
5770		-95.703125
5771		-107.421875
5772		-99.609375
5773		-109.375000
5774		-103.515625
5775		-111.328125
5776		-107.421875
5777		-115.234375
5778		-111.328125
5779		-119.140625
5780		-113.281250
5781		-121.093750
5782		-115.234375
5783		-125.000000
5784		-119.140625
5785		-126.953125
5786		-121.093750
5787		-130.859375
5788		-123.046875
5789		-132.812500
5790		-126.953125
5791		-134.765625
5792		-128.906250
5793		-136.718750
5794		-132.812500
5795		-140.625000
5796		-134.765625
5797		-140.625000
5798		-134.765625
5799		-142.578125
5800		-136.718750
5801		-144.531250
5802		-140.625000
5803		-146.484375
5804		-140.625000
5805		-148.437500
5806		-142.578125
5807		-150.390625
5808		-144.531250
5809		-150.390625
5810		-146.484375
5811		-152.343750
5812		-148.437500
5813		-154.296875
5814		-148.437500
5815		-156.250000
5816		-150.390625
5817		-156.250000
5818		-150.390625
5819		-156.250000
5820		-152.343750
5821		-158.203125
5822		-152.343750
5823		-158.203125
5824		-152.343750
5825		-158.203125
5826		-152.343750
5827		-156.250000
5828		-154.296875
5829		-158.203125
5830		-154.296875
5831		-158.203125
5832		-154.296875
5833		-158.203125
5834		-154.296875
5835		-156.250000
5836		-154.296875
5837		-156.250000
5838		-154.296875
5839		-156.250000
5840		-154.296875
5841		-156.250000
5842		-154.296875
5843		-156.250000
5844		-152.343750
5845		-154.296875
5846		-152.343750
5847		-154.296875
5848		-150.390625
5849		-152.343750
5850		-150.390625
5851		-150.390625
5852		-148.437500
5853		-150.390625
5854		-146.484375
5855		-148.437500
5856		-144.531250
5857		-146.484375
5858		-144.531250
5859		-144.531250
5860		-142.578125
5861		-142.578125
5862		-138.671875
5863		-140.625000
5864		-136.718750
5865		-140.625000
5866		-134.765625
5867		-138.671875
5868		-132.812500
5869		-134.765625
5870		-130.859375
5871		-132.812500
5872		-128.906250
5873		-130.859375
5874		-126.953125
5875		-126.953125
5876		-123.046875
5877		-125.000000
5878		-121.093750
5879		-121.093750
5880		-117.187500
5881		-119.140625
5882		-115.234375
5883		-115.234375
5884		-111.328125
5885		-113.281250
5886		-109.375000
5887		-109.375000
5888		-105.468750
5889		-107.421875
5890		-101.562500
5891		-103.515625
5892		-99.609375
5893		-99.609375
5894		-95.703125
5895		-95.703125
5896		-91.796875
5897		-93.750000
5898		-87.890625
5899		-89.843750
5900		-83.984375
5901		-85.937500
5902		-80.078125
5903		-82.031250
5904		-76.171875
5905		-78.125000
5906		-72.265625
5907		-74.218750
5908		-68.359375
5909		-70.312500
5910		-64.453125
5911		-66.406250
5912		-60.546875
5913		-62.500000
5914		-56.640625
5915		-58.593750
5916		-52.734375
5917		-54.687500
5918		-48.828125
5919		-48.828125
5920		-44.921875
5921		-44.921875
5922		-41.015625
5923		-41.015625
5924		-35.156250
5925		-37.109375
5926		-31.250000
5927		-33.203125
5928		-27.343750
5929		-29.296875
5930		-23.437500
5931		-27.343750
5932		-17.578125
5933		-23.437500
5934		-13.671875
5935		-17.578125
5936		-9.765625
5937		-11.718750
5938		-5.859375
5939		-7.812500
5940		-1.953125
5941		-3.906250
5942		1.953125
5943		0.000000
5944		5.859375
5945		5.859375
5946		11.718750
5947		9.765625
5948		17.578125
5949		13.671875
5950		21.484375
5951		15.625000
5952		25.390625
5953		21.484375
5954		27.343750
5955		25.390625
5956		31.250000
5957		29.296875
5958		35.156250
5959		33.203125
5960		39.062500
5961		37.109375
5962		42.968750
5963		41.015625
5964		46.875000
5965		42.968750
5966		52.734375
5967		46.875000
5968		56.640625
5969		50.781250
5970		58.593750
5971		56.640625
5972		60.546875
5973		60.546875
5974		64.453125
5975		62.500000
5976		68.359375
5977		66.406250
5978		72.265625
5979		70.312500
5980		76.171875
5981		72.265625
5982		82.031250
5983		76.171875
5984		83.984375
5985		78.125000
5986		87.890625
5987		83.984375
5988		87.890625
5989		87.890625
5990		91.796875
5991		89.843750
5992		93.750000
5993		93.750000
5994		97.656250
5995		95.703125
5996		99.609375
5997		97.656250
5998		107.421875
5999		97.656250
6000		109.375000
6001		101.562500
6002		111.328125
6003		103.515625
6004		111.328125
6005		109.375000
6006		113.281250
6007		111.328125
6008		115.234375
6009		115.234375
6010		119.140625
6011		117.187500
6012		121.093750
6013		119.140625
6014		123.046875
6015		119.140625
6016		128.906250
6017		121.093750
6018		128.906250
6019		123.046875
6020		130.859375
6021		126.953125
6022		130.859375
6023		128.906250
6024		132.812500
6025		130.859375
6026		134.765625
6027		130.859375
6028		134.765625
6029		134.765625
6030		136.718750
6031		132.812500
6032		142.578125
6033		134.765625
6034		142.578125
6035		136.718750
6036		144.531250
6037		138.671875
6038		144.531250
6039		140.625000
6040		144.531250
6041		142.578125
6042		144.531250
6043		142.578125
6044		146.484375
6045		142.578125
6046		146.484375
6047		144.531250
6048		146.484375
6049		142.578125
6050		150.390625
6051		142.578125
6052		152.343750
6053		144.531250
6054		152.343750
6055		146.484375
6056		150.390625
6057		146.484375
6058		150.390625
6059		148.437500
6060		150.390625
6061		148.437500
6062		150.390625
6063		148.437500
6064		150.390625
6065		146.484375
6066		154.296875
6067		146.484375
6068		154.296875
6069		144.531250
6070		154.296875
6071		146.484375
6072		150.390625
6073		148.437500
6074		150.390625
6075		148.437500
6076		150.390625
6077		146.484375
6078		150.390625
6079		146.484375
6080		148.437500
6081		142.578125
6082		150.390625
6083		142.578125
6084		152.343750
6085		142.578125
6086		150.390625
6087		140.625000
6088		148.437500
6089		142.578125
6090		146.484375
6091		142.578125
6092		144.531250
6093		140.625000
6094		144.531250
6095		140.625000
6096		142.578125
6097		138.671875
6098		140.625000
6099		134.765625
6100		142.578125
6101		132.812500
6102		140.625000
6103		132.812500
6104		140.625000
6105		132.812500
6106		136.718750
6107		130.859375
6108		134.765625
6109		128.906250
6110		132.812500
6111		126.953125
6112		130.859375
6113		125.000000
6114		128.906250
6115		123.046875
6116		126.953125
6117		119.140625
6118		126.953125
6119		115.234375
6120		123.046875
6121		117.187500
6122		119.140625
6123		113.281250
6124		117.187500
6125		111.328125
6126		115.234375
6127		109.375000
6128		113.281250
6129		105.468750
6130		109.375000
6131		103.515625
6132		107.421875
6133		101.562500
6134		105.468750
6135		97.656250
6136		105.468750
6137		93.750000
6138		101.562500
6139		91.796875
6140		95.703125
6141		87.890625
6142		93.750000
6143		85.937500
6144		89.843750
6145		82.031250
6146		87.890625
6147		78.125000
6148		83.984375
6149		76.171875
6150		80.078125
6151		70.312500
6152		78.125000
6153		68.359375
6154		74.218750
6155		64.453125
6156		70.312500
6157		60.546875
6158		66.406250
6159		56.640625
6160		62.500000
6161		54.687500
6162		58.593750
6163		50.781250
6164		54.687500
6165		46.875000
6166		50.781250
6167		42.968750
6168		46.875000
6169		39.062500
6170		42.968750
6171		35.156250
6172		39.062500
6173		31.250000
6174		37.109375
6175		27.343750
6176		31.250000
6177		23.437500
6178		27.343750
6179		17.578125
6180		23.437500
6181		13.671875
6182		19.531250
6183		9.765625
6184		17.578125
6185		5.859375
6186		11.718750
6187		1.953125
6188		7.812500
6189		-1.953125
6190		3.906250
6191		-5.859375
6192		0.000000
6193		-9.765625
6194		-5.859375
6195		-15.625000
6196		-9.765625
6197		-19.531250
6198		-13.671875
6199		-23.437500
6200		-17.578125
6201		-27.343750
6202		-21.484375
6203		-31.250000
6204		-25.390625
6205		-35.156250
6206		-29.296875
6207		-39.062500
6208		-33.203125
6209		-42.968750
6210		-39.062500
6211		-46.875000
6212		-42.968750
6213		-52.734375
6214		-46.875000
6215		-56.640625
6216		-50.781250
6217		-60.546875
6218		-52.734375
6219		-64.453125
6220		-58.593750
6221		-68.359375
6222		-62.500000
6223		-72.265625
6224		-66.406250
6225		-74.218750
6226		-70.312500
6227		-78.125000
6228		-74.218750
6229		-82.031250
6230		-78.125000
6231		-85.937500
6232		-82.031250
6233		-89.843750
6234		-85.937500
6235		-93.750000
6236		-87.890625
6237		-97.656250
6238		-91.796875
6239		-101.562500
6240		-95.703125
6241		-103.515625
6242		-97.656250
6243		-107.421875
6244		-101.562500
6245		-109.375000
6246		-105.468750
6247		-113.281250
6248		-109.375000
6249		-117.187500
6250		-111.328125
6251		-119.140625
6252		-113.281250
6253		-123.046875
6254		-117.187500
6255		-125.000000
6256		-121.093750
6257		-128.906250
6258		-123.046875
6259		-130.859375
6260		-125.000000
6261		-132.812500
6262		-128.906250
6263		-134.765625
6264		-130.859375
6265		-136.718750
6266		-132.812500
6267		-138.671875
6268		-134.765625
6269		-140.625000
6270		-136.718750
6271		-142.578125
6272		-138.671875
6273		-146.484375
6274		-140.625000
6275		-146.484375
6276		-142.578125
6277		-148.437500
6278		-144.531250
6279		-150.390625
6280		-146.484375
6281		-150.390625
6282		-148.437500
6283		-154.296875
6284		-148.437500
6285		-154.296875
6286		-150.390625
6287		-154.296875
6288		-152.343750
6289		-156.250000
6290		-152.343750
6291		-156.250000
6292		-152.343750
6293		-156.250000
6294		-154.296875
6295		-156.250000
6296		-154.296875
6297		-156.250000
6298		-154.296875
6299		-158.203125
6300		-154.296875
6301		-160.156250
6302		-154.296875
6303		-158.203125
6304		-154.296875
6305		-156.250000
6306		-154.296875
6307		-158.203125
6308		-154.296875
6309		-158.203125
6310		-154.296875
6311		-156.250000
6312		-154.296875
6313		-156.250000
6314		-152.343750
6315		-154.296875
6316		-152.343750
6317		-154.296875
6318		-150.390625
6319		-154.296875
6320		-150.390625
6321		-152.343750
6322		-148.437500
6323		-150.390625
6324		-148.437500
6325		-150.390625
6326		-146.484375
6327		-148.437500
6328		-144.531250
6329		-146.484375
6330		-142.578125
6331		-144.531250
6332		-140.625000
6333		-142.578125
6334		-138.671875
6335		-142.578125
6336		-136.718750
6337		-138.671875
6338		-134.765625
6339		-136.718750
6340		-132.812500
6341		-134.765625
6342		-128.906250
6343		-132.812500
6344		-126.953125
6345		-128.906250
6346		-125.000000
6347		-126.953125
6348		-123.046875
6349		-125.000000
6350		-119.140625
6351		-123.046875
6352		-117.187500
6353		-119.140625
6354		-113.281250
6355		-115.234375
6356		-111.328125
6357		-111.328125
6358		-107.421875
6359		-109.375000
6360		-105.468750
6361		-105.468750
6362		-101.562500
6363		-101.562500
6364		-97.656250
6365		-99.609375
6366		-93.750000
6367		-95.703125
6368		-89.843750
6369		-91.796875
6370		-85.937500
6371		-87.890625
6372		-83.984375
6373		-83.984375
6374		-78.125000
6375		-82.031250
6376		-74.218750
6377		-76.171875
6378		-72.265625
6379		-72.265625
6380		-66.406250
6381		-68.359375
6382		-64.453125
6383		-64.453125
6384		-58.593750
6385		-62.500000
6386		-54.687500
6387		-56.640625
6388		-50.781250
6389		-52.734375
6390		-46.875000
6391		-48.828125
6392		-41.015625
6393		-44.921875
6394		-39.062500
6395		-39.062500
6396		-35.156250
6397		-35.156250
6398		-31.250000
6399		-31.250000
6400		-25.390625
6401		-27.343750
6402		-21.484375
6403		-23.437500
6404		-17.578125
6405		-19.531250
6406		-13.671875
6407		-13.671875
6408		-9.765625
6409		-9.765625
6410		-5.859375
6411		-5.859375
6412		0.000000
6413		-1.953125
6414		3.906250
6415		1.953125
6416		7.812500
6417		5.859375
6418		13.671875
6419		11.718750
6420		15.625000
6421		15.625000
6422		19.531250
6423		19.531250
6424		25.390625
6425		23.437500
6426		27.343750
6427		27.343750
6428		33.203125
6429		31.250000
6430		37.109375
6431		35.156250
6432		41.015625
6433		39.062500
6434		44.921875
6435		42.968750
6436		48.828125
6437		46.875000
6438		52.734375
6439		50.781250
6440		54.687500
6441		54.687500
6442		60.546875
6443		58.593750
6444		62.500000
6445		60.546875
6446		66.406250
6447		64.453125
6448		70.312500
6449		68.359375
6450		74.218750
6451		72.265625
6452		76.171875
6453		74.218750
6454		80.078125
6455		78.125000
6456		83.984375
6457		82.031250
6458		85.937500
6459		85.937500
6460		89.843750
6461		87.890625
6462		91.796875
6463		91.796875
6464		95.703125
6465		93.750000
6466		97.656250
6467		97.656250
6468		101.562500
6469		99.609375
6470		103.515625
6471		103.515625
6472		107.421875
6473		105.468750
6474		109.375000
6475		107.421875
6476		111.328125
6477		111.328125
6478		115.234375
6479		113.281250
6480		117.187500
6481		115.234375
6482		119.140625
6483		117.187500
6484		121.093750
6485		119.140625
6486		123.046875
6487		121.093750
6488		125.000000
6489		123.046875
6490		126.953125
6491		125.000000
6492		128.906250
6493		126.953125
6494		130.859375
6495		128.906250
6496		132.812500
6497		130.859375
6498		134.765625
6499		132.812500
6500		136.718750
6501		132.812500
6502		136.718750
6503		134.765625
6504		138.671875
6505		136.718750
6506		140.625000
6507		138.671875
6508		142.578125
6509		140.625000
6510		142.578125
6511		140.625000
6512		144.531250
6513		142.578125
6514		144.531250
6515		142.578125
6516		146.484375
6517		144.531250
6518		146.484375
6519		144.531250
6520		148.437500
6521		146.484375
6522		148.437500
6523		146.484375
6524		148.437500
6525		146.484375
6526		148.437500
6527		146.484375
6528		150.390625
6529		148.437500
6530		150.390625
6531		148.437500
6532		150.390625
6533		148.437500
6534		150.390625
6535		148.437500
6536		152.343750
6537		148.437500
6538		150.390625
6539		148.437500
6540		150.390625
6541		148.437500
6542		150.390625
6543		148.437500
6544		150.390625
6545		148.437500
6546		150.390625
6547		146.484375
6548		150.390625
6549		146.484375
6550		150.390625
6551		146.484375
6552		148.437500
6553		144.531250
6554		150.390625
6555		142.578125
6556		150.390625
6557		144.531250
6558		146.484375
6559		142.578125
6560		146.484375
6561		142.578125
6562		144.531250
6563		140.625000
6564		144.531250
6565		140.625000
6566		142.578125
6567		138.671875
6568		142.578125
6569		136.718750
6570		142.578125
6571		134.765625
6572		140.625000
6573		134.765625
6574		138.671875
6575		132.812500
6576		136.718750
6577		130.859375
6578		134.765625
6579		130.859375
6580		132.812500
6581		126.953125
6582		130.859375
6583		126.953125
6584		128.906250
6585		121.093750
6586		128.906250
6587		121.093750
6588		126.953125
6589		121.093750
6590		125.000000
6591		117.187500
6592		121.093750
6593		115.234375
6594		119.140625
6595		113.281250
6596		117.187500
6597		111.328125
6598		115.234375
6599		107.421875
6600		111.328125
6601		105.468750
6602		109.375000
6603		101.562500
6604		109.375000
6605		99.609375
6606		105.468750
6607		95.703125
6608		101.562500
6609		93.750000
6610		97.656250
6611		91.796875
6612		95.703125
6613		87.890625
6614		91.796875
6615		83.984375
6616		89.843750
6617		82.031250
6618		85.937500
6619		76.171875
6620		82.031250
6621		74.218750
6622		80.078125
6623		70.312500
6624		76.171875
6625		68.359375
6626		72.265625
6627		64.453125
6628		68.359375
6629		60.546875
6630		66.406250
6631		56.640625
6632		62.500000
6633		52.734375
6634		58.593750
6635		48.828125
6636		54.687500
6637		42.968750
6638		52.734375
6639		41.015625
6640		48.828125
6641		37.109375
6642		42.968750
6643		33.203125
6644		39.062500
6645		29.296875
6646		35.156250
6647		25.390625
6648		31.250000
6649		21.484375
6650		27.343750
6651		17.578125
6652		23.437500
6653		11.718750
6654		17.578125
6655		7.812500
6656		15.625000
6657		5.859375
6658		9.765625
6659		0.000000
6660		5.859375
6661		-3.906250
6662		1.953125
6663		-7.812500
6664		-1.953125
6665		-11.718750
6666		-5.859375
6667		-15.625000
6668		-9.765625
6669		-21.484375
6670		-13.671875
6671		-25.390625
6672		-17.578125
6673		-29.296875
6674		-21.484375
6675		-33.203125
6676		-27.343750
6677		-37.109375
6678		-31.250000
6679		-41.015625
6680		-35.156250
6681		-44.921875
6682		-39.062500
6683		-48.828125
6684		-42.968750
6685		-52.734375
6686		-46.875000
6687		-58.593750
6688		-50.781250
6689		-60.546875
6690		-54.687500
6691		-64.453125
6692		-60.546875
6693		-68.359375
6694		-64.453125
6695		-72.265625
6696		-68.359375
6697		-76.171875
6698		-72.265625
6699		-80.078125
6700		-74.218750
6701		-83.984375
6702		-78.125000
6703		-89.843750
6704		-82.031250
6705		-91.796875
6706		-83.984375
6707		-95.703125
6708		-89.843750
6709		-97.656250
6710		-93.750000
6711		-101.562500
6712		-97.656250
6713		-105.468750
6714		-99.609375
6715		-107.421875
6716		-103.515625
6717		-111.328125
6718		-107.421875
6719		-115.234375
6720		-109.375000
6721		-117.187500
6722		-111.328125
6723		-121.093750
6724		-115.234375
6725		-123.046875
6726		-119.140625
6727		-125.000000
6728		-121.093750
6729		-128.906250
6730		-125.000000
6731		-130.859375
6732		-126.953125
6733		-132.812500
6734		-128.906250
6735		-134.765625
6736		-132.812500
6737		-138.671875
6738		-132.812500
6739		-140.625000
6740		-136.718750
6741		-142.578125
6742		-138.671875
6743		-144.531250
6744		-140.625000
6745		-146.484375
6746		-142.578125
6747		-148.437500
6748		-144.531250
6749		-150.390625
6750		-146.484375
6751		-150.390625
6752		-146.484375
6753		-152.343750
6754		-148.437500
6755		-152.343750
6756		-148.437500
6757		-154.296875
6758		-150.390625
6759		-154.296875
6760		-152.343750
6761		-156.250000
6762		-152.343750
6763		-156.250000
6764		-154.296875
6765		-156.250000
6766		-154.296875
6767		-158.203125
6768		-154.296875
6769		-158.203125
6770		-154.296875
6771		-158.203125
6772		-154.296875
6773		-158.203125
6774		-156.250000
6775		-158.203125
6776		-156.250000
6777		-158.203125
6778		-156.250000
6779		-158.203125
6780		-156.250000
6781		-158.203125
6782		-154.296875
6783		-156.250000
6784		-154.296875
6785		-156.250000
6786		-154.296875
6787		-156.250000
6788		-152.343750
6789		-154.296875
6790		-150.390625
6791		-154.296875
6792		-150.390625
6793		-152.343750
6794		-150.390625
6795		-150.390625
6796		-148.437500
6797		-150.390625
6798		-146.484375
6799		-148.437500
6800		-144.531250
6801		-146.484375
6802		-142.578125
6803		-144.531250
6804		-140.625000
6805		-142.578125
6806		-138.671875
6807		-140.625000
6808		-138.671875
6809		-138.671875
6810		-134.765625
6811		-136.718750
6812		-132.812500
6813		-134.765625
6814		-130.859375
6815		-132.812500
6816		-128.906250
6817		-128.906250
6818		-125.000000
6819		-126.953125
6820		-123.046875
6821		-125.000000
6822		-119.140625
6823		-121.093750
6824		-117.187500
6825		-119.140625
6826		-113.281250
6827		-115.234375
6828		-111.328125
6829		-111.328125
6830		-107.421875
6831		-109.375000
6832		-103.515625
6833		-105.468750
6834		-101.562500
6835		-101.562500
6836		-97.656250
6837		-97.656250
6838		-93.750000
6839		-95.703125
6840		-89.843750
6841		-91.796875
6842		-85.937500
6843		-87.890625
6844		-82.031250
6845		-83.984375
6846		-78.125000
6847		-80.078125
6848		-74.218750
6849		-76.171875
6850		-70.312500
6851		-72.265625
6852		-66.406250
6853		-68.359375
6854		-62.500000
6855		-64.453125
6856		-58.593750
6857		-60.546875
6858		-54.687500
6859		-56.640625
6860		-50.781250
6861		-52.734375
6862		-46.875000
6863		-46.875000
6864		-42.968750
6865		-42.968750
6866		-39.062500
6867		-39.062500
6868		-33.203125
6869		-35.156250
6870		-29.296875
6871		-31.250000
6872		-25.390625
6873		-27.343750
6874		-21.484375
6875		-23.437500
6876		-17.578125
6877		-17.578125
6878		-13.671875
6879		-13.671875
6880		-7.812500
6881		-9.765625
6882		-3.906250
6883		-5.859375
6884		0.000000
6885		-1.953125
6886		3.906250
6887		3.906250
6888		7.812500
6889		7.812500
6890		11.718750
6891		11.718750
6892		17.578125
6893		15.625000
6894		21.484375
6895		19.531250
6896		25.390625
6897		23.437500
6898		29.296875
6899		27.343750
6900		33.203125
6901		31.250000
6902		37.109375
6903		35.156250
6904		41.015625
6905		39.062500
6906		44.921875
6907		42.968750
6908		48.828125
6909		46.875000
6910		52.734375
6911		50.781250
6912		56.640625
6913		54.687500
6914		60.546875
6915		58.593750
6916		62.500000
6917		62.500000
6918		66.406250
6919		66.406250
6920		70.312500
6921		68.359375
6922		74.218750
6923		72.265625
6924		78.125000
6925		76.171875
6926		80.078125
6927		80.078125
6928		83.984375
6929		82.031250
6930		85.937500
6931		85.937500
6932		89.843750
6933		87.890625
6934		93.750000
6935		91.796875
6936		95.703125
6937		93.750000
6938		99.609375
6939		97.656250
6940		101.562500
6941		99.609375
6942		103.515625
6943		103.515625
6944		107.421875
6945		105.468750
6946		109.375000
6947		107.421875
6948		111.328125
6949		109.375000
6950		115.234375
6951		113.281250
6952		117.187500
6953		115.234375
6954		119.140625
6955		117.187500
6956		121.093750
6957		119.140625
6958		123.046875
6959		121.093750
6960		125.000000
6961		125.000000
6962		126.953125
6963		126.953125
6964		128.906250
6965		128.906250
6966		130.859375
6967		128.906250
6968		132.812500
6969		130.859375
6970		134.765625
6971		132.812500
6972		136.718750
6973		134.765625
6974		138.671875
6975		136.718750
6976		138.671875
6977		136.718750
6978		140.625000
6979		138.671875
6980		142.578125
6981		140.625000
6982		142.578125
6983		140.625000
6984		144.531250
6985		142.578125
6986		144.531250
6987		142.578125
6988		146.484375
6989		144.531250
6990		146.484375
6991		144.531250
6992		146.484375
6993		146.484375
6994		148.437500
6995		146.484375
6996		148.437500
6997		146.484375
6998		148.437500
6999		146.484375
7000		150.390625
7001		148.437500
7002		150.390625
7003		148.437500
7004		150.390625
7005		148.437500
7006		150.390625
7007		148.437500
7008		150.390625
7009		148.437500
7010		150.390625
7011		148.437500
7012		150.390625
7013		148.437500
7014		150.390625
7015		148.437500
7016		150.390625
7017		148.437500
7018		150.390625
7019		146.484375
7020		150.390625
7021		146.484375
7022		148.437500
7023		146.484375
7024		148.437500
7025		146.484375
7026		148.437500
7027		144.531250
7028		146.484375
7029		144.531250
7030		146.484375
7031		142.578125
7032		146.484375
7033		142.578125
7034		144.531250
7035		140.625000
7036		144.531250
7037		140.625000
7038		142.578125
7039		138.671875
7040		140.625000
7041		136.718750
7042		140.625000
7043		136.718750
7044		138.671875
7045		134.765625
7046		136.718750
7047		132.812500
7048		136.718750
7049		130.859375
7050		134.765625
7051		128.906250
7052		132.812500
7053		126.953125
7054		130.859375
7055		125.000000
7056		130.859375
7057		123.046875
7058		126.953125
7059		121.093750
7060		125.000000
7061		119.140625
7062		123.046875
7063		117.187500
7064		121.093750
7065		115.234375
7066		119.140625
7067		111.328125
7068		115.234375
7069		109.375000
7070		113.281250
7071		107.421875
7072		111.328125
7073		103.515625
7074		109.375000
7075		101.562500
7076		105.468750
7077		99.609375
7078		103.515625
7079		95.703125
7080		99.609375
7081		93.750000
7082		97.656250
7083		89.843750
7084		93.750000
7085		85.937500
7086		91.796875
7087		83.984375
7088		87.890625
7089		80.078125
7090		83.984375
7091		76.171875
7092		82.031250
7093		72.265625
7094		78.125000
7095		70.312500
7096		74.218750
7097		66.406250
7098		72.265625
7099		62.500000
7100		68.359375
7101		58.593750
7102		64.453125
7103		54.687500
7104		60.546875
7105		52.734375
7106		56.640625
7107		46.875000
7108		52.734375
7109		42.968750
7110		48.828125
7111		41.015625
7112		44.921875
7113		35.156250
7114		41.015625
7115		31.250000
7116		37.109375
7117		27.343750
7118		33.203125
7119		23.437500
7120		29.296875
7121		19.531250
7122		25.390625
7123		15.625000
7124		21.484375
7125		11.718750
7126		17.578125
7127		7.812500
7128		13.671875
7129		3.906250
7130		9.765625
7131		0.000000
7132		3.906250
7133		-3.906250
7134		0.000000
7135		-9.765625
7136		-3.906250
7137		-13.671875
7138		-7.812500
7139		-17.578125
7140		-11.718750
7141		-21.484375
7142		-15.625000
7143		-25.390625
7144		-19.531250
7145		-29.296875
7146		-25.390625
7147		-33.203125
7148		-29.296875
7149		-39.062500
7150		-33.203125
7151		-42.968750
7152		-37.109375
7153		-46.875000
7154		-41.015625
7155		-50.781250
7156		-44.921875
7157		-54.687500
7158		-48.828125
7159		-58.593750
7160		-52.734375
7161		-62.500000
7162		-56.640625
7163		-66.406250
7164		-60.546875
7165		-70.312500
7166		-64.453125
7167		-74.218750
7168		-68.359375
7169		-78.125000
7170		-72.265625
7171		-82.031250
7172		-76.171875
7173		-85.937500
7174		-80.078125
7175		-89.843750
7176		-83.984375
7177		-91.796875
7178		-87.890625
7179		-95.703125
7180		-91.796875
7181		-99.609375
7182		-95.703125
7183		-103.515625
7184		-97.656250
7185		-105.468750
7186		-101.562500
7187		-109.375000
7188		-105.468750
7189		-113.281250
7190		-107.421875
7191		-115.234375
7192		-111.328125
7193		-119.140625
7194		-113.281250
7195		-121.093750
7196		-117.187500
7197		-125.000000
7198		-119.140625
7199		-126.953125
7200		-123.046875
7201		-128.906250
7202		-125.000000
7203		-132.812500
7204		-128.906250
7205		-134.765625
7206		-128.906250
7207		-136.718750
7208		-132.812500
7209		-138.671875
7210		-134.765625
7211		-140.625000
7212		-136.718750
7213		-142.578125
7214		-138.671875
7215		-144.531250
7216		-140.625000
7217		-146.484375
7218		-142.578125
7219		-148.437500
7220		-144.531250
7221		-150.390625
7222		-146.484375
7223		-150.390625
7224		-148.437500
7225		-152.343750
7226		-148.437500
7227		-154.296875
7228		-150.390625
7229		-154.296875
7230		-152.343750
7231		-154.296875
7232		-152.343750
7233		-156.250000
7234		-152.343750
7235		-156.250000
7236		-154.296875
7237		-158.203125
7238		-154.296875
7239		-158.203125
7240		-154.296875
7241		-158.203125
7242		-156.250000
7243		-158.203125
7244		-156.250000
7245		-158.203125
7246		-156.250000
7247		-158.203125
7248		-154.296875
7249		-158.203125
7250		-156.250000
7251		-158.203125
7252		-154.296875
7253		-156.250000
7254		-154.296875
7255		-156.250000
7256		-154.296875
7257		-156.250000
7258		-154.296875
7259		-156.250000
7260		-152.343750
7261		-154.296875
7262		-152.343750
7263		-152.343750
7264		-150.390625
7265		-152.343750
7266		-148.437500
7267		-150.390625
7268		-148.437500
7269		-148.437500
7270		-146.484375
7271		-148.437500
7272		-144.531250
7273		-146.484375
7274		-142.578125
7275		-144.531250
7276		-140.625000
7277		-142.578125
7278		-138.671875
7279		-140.625000
7280		-136.718750
7281		-138.671875
7282		-134.765625
7283		-136.718750
7284		-132.812500
7285		-132.812500
7286		-128.906250
7287		-130.859375
7288		-126.953125
7289		-128.906250
7290		-125.000000
7291		-125.000000
7292		-121.093750
7293		-123.046875
7294		-119.140625
7295		-121.093750
7296		-115.234375
7297		-117.187500
7298		-113.281250
7299		-113.281250
7300		-109.375000
7301		-111.328125
7302		-105.468750
7303		-107.421875
7304		-103.515625
7305		-105.468750
7306		-99.609375
7307		-101.562500
7308		-95.703125
7309		-97.656250
7310		-91.796875
7311		-93.750000
7312		-89.843750
7313		-89.843750
7314		-85.937500
7315		-85.937500
7316		-82.031250
7317		-83.984375
7318		-78.125000
7319		-80.078125
7320		-74.218750
7321		-74.218750
7322		-70.312500
7323		-70.312500
7324		-66.406250
7325		-66.406250
7326		-62.500000
7327		-64.453125
7328		-56.640625
7329		-58.593750
7330		-52.734375
7331		-54.687500
7332		-48.828125
7333		-50.781250
7334		-44.921875
7335		-46.875000
7336		-41.015625
7337		-42.968750
7338		-37.109375
7339		-39.062500
7340		-33.203125
7341		-33.203125
7342		-29.296875
7343		-29.296875
7344		-23.437500
7345		-25.390625
7346		-19.531250
7347		-21.484375
7348		-15.625000
7349		-17.578125
7350		-11.718750
7351		-11.718750
7352		-7.812500
7353		-7.812500
7354		-1.953125
7355		-3.906250
7356		1.953125
7357		0.000000
7358		5.859375
7359		3.906250
7360		9.765625
7361		7.812500
7362		13.671875
7363		11.718750
7364		17.578125
7365		17.578125
7366		21.484375
7367		21.484375
7368		25.390625
7369		25.390625
7370		29.296875
7371		29.296875
7372		35.156250
7373		33.203125
7374		37.109375
7375		37.109375
7376		41.015625
7377		41.015625
7378		46.875000
7379		42.968750
7380		48.828125
7381		48.828125
7382		52.734375
7383		52.734375
7384		56.640625
7385		56.640625
7386		60.546875
7387		58.593750
7388		64.453125
7389		62.500000
7390		68.359375
7391		66.406250
7392		70.312500
7393		70.312500
7394		74.218750
7395		74.218750
7396		78.125000
7397		76.171875
7398		82.031250
7399		80.078125
7400		85.937500
7401		83.984375
7402		87.890625
7403		85.937500
7404		91.796875
7405		89.843750
7406		93.750000
7407		93.750000
7408		97.656250
7409		95.703125
7410		99.609375
7411		99.609375
7412		103.515625
7413		101.562500
7414		105.468750
7415		103.515625
7416		107.421875
7417		107.421875
7418		111.328125
7419		109.375000
7420		113.281250
7421		111.328125
7422		117.187500
7423		113.281250
7424		117.187500
7425		117.187500
7426		119.140625
7427		119.140625
7428		123.046875
7429		121.093750
7430		125.000000
7431		123.046875
7432		126.953125
7433		125.000000
7434		128.906250
7435		126.953125
7436		130.859375
7437		128.906250
7438		132.812500
7439		130.859375
7440		134.765625
7441		132.812500
7442		136.718750
7443		132.812500
7444		136.718750
7445		134.765625
7446		138.671875
7447		136.718750
7448		140.625000
7449		138.671875
7450		140.625000
7451		138.671875
7452		142.578125
7453		140.625000
7454		144.531250
7455		142.578125
7456		144.531250
7457		142.578125
7458		144.531250
7459		144.531250
7460		146.484375
7461		144.531250
7462		146.484375
7463		144.531250
7464		148.437500
7465		144.531250
7466		148.437500
7467		146.484375
7468		148.437500
7469		146.484375
7470		150.390625
7471		148.437500
7472		150.390625
7473		148.437500
7474		150.390625
7475		148.437500
7476		150.390625
7477		148.437500
7478		150.390625
7479		148.437500
7480		150.390625
7481		148.437500
7482		150.390625
7483		148.437500
7484		150.390625
7485		148.437500
7486		150.390625
7487		148.437500
7488		150.390625
7489		148.437500
7490		150.390625
7491		146.484375
7492		150.390625
7493		146.484375
7494		150.390625
7495		146.484375
7496		148.437500
7497		146.484375
7498		148.437500
7499		144.531250
7500		148.437500
7501		144.531250
7502		146.484375
7503		142.578125
7504		146.484375
7505		142.578125
7506		144.531250
7507		140.625000
7508		144.531250
7509		140.625000
7510		142.578125
7511		138.671875
7512		142.578125
7513		136.718750
7514		140.625000
7515		134.765625
7516		138.671875
7517		134.765625
7518		136.718750
7519		132.812500
7520		136.718750
7521		130.859375
7522		134.765625
7523		128.906250
7524		132.812500
7525		126.953125
7526		130.859375
7527		125.000000
7528		128.906250
7529		123.046875
7530		126.953125
7531		121.093750
7532		125.000000
7533		119.140625
7534		123.046875
7535		117.187500
7536		121.093750
7537		115.234375
7538		119.140625
7539		111.328125
7540		115.234375
7541		109.375000
7542		113.281250
7543		107.421875
7544		111.328125
7545		103.515625
7546		107.421875
7547		101.562500
7548		105.468750
7549		97.656250
7550		103.515625
7551		95.703125
7552		99.609375
7553		91.796875
7554		95.703125
7555		89.843750
7556		93.750000
7557		85.937500
7558		89.843750
7559		82.031250
7560		87.890625
7561		80.078125
7562		83.984375
7563		76.171875
7564		80.078125
7565		72.265625
7566		78.125000
7567		68.359375
7568		74.218750
7569		66.406250
7570		70.312500
7571		62.500000
7572		66.406250
7573		58.593750
7574		62.500000
7575		54.687500
7576		60.546875
7577		50.781250
7578		56.640625
7579		46.875000
7580		52.734375
7581		41.015625
7582		48.828125
7583		39.062500
7584		46.875000
7585		35.156250
7586		41.015625
7587		31.250000
7588		39.062500
7589		27.343750
7590		33.203125
7591		23.437500
7592		29.296875
7593		19.531250
7594		25.390625
7595		15.625000
7596		21.484375
7597		11.718750
7598		15.625000
7599		5.859375
7600		13.671875
7601		1.953125
7602		7.812500
7603		-1.953125
7604		5.859375
7605		-5.859375
7606		0.000000
7607		-9.765625
7608		-1.953125
7609		-13.671875
7610		-7.812500
7611		-19.531250
7612		-13.671875
7613		-23.437500
7614		-15.625000
7615		-27.343750
7616		-21.484375
7617		-31.250000
7618		-25.390625
7619		-37.109375
7620		-29.296875
7621		-39.062500
7622		-33.203125
7623		-42.968750
7624		-37.109375
7625		-46.875000
7626		-41.015625
7627		-50.781250
7628		-44.921875
7629		-56.640625
7630		-48.828125
7631		-60.546875
7632		-54.687500
7633		-62.500000
7634		-56.640625
7635		-68.359375
7636		-60.546875
7637		-70.312500
7638		-64.453125
7639		-76.171875
7640		-70.312500
7641		-78.125000
7642		-74.218750
7643		-82.031250
7644		-76.171875
7645		-85.937500
7646		-80.078125
7647		-91.796875
7648		-83.984375
7649		-93.750000
7650		-87.890625
7651		-97.656250
7652		-91.796875
7653		-99.609375
7654		-95.703125
7655		-103.515625
7656		-97.656250
7657		-107.421875
7658		-101.562500
7659		-109.375000
7660		-105.468750
7661		-113.281250
7662		-107.421875
7663		-119.140625
7664		-111.328125
7665		-121.093750
7666		-111.328125
7667		-123.046875
7668		-117.187500
7669		-125.000000
7670		-121.093750
7671		-128.906250
7672		-121.093750
7673		-132.812500
7674		-125.000000
7675		-132.812500
7676		-128.906250
7677		-134.765625
7678		-130.859375
7679		-138.671875
7680		-132.812500
7681		-138.671875
7682		-134.765625
7683		-142.578125
7684		-134.765625
7685		-142.578125
7686		-138.671875
7687		-148.437500
7688		-138.671875
7689		-146.484375
7690		-142.578125
7691		-150.390625
7692		-142.578125
7693		-150.390625
7694		-146.484375
7695		-152.343750
7696		-148.437500
7697		-154.296875
7698		-146.484375
7699		-154.296875
7700		-148.437500
7701		-154.296875
7702		-150.390625
7703		-156.250000
7704		-152.343750
7705		-158.203125
7706		-150.390625
7707		-160.156250
7708		-150.390625
7709		-156.250000
7710		-154.296875
7711		-156.250000
7712		-154.296875
7713		-158.203125
7714		-154.296875
7715		-160.156250
7716		-152.343750
7717		-158.203125
7718		-154.296875
7719		-158.203125
7720		-154.296875
7721		-160.156250
7722		-152.343750
7723		-160.156250
7724		-152.343750
7725		-158.203125
7726		-152.343750
7727		-156.250000
7728		-152.343750
7729		-156.250000
7730		-152.343750
7731		-158.203125
7732		-148.437500
7733		-154.296875
7734		-150.390625
7735		-152.343750
7736		-150.390625
7737		-152.343750
7738		-144.531250
7739		-152.343750
7740		-144.531250
7741		-150.390625
7742		-142.578125
7743		-146.484375
7744		-142.578125
7745		-144.531250
7746		-140.625000
7747		-144.531250
7748		-136.718750
7749		-144.531250
7750		-136.718750
7751		-140.625000
7752		-136.718750
7753		-136.718750
7754		-132.812500
7755		-136.718750
7756		-128.906250
7757		-134.765625
7758		-126.953125
7759		-130.859375
7760		-125.000000
7761		-126.953125
7762		-123.046875
7763		-125.000000
7764		-119.140625
7765		-123.046875
7766		-115.234375
7767		-121.093750
7768		-115.234375
7769		-117.187500
7770		-111.328125
7771		-113.281250
7772		-105.468750
7773		-113.281250
7774		-105.468750
7775		-109.375000
7776		-101.562500
7777		-103.515625
7778		-97.656250
7779		-99.609375
7780		-93.750000
7781		-97.656250
7782		-87.890625
7783		-93.750000
7784		-85.937500
7785		-89.843750
7786		-83.984375
7787		-85.937500
7788		-78.125000
7789		-83.984375
7790		-74.218750
7791		-78.125000
7792		-70.312500
7793		-74.218750
7794		-68.359375
7795		-70.312500
7796		-64.453125
7797		-66.406250
7798		-58.593750
7799		-64.453125
7800		-56.640625
7801		-60.546875
7802		-52.734375
7803		-52.734375
7804		-48.828125
7805		-50.781250
7806		-41.015625
7807		-44.921875
7808		-37.109375
7809		-42.968750
7810		-35.156250
7811		-37.109375
7812		-31.250000
7813		-33.203125
7814		-25.390625
7815		-29.296875
7816		-21.484375
7817		-25.390625
7818		-17.578125
7819		-19.531250
7820		-13.671875
7821		-15.625000
7822		-7.812500
7823		-13.671875
7824		-5.859375
7825		-7.812500
7826		-1.953125
7827		-1.953125
7828		1.953125
7829		1.953125
7830		7.812500
7831		5.859375
7832		11.718750
7833		9.765625
7834		17.578125
7835		13.671875
7836		19.531250
7837		17.578125
7838		23.437500
7839		19.531250
7840		29.296875
7841		25.390625
7842		33.203125
7843		29.296875
7844		35.156250
7845		35.156250
7846		39.062500
7847		37.109375
7848		44.921875
7849		41.015625
7850		48.828125
7851		44.921875
7852		50.781250
7853		48.828125
7854		54.687500
7855		52.734375
7856		58.593750
7857		56.640625
7858		62.500000
7859		58.593750
7860		66.406250
7861		64.453125
7862		70.312500
7863		68.359375
7864		72.265625
7865		72.265625
7866		78.125000
7867		74.218750
7868		80.078125
7869		78.125000
7870		82.031250
7871		80.078125
7872		87.890625
7873		83.984375
7874		89.843750
7875		87.890625
7876		91.796875
7877		89.843750
7878		95.703125
7879		93.750000
7880		97.656250
7881		95.703125
7882		101.562500
7883		99.609375
7884		103.515625
7885		99.609375
7886		105.468750
7887		105.468750
7888		109.375000
7889		105.468750
7890		111.328125
7891		109.375000
7892		113.281250
7893		113.281250
7894		117.187500
7895		115.234375
7896		119.140625
7897		117.187500
7898		121.093750
7899		119.140625
7900		123.046875
7901		121.093750
7902		125.000000
7903		123.046875
7904		126.953125
7905		125.000000
7906		128.906250
7907		126.953125
7908		130.859375
7909		128.906250
7910		132.812500
7911		130.859375
7912		134.765625
7913		132.812500
7914		136.718750
7915		134.765625
7916		136.718750
7917		134.765625
7918		138.671875
7919		136.718750
7920		140.625000
7921		136.718750
7922		142.578125
7923		138.671875
7924		142.578125
7925		140.625000
7926		144.531250
7927		142.578125
7928		144.531250
7929		142.578125
7930		146.484375
7931		142.578125
7932		148.437500
7933		144.531250
7934		148.437500
7935		144.531250
7936		150.390625
7937		144.531250
7938		150.390625
7939		146.484375
7940		150.390625
7941		146.484375
7942		150.390625
7943		146.484375
7944		150.390625
7945		148.437500
7946		150.390625
7947		146.484375
7948		152.343750
7949		146.484375
7950		152.343750
7951		146.484375
7952		152.343750
7953		148.437500
7954		152.343750
7955		148.437500
7956		152.343750
7957		146.484375
7958		152.343750
7959		146.484375
7960		152.343750
7961		148.437500
7962		150.390625
7963		146.484375
7964		150.390625
7965		146.484375
7966		150.390625
7967		144.531250
7968		150.390625
7969		144.531250
7970		150.390625
7971		144.531250
7972		148.437500
7973		142.578125
7974		148.437500
7975		142.578125
7976		146.484375
7977		140.625000
7978		146.484375
7979		140.625000
7980		144.531250
7981		138.671875
7982		142.578125
7983		136.718750
7984		142.578125
7985		136.718750
7986		140.625000
7987		132.812500
7988		140.625000
7989		132.812500
7990		138.671875
7991		130.859375
7992		136.718750
7993		130.859375
7994		134.765625
7995		128.906250
7996		132.812500
7997		126.953125
7998		130.859375
7999		125.000000
8000		128.906250
8001		123.046875
8002		126.953125
8003		119.140625
8004		125.000000
8005		117.187500
8006		125.000000
8007		115.234375
8008		121.093750
8009		113.281250
8010		119.140625
8011		111.328125
8012		117.187500
8013		107.421875
8014		113.281250
8015		105.468750
8016		111.328125
8017		103.515625
8018		107.421875
8019		99.609375
8020		105.468750
8021		97.656250
8022		103.515625
8023		93.750000
8024		99.609375
8025		91.796875
8026		97.656250
8027		87.890625
8028		93.750000
8029		85.937500
8030		89.843750
8031		80.078125
8032		85.937500
8033		78.125000
8034		83.984375
8035		76.171875
8036		80.078125
8037		70.312500
8038		78.125000
8039		68.359375
8040		74.218750
8041		64.453125
8042		70.312500
8043		60.546875
8044		66.406250
8045		56.640625
8046		62.500000
8047		54.687500
8048		58.593750
8049		48.828125
8050		54.687500
8051		46.875000
8052		50.781250
8053		42.968750
8054		46.875000
8055		39.062500
8056		44.921875
8057		35.156250
8058		41.015625
8059		31.250000
8060		35.156250
8061		27.343750
8062		33.203125
8063		21.484375
8064		27.343750
8065		17.578125
8066		23.437500
8067		13.671875
8068		19.531250
8069		9.765625
8070		15.625000
8071		3.906250
8072		11.718750
8073		1.953125
8074		7.812500
8075		-1.953125
8076		3.906250
8077		-5.859375
8078		0.000000
8079		-9.765625
8080		-5.859375
8081		-15.625000
8082		-9.765625
8083		-19.531250
8084		-11.718750
8085		-23.437500
8086		-17.578125
8087		-27.343750
8088		-21.484375
8089		-31.250000
8090		-23.437500
8091		-35.156250
8092		-29.296875
8093		-39.062500
8094		-33.203125
8095		-42.968750
8096		-37.109375
8097		-48.828125
8098		-42.968750
8099		-52.734375
8100		-46.875000
8101		-56.640625
8102		-50.781250
8103		-60.546875
8104		-54.687500
8105		-64.453125
8106		-58.593750
8107		-68.359375
8108		-62.500000
8109		-72.265625
8110		-66.406250
8111		-76.171875
8112		-70.312500
8113		-78.125000
8114		-74.218750
8115		-83.984375
8116		-78.125000
8117		-87.890625
8118		-82.031250
8119		-89.843750
8120		-85.937500
8121		-95.703125
8122		-87.890625
8123		-97.656250
8124		-91.796875
8125		-101.562500
8126		-95.703125
8127		-105.468750
8128		-97.656250
8129		-107.421875
8130		-101.562500
8131		-109.375000
8132		-105.468750
8133		-113.281250
8134		-109.375000
8135		-115.234375
8136		-111.328125
8137		-119.140625
8138		-115.234375
8139		-123.046875
8140		-117.187500
8141		-125.000000
8142		-119.140625
8143		-126.953125
8144		-123.046875
8145		-128.906250
8146		-125.000000
8147		-132.812500
8148		-128.906250
8149		-136.718750
8150		-130.859375
8151		-136.718750
8152		-132.812500
8153		-138.671875
8154		-134.765625
8155		-140.625000
8156		-136.718750
8157		-142.578125
8158		-138.671875
8159		-144.531250
8160		-140.625000
8161		-146.484375
8162		-142.578125
8163		-148.437500
8164		-144.531250
8165		-150.390625
8166		-146.484375
8167		-150.390625
8168		-146.484375
8169		-152.343750
8170		-148.437500
8171		-154.296875
8172		-148.437500
8173		-156.250000
8174		-150.390625
8175		-156.250000
8176		-152.343750
8177		-156.250000
8178		-152.343750
8179		-156.250000
8180		-152.343750
8181		-156.250000
8182		-154.296875
8183		-156.250000
8184		-154.296875
8185		-158.203125
8186		-154.296875
8187		-158.203125
8188		-154.296875
8189		-158.203125
8190		-154.296875
8191		-158.203125
8192		-154.296875
8193		-158.203125
8194		-154.296875
8195		-158.203125
8196		-154.296875
8197		-156.250000
8198		-152.343750
8199		-156.250000
8200		-152.343750
8201		-154.296875
8202		-152.343750
8203		-154.296875
8204		-150.390625
8205		-154.296875
8206		-150.390625
8207		-152.343750
8208		-148.437500
8209		-150.390625
8210		-146.484375
8211		-150.390625
8212		-146.484375
8213		-148.437500
8214		-144.531250
8215		-146.484375
8216		-142.578125
8217		-144.531250
8218		-140.625000
8219		-142.578125
8220		-138.671875
8221		-140.625000
8222		-136.718750
8223		-138.671875
8224		-134.765625
8225		-136.718750
8226		-132.812500
8227		-134.765625
8228		-130.859375
8229		-132.812500
8230		-126.953125
8231		-128.906250
8232		-125.000000
8233		-126.953125
8234		-121.093750
8235		-125.000000
8236		-119.140625
8237		-121.093750
8238		-117.187500
8239		-119.140625
8240		-113.281250
8241		-115.234375
8242		-109.375000
8243		-111.328125
8244		-107.421875
8245		-109.375000
8246		-103.515625
8247		-105.468750
8248		-101.562500
8249		-101.562500
8250		-97.656250
8251		-99.609375
8252		-93.750000
8253		-95.703125
8254		-89.843750
8255		-91.796875
8256		-85.937500
8257		-87.890625
8258		-82.031250
8259		-83.984375
8260		-80.078125
8261		-82.031250
8262		-74.218750
8263		-78.125000
8264		-72.265625
8265		-72.265625
8266		-68.359375
8267		-68.359375
8268		-62.500000
8269		-64.453125
8270		-58.593750
8271		-60.546875
8272		-54.687500
8273		-58.593750
8274		-50.781250
8275		-52.734375
8276		-46.875000
8277		-48.828125
8278		-42.968750
8279		-44.921875
8280		-39.062500
8281		-39.062500
8282		-35.156250
8283		-35.156250
8284		-29.296875
8285		-31.250000
8286		-25.390625
8287		-27.343750
8288		-21.484375
8289		-23.437500
8290		-17.578125
8291		-17.578125
8292		-13.671875
8293		-15.625000
8294		-7.812500
8295		-9.765625
8296		-3.906250
8297		-5.859375
8298		0.000000
8299		-1.953125
8300		3.906250
8301		1.953125
8302		7.812500
8303		5.859375
8304		11.718750
8305		9.765625
8306		17.578125
8307		15.625000
8308		21.484375
8309		19.531250
8310		25.390625
8311		23.437500
8312		29.296875
8313		27.343750
8314		33.203125
8315		31.250000
8316		37.109375
8317		35.156250
8318		41.015625
8319		39.062500
8320		44.921875
8321		42.968750
8322		48.828125
8323		46.875000
8324		52.734375
8325		50.781250
8326		56.640625
8327		54.687500
8328		58.593750
8329		58.593750
8330		62.500000
8331		62.500000
8332		66.406250
8333		64.453125
8334		70.312500
8335		68.359375
8336		74.218750
8337		72.265625
8338		78.125000
8339		76.171875
8340		80.078125
8341		80.078125
8342		83.984375
8343		82.031250
8344		85.937500
8345		85.937500
8346		89.843750
8347		87.890625
8348		93.750000
8349		91.796875
8350		95.703125
8351		93.750000
8352		99.609375
8353		97.656250
8354		103.515625
8355		99.609375
8356		103.515625
8357		103.515625
8358		107.421875
8359		105.468750
8360		109.375000
8361		107.421875
8362		113.281250
8363		111.328125
8364		115.234375
8365		113.281250
8366		117.187500
8367		115.234375
8368		121.093750
8369		117.187500
8370		121.093750
8371		119.140625
8372		123.046875
8373		121.093750
8374		125.000000
8375		123.046875
8376		126.953125
8377		125.000000
8378		128.906250
8379		126.953125
8380		132.812500
8381		128.906250
8382		132.812500
8383		130.859375
8384		134.765625
8385		132.812500
8386		136.718750
8387		134.765625
8388		138.671875
8389		134.765625
8390		140.625000
8391		136.718750
8392		140.625000
8393		138.671875
8394		142.578125
8395		140.625000
8396		142.578125
8397		140.625000
8398		144.531250
8399		142.578125
8400		144.531250
8401		142.578125
8402		146.484375
8403		144.531250
8404		148.437500
8405		144.531250
8406		148.437500
8407		144.531250
8408		148.437500
8409		146.484375
8410		148.437500
8411		146.484375
8412		150.390625
8413		146.484375
8414		150.390625
8415		148.437500
8416		150.390625
8417		148.437500
8418		150.390625
8419		146.484375
8420		150.390625
8421		148.437500
8422		150.390625
8423		148.437500
8424		152.343750
8425		148.437500
8426		150.390625
8427		148.437500
8428		150.390625
8429		148.437500
8430		152.343750
8431		148.437500
8432		150.390625
8433		146.484375
8434		150.390625
8435		146.484375
8436		150.390625
8437		146.484375
8438		148.437500
8439		144.531250
8440		148.437500
8441		144.531250
8442		148.437500
8443		144.531250
8444		146.484375
8445		142.578125
8446		146.484375
8447		140.625000
8448		146.484375
8449		142.578125
8450		144.531250
8451		140.625000
8452		142.578125
8453		138.671875
8454		142.578125
8455		138.671875
8456		140.625000
8457		136.718750
8458		140.625000
8459		134.765625
8460		138.671875
8461		132.812500
8462		136.718750
8463		130.859375
8464		134.765625
8465		130.859375
8466		132.812500
8467		128.906250
8468		130.859375
8469		126.953125
8470		130.859375
8471		123.046875
8472		128.906250
8473		123.046875
8474		126.953125
8475		119.140625
8476		125.000000
8477		117.187500
8478		121.093750
8479		115.234375
8480		119.140625
8481		113.281250
8482		117.187500
8483		109.375000
8484		115.234375
8485		107.421875
8486		111.328125
8487		105.468750
8488		109.375000
8489		101.562500
8490		107.421875
8491		99.609375
8492		105.468750
8493		95.703125
8494		101.562500
8495		93.750000
8496		97.656250
8497		89.843750
8498		95.703125
8499		87.890625
8500		91.796875
8501		83.984375
8502		89.843750
8503		82.031250
8504		85.937500
8505		78.125000
8506		82.031250
8507		74.218750
8508		80.078125
8509		70.312500
8510		76.171875
8511		68.359375
8512		72.265625
8513		62.500000
8514		68.359375
8515		60.546875
8516		66.406250
8517		56.640625
8518		62.500000
8519		52.734375
8520		58.593750
8521		48.828125
8522		54.687500
8523		44.921875
8524		50.781250
8525		41.015625
8526		46.875000
8527		37.109375
8528		42.968750
8529		33.203125
8530		39.062500
8531		29.296875
8532		35.156250
8533		25.390625
8534		31.250000
8535		21.484375
8536		27.343750
8537		17.578125
8538		23.437500
8539		13.671875
8540		19.531250
8541		9.765625
8542		13.671875
8543		3.906250
8544		9.765625
8545		0.000000
8546		5.859375
8547		-3.906250
8548		1.953125
8549		-7.812500
8550		-1.953125
8551		-11.718750
8552		-5.859375
8553		-15.625000
8554		-9.765625
8555		-21.484375
8556		-15.625000
8557		-23.437500
8558		-19.531250
8559		-29.296875
8560		-23.437500
8561		-33.203125
8562		-27.343750
8563		-37.109375
8564		-31.250000
8565		-41.015625
8566		-35.156250
8567		-44.921875
8568		-39.062500
8569		-50.781250
8570		-42.968750
8571		-52.734375
8572		-46.875000
8573		-56.640625
8574		-52.734375
8575		-60.546875
8576		-56.640625
8577		-64.453125
8578		-60.546875
8579		-68.359375
8580		-62.500000
8581		-74.218750
8582		-68.359375
8583		-76.171875
8584		-72.265625
8585		-80.078125
8586		-76.171875
8587		-83.984375
8588		-78.125000
8589		-87.890625
8590		-82.031250
8591		-91.796875
8592		-85.937500
8593		-95.703125
8594		-89.843750
8595		-97.656250
8596		-93.750000
8597		-103.515625
8598		-95.703125
8599		-105.468750
8600		-99.609375
8601		-107.421875
8602		-103.515625
8603		-111.328125
8604		-107.421875
8605		-115.234375
8606		-109.375000
8607		-117.187500
8608		-113.281250
8609		-121.093750
8610		-115.234375
8611		-123.046875
8612		-117.187500
8613		-126.953125
8614		-121.093750
8615		-128.906250
8616		-125.000000
8617		-130.859375
8618		-126.953125
8619		-132.812500
8620		-128.906250
8621		-136.718750
8622		-130.859375
8623		-138.671875
8624		-134.765625
8625		-140.625000
8626		-136.718750
8627		-142.578125
8628		-138.671875
8629		-144.531250
8630		-140.625000
8631		-146.484375
8632		-142.578125
8633		-148.437500
8634		-142.578125
8635		-150.390625
8636		-146.484375
8637		-152.343750
8638		-146.484375
8639		-152.343750
8640		-148.437500
8641		-152.343750
8642		-150.390625
8643		-154.296875
8644		-150.390625
8645		-156.250000
8646		-152.343750
8647		-156.250000
8648		-152.343750
8649		-156.250000
8650		-152.343750
8651		-156.250000
8652		-154.296875
8653		-158.203125
8654		-154.296875
8655		-158.203125
8656		-156.250000
8657		-158.203125
8658		-156.250000
8659		-158.203125
8660		-156.250000
8661		-158.203125
8662		-156.250000
8663		-158.203125
8664		-156.250000
8665		-158.203125
8666		-154.296875
8667		-158.203125
8668		-154.296875
8669		-158.203125
8670		-154.296875
8671		-156.250000
8672		-154.296875
8673		-156.250000
8674		-152.343750
8675		-156.250000
8676		-152.343750
8677		-154.296875
8678		-150.390625
8679		-154.296875
8680		-150.390625
8681		-152.343750
8682		-148.437500
8683		-150.390625
8684		-146.484375
8685		-148.437500
8686		-144.531250
8687		-148.437500
8688		-142.578125
8689		-144.531250
8690		-142.578125
8691		-144.531250
8692		-138.671875
8693		-144.531250
8694		-136.718750
8695		-140.625000
8696		-134.765625
8697		-136.718750
8698		-132.812500
8699		-134.765625
8700		-130.859375
8701		-132.812500
8702		-128.906250
8703		-130.859375
8704		-125.000000
8705		-128.906250
8706		-123.046875
8707		-125.000000
8708		-119.140625
8709		-123.046875
8710		-117.187500
8711		-121.093750
8712		-113.281250
8713		-115.234375
8714		-111.328125
8715		-113.281250
8716		-107.421875
8717		-109.375000
8718		-103.515625
8719		-105.468750
8720		-101.562500
8721		-101.562500
8722		-95.703125
8723		-101.562500
8724		-93.750000
8725		-95.703125
8726		-87.890625
8727		-93.750000
8728		-83.984375
8729		-89.843750
8730		-83.984375
8731		-83.984375
8732		-80.078125
8733		-80.078125
8734		-74.218750
8735		-76.171875
8736		-72.265625
8737		-72.265625
8738		-66.406250
8739		-68.359375
8740		-62.500000
8741		-66.406250
8742		-58.593750
8743		-60.546875
8744		-52.734375
8745		-58.593750
8746		-50.781250
8747		-52.734375
8748		-46.875000
8749		-48.828125
8750		-42.968750
8751		-44.921875
8752		-39.062500
8753		-39.062500
8754		-35.156250
8755		-37.109375
8756		-29.296875
8757		-33.203125
8758		-23.437500
8759		-27.343750
8760		-19.531250
8761		-25.390625
8762		-15.625000
8763		-19.531250
8764		-13.671875
8765		-13.671875
8766		-7.812500
8767		-11.718750
8768		-3.906250
8769		-5.859375
8770		0.000000
8771		-1.953125
8772		5.859375
8773		1.953125
8774		9.765625
8775		5.859375
8776		13.671875
8777		9.765625
8778		17.578125
8779		13.671875
8780		21.484375
8781		19.531250
8782		25.390625
8783		23.437500
8784		29.296875
8785		27.343750
8786		33.203125
8787		31.250000
8788		37.109375
8789		33.203125
8790		42.968750
8791		37.109375
8792		46.875000
8793		41.015625
8794		50.781250
8795		44.921875
8796		52.734375
8797		50.781250
8798		56.640625
8799		52.734375
8800		60.546875
8801		56.640625
8802		62.500000
8803		62.500000
8804		66.406250
8805		64.453125
8806		72.265625
8807		66.406250
8808		74.218750
8809		70.312500
8810		80.078125
8811		74.218750
8812		82.031250
8813		78.125000
8814		85.937500
8815		80.078125
8816		87.890625
8817		83.984375
8818		89.843750
8819		87.890625
8820		93.750000
8821		91.796875
8822		97.656250
8823		91.796875
8824		99.609375
8825		95.703125
8826		103.515625
8827		99.609375
8828		105.468750
8829		99.609375
8830		109.375000
8831		103.515625
8832		111.328125
8833		107.421875
8834		113.281250
8835		111.328125
8836		115.234375
8837		113.281250
8838		117.187500
8839		113.281250
8840		121.093750
8841		115.234375
8842		123.046875
8843		119.140625
8844		125.000000
8845		119.140625
8846		126.953125
8847		121.093750
8848		128.906250
8849		125.000000
8850		130.859375
8851		125.000000
8852		130.859375
8853		128.906250
8854		132.812500
8855		130.859375
8856		136.718750
8857		130.859375
8858		138.671875
8859		132.812500
8860		140.625000
8861		132.812500
8862		140.625000
8863		136.718750
8864		142.578125
8865		134.765625
8866		142.578125
8867		138.671875
8868		144.531250
8869		140.625000
8870		144.531250
8871		142.578125
8872		144.531250
8873		140.625000
8874		146.484375
8875		142.578125
8876		148.437500
8877		142.578125
8878		150.390625
8879		142.578125
8880		150.390625
8881		144.531250
8882		150.390625
8883		144.531250
8884		150.390625
8885		144.531250
8886		150.390625
8887		146.484375
8888		150.390625
8889		146.484375
8890		152.343750
8891		146.484375
8892		152.343750
8893		146.484375
8894		152.343750
8895		146.484375
8896		152.343750
8897		146.484375
8898		152.343750
8899		146.484375
8900		152.343750
8901		146.484375
8902		152.343750
8903		146.484375
8904		150.390625
8905		146.484375
8906		150.390625
8907		144.531250
8908		152.343750
8909		144.531250
8910		150.390625
8911		144.531250
8912		150.390625
8913		142.578125
8914		148.437500
8915		142.578125
8916		148.437500
8917		140.625000
8918		148.437500
8919		142.578125
8920		144.531250
8921		140.625000
8922		144.531250
8923		138.671875
8924		144.531250
8925		136.718750
8926		144.531250
8927		134.765625
8928		142.578125
8929		132.812500
8930		140.625000
8931		132.812500
8932		138.671875
8933		130.859375
8934		138.671875
8935		130.859375
8936		136.718750
8937		128.906250
8938		132.812500
8939		125.000000
8940		130.859375
8941		123.046875
8942		130.859375
8943		121.093750
8944		128.906250
8945		119.140625
8946		126.953125
8947		117.187500
8948		125.000000
8949		115.234375
8950		123.046875
8951		113.281250
8952		121.093750
8953		113.281250
8954		117.187500
8955		109.375000
8956		113.281250
8957		105.468750
8958		113.281250
8959		101.562500
8960		111.328125
8961		99.609375
8962		107.421875
8963		95.703125
8964		105.468750
8965		93.750000
8966		101.562500
8967		89.843750
8968		99.609375
8969		89.843750
8970		95.703125
8971		85.937500
8972		91.796875
8973		82.031250
8974		89.843750
8975		78.125000
8976		85.937500
8977		74.218750
8978		83.984375
8979		70.312500
8980		78.125000
8981		68.359375
8982		76.171875
8983		64.453125
8984		74.218750
8985		62.500000
8986		68.359375
8987		58.593750
8988		64.453125
8989		52.734375
8990		60.546875
8991		48.828125
8992		58.593750
8993		44.921875
8994		54.687500
8995		42.968750
8996		50.781250
8997		39.062500
8998		46.875000
8999		33.203125
9000		42.968750
9001		31.250000
9002		39.062500
9003		27.343750
9004		33.203125
9005		23.437500
9006		29.296875
9007		17.578125
9008		25.390625
9009		13.671875
9010		23.437500
9011		9.765625
9012		19.531250
9013		5.859375
9014		15.625000
9015		1.953125
9016		9.765625
9017		-1.953125
9018		5.859375
9019		-3.906250
9020		1.953125
9021		-9.765625
9022		-1.953125
9023		-15.625000
9024		-7.812500
9025		-19.531250
9026		-9.765625
9027		-23.437500
9028		-13.671875
9029		-27.343750
9030		-17.578125
9031		-31.250000
9032		-23.437500
9033		-35.156250
9034		-27.343750
9035		-39.062500
9036		-31.250000
9037		-42.968750
9038		-37.109375
9039		-46.875000
9040		-41.015625
9041		-52.734375
9042		-42.968750
9043		-56.640625
9044		-46.875000
9045		-60.546875
9046		-52.734375
9047		-64.453125
9048		-56.640625
9049		-68.359375
9050		-58.593750
9051		-72.265625
9052		-64.453125
9053		-74.218750
9054		-68.359375
9055		-78.125000
9056		-72.265625
9057		-82.031250
9058		-76.171875
9059		-87.890625
9060		-78.125000
9061		-91.796875
9062		-82.031250
9063		-93.750000
9064		-85.937500
9065		-97.656250
9066		-87.890625
9067		-101.562500
9068		-93.750000
9069		-103.515625
9070		-95.703125
9071		-105.468750
9072		-101.562500
9073		-109.375000
9074		-103.515625
9075		-115.234375
9076		-105.468750
9077		-117.187500
9078		-109.375000
9079		-119.140625
9080		-113.281250
9081		-123.046875
9082		-115.234375
9083		-126.953125
9084		-117.187500
9085		-128.906250
9086		-121.093750
9087		-128.906250
9088		-125.000000
9089		-132.812500
9090		-126.953125
9091		-136.718750
9092		-128.906250
9093		-138.671875
9094		-130.859375
9095		-140.625000
9096		-132.812500
9097		-142.578125
9098		-134.765625
9099		-144.531250
9100		-138.671875
9101		-146.484375
9102		-138.671875
9103		-146.484375
9104		-140.625000
9105		-148.437500
9106		-144.531250
9107		-152.343750
9108		-144.531250
9109		-152.343750
9110		-146.484375
9111		-154.296875
9112		-146.484375
9113		-156.250000
9114		-148.437500
9115		-156.250000
9116		-150.390625
9117		-158.203125
9118		-150.390625
9119		-158.203125
9120		-150.390625
9121		-156.250000
9122		-154.296875
9123		-158.203125
9124		-154.296875
9125		-160.156250
9126		-154.296875
9127		-160.156250
9128		-154.296875
9129		-160.156250
9130		-154.296875
9131		-160.156250
9132		-154.296875
9133		-160.156250
9134		-154.296875
9135		-160.156250
9136		-154.296875
9137		-158.203125
9138		-154.296875
9139		-158.203125
9140		-154.296875
9141		-160.156250
9142		-152.343750
9143		-158.203125
9144		-150.390625
9145		-158.203125
9146		-150.390625
9147		-158.203125
9148		-150.390625
9149		-156.250000
9150		-148.437500
9151		-154.296875
9152		-148.437500
9153		-154.296875
9154		-146.484375
9155		-150.390625
9156		-146.484375
9157		-148.437500
9158		-144.531250
9159		-148.437500
9160		-140.625000
9161		-146.484375
9162		-138.671875
9163		-144.531250
9164		-136.718750
9165		-142.578125
9166		-134.765625
9167		-140.625000
9168		-132.812500
9169		-138.671875
9170		-130.859375
9171		-134.765625
9172		-130.859375
9173		-132.812500
9174		-126.953125
9175		-128.906250
9176		-123.046875
9177		-126.953125
9178		-121.093750
9179		-125.000000
9180		-117.187500
9181		-123.046875
9182		-115.234375
9183		-119.140625
9184		-111.328125
9185		-117.187500
9186		-109.375000
9187		-113.281250
9188		-107.421875
9189		-107.421875
9190		-103.515625
9191		-105.468750
9192		-97.656250
9193		-103.515625
9194		-95.703125
9195		-99.609375
9196		-91.796875
9197		-95.703125
9198		-87.890625
9199		-93.750000
9200		-83.984375
9201		-89.843750
9202		-80.078125
9203		-85.937500
9204		-78.125000
9205		-80.078125
9206		-74.218750
9207		-76.171875
9208		-70.312500
9209		-72.265625
9210		-64.453125
9211		-70.312500
9212		-60.546875
9213		-64.453125
9214		-56.640625
9215		-62.500000
9216		-52.734375
9217		-56.640625
9218		-48.828125
9219		-52.734375
9220		-44.921875
9221		-48.828125
9222		-41.015625
9223		-42.968750
9224		-37.109375
9225		-39.062500
9226		-31.250000
9227		-37.109375
9228		-27.343750
9229		-31.250000
9230		-23.437500
9231		-27.343750
9232		-19.531250
9233		-23.437500
9234		-15.625000
9235		-19.531250
9236		-9.765625
9237		-15.625000
9238		-7.812500
9239		-9.765625
9240		-3.906250
9241		-3.906250
9242		0.000000
9243		-1.953125
9244		5.859375
9245		1.953125
9246		11.718750
9247		5.859375
9248		13.671875
9249		9.765625
9250		19.531250
9251		15.625000
9252		23.437500
9253		17.578125
9254		27.343750
9255		23.437500
9256		29.296875
9257		27.343750
9258		33.203125
9259		31.250000
9260		39.062500
9261		33.203125
9262		42.968750
9263		39.062500
9264		46.875000
9265		41.015625
9266		50.781250
9267		46.875000
9268		54.687500
9269		48.828125
9270		58.593750
9271		54.687500
9272		60.546875
9273		58.593750
9274		64.453125
9275		62.500000
9276		70.312500
9277		64.453125
9278		72.265625
9279		68.359375
9280		76.171875
9281		70.312500
9282		80.078125
9283		74.218750
9284		82.031250
9285		76.171875
9286		85.937500
9287		82.031250
9288		87.890625
9289		85.937500
9290		89.843750
9291		87.890625
9292		93.750000
9293		91.796875
9294		97.656250
9295		93.750000
9296		101.562500
9297		97.656250
9298		103.515625
9299		97.656250
9300		107.421875
9301		101.562500
9302		109.375000
9303		103.515625
9304		113.281250
9305		107.421875
9306		113.281250
9307		111.328125
9308		115.234375
9309		113.281250
9310		119.140625
9311		113.281250
9312		121.093750
9313		117.187500
9314		123.046875
9315		119.140625
9316		126.953125
9317		121.093750
9318		128.906250
9319		121.093750
9320		130.859375
9321		125.000000
9322		130.859375
9323		128.906250
9324		132.812500
9325		130.859375
9326		134.765625
9327		128.906250
9328		136.718750
9329		130.859375
9330		138.671875
9331		132.812500
9332		140.625000
9333		134.765625
9334		140.625000
9335		134.765625
9336		142.578125
9337		136.718750
9338		144.531250
9339		138.671875
9340		142.578125
9341		140.625000
9342		144.531250
9343		140.625000
9344		146.484375
9345		140.625000
9346		148.437500
9347		142.578125
9348		148.437500
9349		142.578125
9350		150.390625
9351		142.578125
9352		150.390625
9353		144.531250
9354		150.390625
9355		144.531250
9356		150.390625
9357		146.484375
9358		150.390625
9359		146.484375
9360		152.343750
9361		146.484375
9362		152.343750
9363		146.484375
9364		152.343750
9365		146.484375
9366		152.343750
9367		146.484375
9368		152.343750
9369		146.484375
9370		152.343750
9371		144.531250
9372		152.343750
9373		146.484375
9374		150.390625
9375		146.484375
9376		150.390625
9377		144.531250
9378		150.390625
9379		144.531250
9380		150.390625
9381		144.531250
9382		150.390625
9383		142.578125
9384		150.390625
9385		142.578125
9386		148.437500
9387		140.625000
9388		148.437500
9389		142.578125
9390		148.437500
9391		142.578125
9392		144.531250
9393		138.671875
9394		144.531250
9395		136.718750
9396		144.531250
9397		136.718750
9398		142.578125
9399		134.765625
9400		142.578125
9401		132.812500
9402		140.625000
9403		130.859375
9404		138.671875
9405		130.859375
9406		138.671875
9407		130.859375
9408		134.765625
9409		128.906250
9410		132.812500
9411		125.000000
9412		132.812500
9413		123.046875
9414		130.859375
9415		121.093750
9416		128.906250
9417		119.140625
9418		126.953125
9419		115.234375
9420		125.000000
9421		113.281250
9422		123.046875
9423		113.281250
9424		119.140625
9425		111.328125
9426		115.234375
9427		107.421875
9428		113.281250
9429		105.468750
9430		111.328125
9431		101.562500
9432		109.375000
9433		99.609375
9434		105.468750
9435		95.703125
9436		103.515625
9437		93.750000
9438		101.562500
9439		91.796875
9440		97.656250
9441		89.843750
9442		93.750000
9443		83.984375
9444		89.843750
9445		82.031250
9446		89.843750
9447		76.171875
9448		85.937500
9449		72.265625
9450		82.031250
9451		70.312500
9452		78.125000
9453		66.406250
9454		76.171875
9455		62.500000
9456		70.312500
9457		62.500000
9458		66.406250
9459		58.593750
9460		62.500000
9461		52.734375
9462		60.546875
9463		48.828125
9464		56.640625
9465		44.921875
9466		52.734375
9467		41.015625
9468		50.781250
9469		37.109375
9470		46.875000
9471		33.203125
9472		41.015625
9473		31.250000
9474		39.062500
9475		27.343750
9476		33.203125
9477		21.484375
9478		27.343750
9479		17.578125
9480		25.390625
9481		13.671875
9482		21.484375
9483		7.812500
9484		17.578125
9485		3.906250
9486		13.671875
9487		-1.953125
9488		9.765625
9489		-1.953125
9490		5.859375
9491		-5.859375
9492		0.000000
9493		-9.765625
9494		-3.906250
9495		-17.578125
9496		-7.812500
9497		-21.484375
9498		-11.718750
9499		-23.437500
9500		-15.625000
9501		-27.343750
9502		-21.484375
9503		-31.250000
9504		-23.437500
9505		-37.109375
9506		-27.343750
9507		-39.062500
9508		-33.203125
9509		-42.968750
9510		-37.109375
9511		-46.875000
9512		-41.015625
9513		-52.734375
9514		-44.921875
9515		-56.640625
9516		-48.828125
9517		-60.546875
9518		-52.734375
9519		-64.453125
9520		-56.640625
9521		-70.312500
9522		-60.546875
9523		-72.265625
9524		-64.453125
9525		-74.218750
9526		-70.312500
9527		-80.078125
9528		-74.218750
9529		-83.984375
9530		-76.171875
9531		-89.843750
9532		-80.078125
9533		-91.796875
9534		-83.984375
9535		-95.703125
9536		-87.890625
9537		-97.656250
9538		-89.843750
9539		-101.562500
9540		-93.750000
9541		-103.515625
9542		-99.609375
9543		-107.421875
9544		-101.562500
9545		-111.328125
9546		-103.515625
9547		-115.234375
9548		-107.421875
9549		-117.187500
9550		-109.375000
9551		-121.093750
9552		-113.281250
9553		-125.000000
9554		-115.234375
9555		-126.953125
9556		-119.140625
9557		-128.906250
9558		-121.093750
9559		-130.859375
9560		-125.000000
9561		-134.765625
9562		-128.906250
9563		-136.718750
9564		-128.906250
9565		-138.671875
9566		-130.859375
9567		-142.578125
9568		-132.812500
9569		-144.531250
9570		-136.718750
9571		-144.531250
9572		-138.671875
9573		-146.484375
9574		-138.671875
9575		-146.484375
9576		-144.531250
9577		-148.437500
9578		-144.531250
9579		-152.343750
9580		-144.531250
9581		-154.296875
9582		-146.484375
9583		-154.296875
9584		-148.437500
9585		-156.250000
9586		-148.437500
9587		-156.250000
9588		-150.390625
9589		-158.203125
9590		-150.390625
9591		-156.250000
9592		-154.296875
9593		-156.250000
9594		-154.296875
9595		-158.203125
9596		-154.296875
9597		-160.156250
9598		-154.296875
9599		-160.156250
9600		-154.296875
9601		-160.156250
9602		-154.296875
9603		-160.156250
9604		-154.296875
9605		-160.156250
9606		-154.296875
9607		-160.156250
9608		-154.296875
9609		-158.203125
9610		-156.250000
9611		-158.203125
9612		-154.296875
9613		-158.203125
9614		-152.343750
9615		-158.203125
9616		-152.343750
9617		-156.250000
9618		-152.343750
9619		-156.250000
9620		-150.390625
9621		-154.296875
9622		-148.437500
9623		-154.296875
9624		-148.437500
9625		-150.390625
9626		-148.437500
9627		-148.437500
9628		-146.484375
9629		-148.437500
9630		-142.578125
9631		-148.437500
9632		-140.625000
9633		-146.484375
9634		-138.671875
9635		-144.531250
9636		-136.718750
9637		-142.578125
9638		-134.765625
9639		-140.625000
9640		-132.812500
9641		-138.671875
9642		-132.812500
9643		-132.812500
9644		-128.906250
9645		-130.859375
9646		-125.000000
9647		-130.859375
9648		-123.046875
9649		-126.953125
9650		-121.093750
9651		-125.000000
9652		-117.187500
9653		-121.093750
9654		-113.281250
9655		-119.140625
9656		-111.328125
9657		-115.234375
9658		-109.375000
9659		-111.328125
9660		-105.468750
9661		-107.421875
9662		-103.515625
9663		-105.468750
9664		-97.656250
9665		-101.562500
9666		-95.703125
9667		-99.609375
9668		-89.843750
9669		-95.703125
9670		-85.937500
9671		-91.796875
9672		-83.984375
9673		-87.890625
9674		-80.078125
9675		-82.031250
9676		-78.125000
9677		-78.125000
9678		-72.265625
9679		-74.218750
9680		-68.359375
9681		-72.265625
9682		-64.453125
9683		-68.359375
9684		-60.546875
9685		-64.453125
9686		-54.687500
9687		-60.546875
9688		-50.781250
9689		-56.640625
9690		-46.875000
9691		-52.734375
9692		-44.921875
9693		-46.875000
9694		-41.015625
9695		-41.015625
9696		-37.109375
9697		-41.015625
9698		-29.296875
9699		-35.156250
9700		-25.390625
9701		-29.296875
9702		-21.484375
9703		-27.343750
9704		-17.578125
9705		-23.437500
9706		-13.671875
9707		-17.578125
9708		-9.765625
9709		-11.718750
9710		-5.859375
9711		-7.812500
9712		-1.953125
9713		-3.906250
9714		3.906250
9715		0.000000
9716		7.812500
9717		3.906250
9718		11.718750
9719		7.812500
9720		15.625000
9721		11.718750
9722		19.531250
9723		15.625000
9724		23.437500
9725		19.531250
9726		27.343750
9727		25.390625
9728		31.250000
9729		29.296875
9730		35.156250
9731		31.250000
9732		39.062500
9733		35.156250
9734		42.968750
9735		39.062500
9736		48.828125
9737		44.921875
9738		52.734375
9739		46.875000
9740		54.687500
9741		50.781250
9742		58.593750
9743		56.640625
9744		60.546875
9745		60.546875
9746		64.453125
9747		62.500000
9748		68.359375
9749		64.453125
9750		74.218750
9751		68.359375
9752		78.125000
9753		72.265625
9754		80.078125
9755		76.171875
9756		83.984375
9757		78.125000
9758		85.937500
9759		83.984375
9760		87.890625
9761		85.937500
9762		91.796875
9763		89.843750
9764		95.703125
9765		89.843750
9766		99.609375
9767		93.750000
9768		101.562500
9769		95.703125
9770		105.468750
9771		99.609375
9772		107.421875
9773		101.562500
9774		109.375000
9775		105.468750
9776		111.328125
9777		109.375000
9778		113.281250
9779		111.328125
9780		115.234375
9781		111.328125
9782		121.093750
9783		115.234375
9784		123.046875
9785		115.234375
9786		123.046875
9787		119.140625
9788		126.953125
9789		121.093750
9790		128.906250
9791		123.046875
9792		130.859375
9793		126.953125
9794		130.859375
9795		128.906250
9796		132.812500
9797		128.906250
9798		136.718750
9799		130.859375
9800		138.671875
9801		130.859375
9802		138.671875
9803		132.812500
9804		140.625000
9805		134.765625
9806		142.578125
9807		136.718750
9808		142.578125
9809		136.718750
9810		142.578125
9811		140.625000
9812		144.531250
9813		140.625000
9814		146.484375
9815		140.625000
9816		146.484375
9817		140.625000
9818		148.437500
9819		142.578125
9820		148.437500
9821		142.578125
9822		150.390625
9823		142.578125
9824		150.390625
9825		144.531250
9826		150.390625
9827		146.484375
9828		150.390625
9829		146.484375
9830		150.390625
9831		146.484375
9832		152.343750
9833		146.484375
9834		152.343750
9835		146.484375
9836		152.343750
9837		146.484375
9838		152.343750
9839		146.484375
9840		152.343750
9841		146.484375
9842		152.343750
9843		146.484375
9844		150.390625
9845		146.484375
9846		150.390625
9847		144.531250
9848		150.390625
9849		144.531250
9850		152.343750
9851		144.531250
9852		150.390625
9853		144.531250
9854		150.390625
9855		142.578125
9856		148.437500
9857		142.578125
9858		148.437500
9859		142.578125
9860		148.437500
9861		142.578125
9862		144.531250
9863		140.625000
9864		144.531250
9865		138.671875
9866		144.531250
9867		136.718750
9868		144.531250
9869		134.765625
9870		142.578125
9871		134.765625
9872		142.578125
9873		132.812500
9874		140.625000
9875		130.859375
9876		138.671875
9877		130.859375
9878		136.718750
9879		128.906250
9880		132.812500
9881		126.953125
9882		132.812500
9883		125.000000
9884		130.859375
9885		121.093750
9886		128.906250
9887		119.140625
9888		126.953125
9889		117.187500
9890		125.000000
9891		115.234375
9892		123.046875
9893		115.234375
9894		121.093750
9895		113.281250
9896		117.187500
9897		107.421875
9898		115.234375
9899		105.468750
9900		113.281250
9901		103.515625
9902		111.328125
9903		101.562500
9904		107.421875
9905		97.656250
9906		105.468750
9907		95.703125
9908		103.515625
9909		91.796875
9910		99.609375
9911		91.796875
9912		95.703125
9913		87.890625
9914		91.796875
9915		82.031250
9916		89.843750
9917		80.078125
9918		87.890625
9919		76.171875
9920		83.984375
9921		74.218750
9922		80.078125
9923		70.312500
9924		78.125000
9925		64.453125
9926		74.218750
9927		64.453125
9928		70.312500
9929		60.546875
9930		66.406250
9931		54.687500
9932		62.500000
9933		50.781250
9934		58.593750
9935		46.875000
9936		54.687500
9937		42.968750
9938		52.734375
9939		39.062500
9940		48.828125
9941		37.109375
9942		44.921875
9943		33.203125
9944		41.015625
9945		29.296875
9946		35.156250
9947		25.390625
9948		31.250000
9949		21.484375
9950		27.343750
9951		15.625000
9952		25.390625
9953		11.718750
9954		21.484375
9955		7.812500
9956		15.625000
9957		3.906250
9958		11.718750
9959		0.000000
9960		7.812500
9961		-3.906250
9962		3.906250
9963		-7.812500
9964		-1.953125
9965		-13.671875
9966		-5.859375
9967		-17.578125
9968		-7.812500
9969		-21.484375
9970		-13.671875
9971		-27.343750
9972		-17.578125
9973		-31.250000
9974		-21.484375
9975		-35.156250
9976		-25.390625
9977		-37.109375
9978		-29.296875
9979		-41.015625
9980		-35.156250
9981		-46.875000
9982		-39.062500
9983		-50.781250
9984		-42.968750
9985		-54.687500
9986		-44.921875
9987		-58.593750
9988		-50.781250
9989		-62.500000
9990		-54.687500
9991		-66.406250
9992		-58.593750
9993		-70.312500
9994		-62.500000
9995		-72.265625
9996		-68.359375
9997		-76.171875
9998		-72.265625
9999		-82.031250
10000		-74.218750
